timestamp,AF3,F7,F3,FC5,T7,P7,O1,O2,P8,T8,FC6,F4,F8,AF4
1970-01-01 13:03:47.576984,4183.59,4186.026,4184.872,4188.462,4184.872,4181.667,4175.256,4186.923,4179.103,4186.667,4132.564,3460.256,4183.59,4186.154
1970-01-01 13:03:47.577029,4187.179,4184.744,4188.205,4190.641,4184.872,4179.103,4175.256,4185.641,4182.436,4189.103,4130.769,3458.59,4182.179,4183.077
1970-01-01 13:03:47.591965,4187.821,4182.308,4187.308,4187.051,4185.769,4177.821,4174.359,4186.41,4184.359,4188.974,4136.795,3457.564,4182.564,4183.333
1970-01-01 13:03:47.592010,4186.795,4184.615,4185.256,4185.641,4184.487,4177.179,4174.103,4185.641,4181.795,4186.282,4138.846,3462.179,4184.872,4186.667
1970-01-01 13:03:47.607445,4183.846,4185.513,4182.564,4188.846,4183.462,4179.487,4179.103,4188.205,4184.487,4187.692,4133.718,3464.744,4183.205,4186.667
1970-01-01 13:03:47.607487,4186.154,4182.179,4189.231,4190.769,4183.59,4183.462,4181.795,4186.923,4188.205,4188.974,4130.769,3460.513,4177.179,4180.897
1970-01-01 13:03:47.621956,4186.154,4181.923,4187.949,4188.974,4182.949,4182.692,4178.59,4183.846,4190.0,4187.051,4136.282,3461.282,4182.051,4181.41
1970-01-01 13:03:47.621996,4188.205,4182.949,4188.333,4188.205,4183.462,4176.41,4176.41,4181.538,4188.333,4185.769,4135.385,3461.538,4182.308,4183.718
1970-01-01 13:03:47.637083,4183.077,4181.795,4190.513,4186.026,4184.359,4178.974,4182.564,4183.462,4190.128,4190.513,4130.513,3458.974,4179.872,4183.718
1970-01-01 13:03:47.652083,4182.179,4176.667,4191.667,4186.026,4184.487,4187.821,4189.103,4183.077,4192.436,4192.949,4129.487,3456.538,4177.949,4177.949
1970-01-01 13:03:47.652128,4182.564,4176.026,4183.846,4186.41,4184.615,4191.795,4189.231,4185.256,4193.205,4190.641,4133.205,3457.692,4180.385,4178.205
1970-01-01 13:03:47.667156,4182.692,4182.308,4185.769,4187.436,4185.385,4186.538,4184.103,4187.564,4190.513,4190.256,4133.077,3457.564,4183.205,4183.462
1970-01-01 13:03:47.667200,4186.026,4186.282,4189.487,4188.205,4185.513,4179.615,4180.256,4184.872,4188.077,4190.128,4131.026,3457.051,4187.179,4187.179
1970-01-01 13:03:47.682070,4191.923,4183.077,4187.564,4189.872,4185.256,4177.692,4179.615,4180.0,4186.538,4187.949,4131.026,3455.513,4187.051,4184.872
1970-01-01 13:03:47.682111,4189.359,4182.564,4186.282,4188.462,4184.872,4181.282,4180.128,4180.897,4186.667,4188.59,4132.436,3456.154,4185.256,4186.154
1970-01-01 13:03:47.727350,4182.949,4181.923,4188.59,4187.436,4185.0,4186.538,4184.615,4185.641,4189.231,4190.897,4133.333,3459.872,4181.538,4181.538
1970-01-01 13:03:47.729248,4182.949,4176.538,4187.821,4185.641,4185.385,4188.718,4186.667,4187.564,4190.897,4190.513,4133.718,3461.41,4177.051,4173.205
1970-01-01 13:03:47.729285,4184.231,4178.205,4184.103,4183.077,4185.385,4189.487,4181.923,4186.795,4190.0,4189.231,4134.615,3460.128,4179.487,4177.564
1970-01-01 13:03:47.729311,4190.897,4182.821,4188.59,4185.256,4185.256,4185.897,4177.051,4184.487,4187.179,4191.154,4135.769,3460.0,4184.872,4185.897
1970-01-01 13:03:47.729336,4193.333,4183.846,4190.385,4188.205,4185.385,4179.231,4178.462,4183.846,4187.436,4190.897,4136.026,3460.513,4187.179,4183.462
1970-01-01 13:03:47.729361,4190.513,4184.487,4188.462,4187.692,4185.385,4175.769,4178.462,4183.077,4187.692,4187.949,4135.0,3460.0,4184.872,4180.641
1970-01-01 13:03:47.742768,4188.333,4186.538,4183.59,4183.718,4185.385,4178.974,4174.103,4185.385,4187.821,4188.846,4136.795,3460.769,4186.923,4188.59
1970-01-01 13:03:47.742815,4189.744,4186.795,4188.077,4182.949,4185.513,4183.205,4173.59,4183.974,4187.308,4190.256,4135.128,3461.282,4190.128,4191.026
1970-01-01 13:03:47.772312,4182.821,4183.462,4188.462,4182.436,4185.256,4188.333,4182.179,4182.564,4189.615,4189.231,4131.41,3461.282,4193.333,4185.897
1970-01-01 13:03:47.774184,4181.41,4178.718,4188.718,4183.974,4185.385,4190.641,4188.59,4183.846,4191.41,4188.718,4130.0,3461.41,4188.205,4177.949
1970-01-01 13:03:47.774220,4182.692,4178.333,4184.103,4184.103,4185.641,4192.821,4184.872,4191.282,4191.923,4191.538,4132.179,3464.615,4184.744,4175.513
1970-01-01 13:03:47.774246,4183.205,4177.051,4184.487,4183.59,4184.359,4195.0,4177.949,4190.385,4189.103,4190.128,4130.897,3465.256,4185.0,4175.769
1970-01-01 13:03:47.787380,4182.051,4178.077,4183.974,4184.872,4182.692,4192.051,4176.41,4185.513,4187.821,4186.538,4135.385,3464.103,4190.256,4182.564
1970-01-01 13:03:47.832291,4186.154,4183.077,4184.615,4188.462,4183.333,4187.308,4172.051,4184.872,4186.41,4187.564,4139.103,3460.641,4189.615,4186.282
1970-01-01 13:03:47.832340,4187.692,4190.0,4184.744,4189.487,4184.615,4186.282,4170.641,4185.256,4186.282,4190.897,4137.051,3457.949,4189.359,4186.026
1970-01-01 13:03:47.832367,4190.0,4192.692,4190.769,4190.513,4184.615,4186.026,4180.0,4178.077,4185.256,4189.231,4133.462,3454.615,4187.436,4184.615
1970-01-01 13:03:47.832394,4190.769,4192.949,4193.718,4193.077,4184.359,4185.769,4185.513,4173.974,4184.744,4186.154,4134.487,3454.615,4184.103,4185.897
1970-01-01 13:03:47.847381,4191.795,4192.564,4193.974,4194.872,4184.487,4186.154,4183.333,4175.641,4184.359,4186.41,4135.513,3454.103,4185.385,4186.41
1970-01-01 13:03:47.847428,4193.462,4188.974,4198.462,4195.256,4184.487,4184.872,4187.821,4176.667,4185.128,4189.872,4133.205,3455.0,4189.103,4190.513
1970-01-01 13:03:47.847455,4189.487,4186.154,4199.615,4194.231,4184.487,4185.641,4194.359,4177.692,4188.718,4191.41,4131.538,3454.744,4188.333,4191.923
1970-01-01 13:03:47.877820,4182.821,4184.872,4195.513,4193.974,4184.487,4192.308,4195.256,4180.641,4190.513,4189.872,4130.897,3449.744,4181.282,4181.667
1970-01-01 13:03:47.892366,4177.564,4186.026,4192.564,4196.154,4184.359,4202.564,4201.538,4182.436,4187.564,4191.154,4131.41,3444.615,4177.692,4173.59
1970-01-01 13:03:47.892404,4178.333,4186.667,4199.615,4196.667,4185.385,4203.462,4203.718,4175.641,4182.821,4191.154,4129.615,3445.385,4175.641,4175.513
1970-01-01 13:03:47.892430,4180.769,4190.256,4199.103,4194.872,4186.538,4193.333,4197.564,4171.026,4183.205,4187.692,4129.615,3448.205,4177.308,4183.077
1970-01-01 13:03:47.892455,4187.436,4190.0,4196.41,4197.179,4185.769,4188.974,4197.051,4171.923,4180.769,4188.333,4130.256,3449.487,4176.154,4187.179
1970-01-01 13:03:47.907481,4186.282,4188.333,4193.59,4197.692,4184.872,4194.103,4201.923,4172.949,4179.103,4191.026,4132.692,3451.026,4176.923,4189.231
1970-01-01 13:03:47.907530,4186.795,4195.0,4198.205,4198.077,4185.385,4193.205,4200.128,4167.564,4180.128,4188.333,4132.949,3452.821,4176.538,4186.41
1970-01-01 13:03:47.922469,4189.103,4200.641,4197.821,4197.821,4185.256,4192.821,4198.59,4169.872,4182.179,4188.462,4132.821,3456.923,4181.154,4186.795
1970-01-01 13:03:47.922515,4192.308,4192.308,4200.641,4195.513,4184.872,4193.205,4203.846,4172.179,4181.282,4190.769,4131.923,3458.333,4184.359,4188.846
1970-01-01 13:03:47.937472,4188.077,4186.41,4198.846,4191.154,4185.385,4188.974,4208.462,4169.744,4182.436,4189.487,4132.692,3458.718,4185.385,4190.128
1970-01-01 13:03:47.937511,4189.872,4188.333,4197.949,4191.41,4185.641,4183.974,4204.487,4169.231,4182.051,4188.462,4132.308,3460.128,4182.821,4190.256
1970-01-01 13:03:47.952452,4191.41,4190.769,4196.282,4192.436,4185.513,4183.205,4197.308,4174.872,4181.538,4188.59,4133.59,3460.897,4189.231,4194.872
1970-01-01 13:03:47.999191,4190.769,4190.0,4195.769,4191.282,4185.385,4182.308,4193.205,4175.0,4182.692,4188.59,4133.846,3457.308,4193.462,4195.641
1970-01-01 13:03:48.001106,4190.641,4190.0,4193.077,4190.256,4185.385,4182.692,4194.615,4171.538,4183.59,4190.641,4133.718,3454.744,4189.872,4195.769
1970-01-01 13:03:48.001144,4192.308,4190.513,4193.59,4192.051,4185.769,4185.513,4194.872,4172.051,4183.333,4189.615,4132.436,3455.897,4186.667,4196.923
1970-01-01 13:03:48.001170,4191.795,4190.128,4196.026,4194.615,4185.0,4186.154,4192.308,4174.744,4185.641,4187.949,4131.41,3458.974,4187.436,4191.154
1970-01-01 13:03:48.001194,4191.795,4188.718,4199.231,4194.103,4182.949,4187.308,4196.282,4170.897,4187.308,4190.641,4133.974,3459.615,4188.205,4183.462
1970-01-01 13:03:48.001222,4189.487,4184.872,4201.667,4190.128,4182.949,4189.487,4208.846,4169.487,4185.128,4192.821,4136.795,3456.026,4185.513,4181.795
1970-01-01 13:03:48.022345,4185.128,4184.359,4197.692,4189.103,4185.0,4187.692,4206.026,4179.872,4185.769,4191.795,4136.154,3453.205,4183.59,4183.205
1970-01-01 13:03:48.022398,4189.103,4187.179,4194.487,4190.641,4185.385,4180.385,4184.615,4186.923,4186.154,4190.128,4135.769,3457.179,4188.333,4188.718
1970-01-01 13:03:48.027653,4191.538,4188.333,4193.077,4187.821,4183.974,4177.821,4180.769,4184.359,4185.0,4188.974,4136.282,3460.256,4195.641,4195.385
1970-01-01 13:03:48.029595,4187.692,4183.846,4194.872,4185.513,4182.949,4182.564,4191.923,4179.744,4186.026,4188.718,4133.846,3456.41,4190.256,4191.026
1970-01-01 13:03:48.042656,4182.564,4181.154,4192.051,4186.923,4183.333,4190.256,4190.897,4184.359,4189.487,4191.41,4134.231,3455.641,4182.308,4180.128
1970-01-01 13:03:48.042706,4184.487,4181.667,4189.487,4186.667,4185.256,4190.897,4182.308,4189.615,4187.436,4191.795,4135.128,3461.923,4179.103,4176.026
1970-01-01 13:03:48.057821,4188.205,4185.0,4183.974,4184.103,4186.154,4182.821,4178.974,4188.077,4189.103,4188.846,4134.487,3467.564,4181.538,4185.513
1970-01-01 13:03:48.057871,4194.872,4186.923,4185.513,4184.359,4184.615,4172.308,4174.231,4184.103,4191.795,4187.949,4133.846,3465.0,4181.41,4191.41
1970-01-01 13:03:48.102755,4192.543,4185.321,4184.167,4183.932,4184.38,4173.675,4174.188,4185.641,4192.201,4188.12,4134.786,3465.662,4182.671,4190.513
1970-01-01 13:03:48.102807,4190.214,4183.718,4182.821,4183.504,4184.145,4175.043,4174.145,4187.179,4192.607,4188.291,4135.726,3466.325,4183.932,4189.615
1970-01-01 13:03:48.102835,4187.885,4182.115,4181.474,4183.077,4183.91,4176.41,4174.103,4188.718,4193.013,4188.462,4136.667,3466.987,4185.192,4188.718
1970-01-01 13:03:48.104467,4185.556,4180.513,4180.128,4182.65,4183.675,4177.778,4174.06,4190.256,4193.419,4188.632,4137.607,3467.65,4186.453,4187.821
1970-01-01 13:03:48.104498,4183.226,4178.91,4178.782,4182.222,4183.44,4179.145,4174.017,4191.795,4193.825,4188.803,4138.547,3468.312,4187.714,4186.923
1970-01-01 13:03:48.104523,4180.897,4177.308,4177.436,4181.795,4183.205,4180.513,4173.974,4193.333,4194.231,4188.974,4139.487,3468.974,4188.974,4186.026
1970-01-01 13:03:48.118351,4187.051,4183.077,4174.231,4180.769,4182.564,4173.205,4166.282,4190.385,4191.41,4189.103,4139.615,3467.308,4192.564,4194.872
1970-01-01 13:03:48.132781,4192.564,4184.359,4183.718,4180.769,4182.564,4169.487,4163.333,4188.077,4191.41,4189.487,4136.538,3465.256,4190.513,4195.641
1970-01-01 13:03:48.132835,4193.974,4181.923,4187.051,4181.795,4182.821,4175.0,4166.795,4188.077,4192.051,4188.846,4138.333,3466.538,4186.41,4189.487
1970-01-01 13:03:48.132866,4192.051,4179.615,4184.487,4182.821,4182.564,4181.923,4173.974,4187.564,4189.744,4187.436,4138.077,3467.949,4180.256,4180.897
1970-01-01 13:03:48.147860,4188.462,4180.256,4185.0,4183.333,4183.077,4181.923,4176.154,4190.128,4191.282,4188.462,4135.513,3468.59,4181.667,4182.692
1970-01-01 13:03:48.162769,4190.769,4183.077,4185.385,4181.026,4182.564,4176.154,4167.949,4193.205,4195.385,4190.769,4137.949,3469.103,4187.436,4190.897
1970-01-01 13:03:48.162822,4198.718,4185.128,4185.0,4181.026,4182.051,4169.487,4159.872,4191.538,4193.846,4189.359,4139.231,3471.282,4191.154,4194.487
1970-01-01 13:03:48.177813,4197.051,4185.769,4186.923,4184.615,4183.974,4168.205,4160.385,4190.641,4190.641,4188.077,4136.538,3471.538,4194.103,4194.744
1970-01-01 13:03:48.177860,4190.128,4183.333,4190.385,4184.231,4181.41,4174.615,4167.949,4192.692,4192.564,4189.231,4137.051,3470.513,4192.949,4195.128
1970-01-01 13:03:48.177886,4187.308,4178.59,4187.179,4180.385,4178.333,4184.487,4175.513,4194.103,4196.795,4190.256,4139.744,3470.641,4187.436,4190.385
1970-01-01 13:03:48.192847,4187.308,4173.333,4184.744,4181.41,4181.026,4187.692,4179.872,4193.333,4196.538,4191.282,4137.051,3471.41,4180.0,4181.41
1970-01-01 13:03:48.192896,4182.051,4172.051,4180.385,4181.923,4185.256,4187.308,4179.359,4197.692,4200.128,4192.436,4136.667,3472.692,4182.564,4180.0
1970-01-01 13:03:48.207796,4183.462,4173.205,4182.564,4180.897,4180.769,4186.026,4169.872,4198.205,4200.385,4190.641,4139.359,3471.538,4186.923,4183.462
1970-01-01 13:03:48.222808,4189.359,4179.744,4183.974,4180.513,4175.385,4184.231,4164.487,4194.872,4195.256,4191.282,4142.179,3470.897,4189.615,4188.462
1970-01-01 13:03:48.222857,4197.051,4185.897,4190.513,4185.256,4180.0,4182.564,4169.359,4191.538,4190.897,4191.795,4140.513,3469.103,4186.667,4190.0
1970-01-01 13:03:48.237778,4197.692,4188.333,4193.974,4188.333,4187.564,4184.231,4173.077,4191.538,4191.282,4189.487,4138.333,3466.282,4186.154,4191.923
1970-01-01 13:03:48.253273,4199.231,4187.051,4194.359,4186.282,4187.051,4182.051,4172.436,4188.718,4190.769,4190.128,4138.333,3466.026,4187.821,4193.974
1970-01-01 13:03:48.253322,4194.744,4186.026,4186.026,4180.385,4182.308,4178.59,4176.538,4188.077,4193.718,4194.231,4142.436,3470.0,4192.308,4195.897
1970-01-01 13:03:48.253348,4196.026,4185.769,4190.0,4181.795,4182.564,4181.026,4177.051,4189.487,4194.487,4191.41,4142.051,3472.179,4193.077,4195.256
1970-01-01 13:03:48.282857,4202.308,4188.846,4195.897,4184.103,4181.923,4184.487,4175.385,4191.667,4192.564,4187.308,4140.897,3474.231,4195.256,4199.359
1970-01-01 13:03:48.282906,4207.949,4191.026,4197.051,4181.538,4178.974,4181.026,4176.923,4189.744,4190.641,4190.385,4141.41,3476.538,4193.205,4199.615
1970-01-01 13:03:48.297833,4202.051,4189.231,4192.308,4180.256,4175.128,4181.41,4176.41,4190.0,4192.051,4193.333,4142.436,3473.846,4194.231,4198.718
1970-01-01 13:03:48.297880,4206.026,4187.821,4197.436,4184.231,4175.0,4185.769,4174.103,4190.256,4188.846,4191.41,4140.513,3467.821,4193.974,4197.051
1970-01-01 13:03:48.311970,4207.308,4191.667,4200.641,4186.795,4182.436,4185.256,4177.821,4190.256,4185.769,4191.154,4140.128,3468.205,4193.077,4196.41
1970-01-01 13:03:48.312019,4208.205,4193.59,4202.179,4189.615,4186.026,4183.077,4178.077,4186.282,4186.154,4188.59,4140.769,3467.692,4192.051,4198.718
1970-01-01 13:03:48.326870,4205.897,4193.846,4202.308,4189.744,4183.974,4186.795,4177.692,4181.667,4188.077,4185.0,4141.282,3465.128,4194.615,4206.026
1970-01-01 13:03:48.326920,4211.154,4196.667,4209.487,4189.615,4183.718,4191.923,4186.154,4178.205,4188.718,4187.949,4141.795,3460.769,4194.615,4204.615
1970-01-01 13:03:48.342021,4210.256,4197.564,4215.897,4191.282,4186.026,4189.231,4195.769,4178.59,4186.41,4191.282,4141.026,3460.0,4191.026,4198.59
1970-01-01 13:03:48.342072,4206.41,4196.154,4216.026,4195.0,4185.128,4183.718,4197.051,4181.667,4185.256,4190.128,4141.026,3460.256,4192.308,4201.282
1970-01-01 13:03:48.356985,4200.897,4192.821,4212.821,4191.282,4185.256,4185.385,4193.462,4181.795,4185.513,4190.641,4142.821,3461.538,4196.538,4203.462
1970-01-01 13:03:48.357036,4200.769,4190.641,4209.487,4186.41,4185.0,4189.359,4194.359,4184.359,4186.923,4193.59,4143.846,3462.692,4197.949,4199.359
1970-01-01 13:03:48.372616,4201.795,4189.487,4207.179,4185.641,4183.974,4187.821,4195.897,4186.41,4185.0,4192.179,4141.026,3463.077,4193.718,4200.0
1970-01-01 13:03:48.372764,4191.282,4189.872,4202.179,4183.333,4184.615,4187.564,4192.564,4186.923,4186.282,4191.282,4142.436,3466.282,4196.795,4207.949
1970-01-01 13:03:48.386985,4191.538,4189.103,4206.154,4183.462,4184.487,4189.744,4188.974,4185.385,4189.872,4190.641,4143.846,3464.744,4197.308,4207.051
1970-01-01 13:03:48.387036,4190.385,4191.795,4203.974,4183.718,4184.359,4191.923,4191.282,4187.564,4189.487,4189.231,4144.615,3465.513,4195.0,4204.872
1970-01-01 13:03:48.402035,4186.154,4194.359,4202.436,4186.795,4184.487,4190.0,4198.59,4184.615,4186.026,4190.256,4146.41,3470.128,4193.846,4207.564
1970-01-01 13:03:48.402088,4175.513,4191.667,4194.615,4184.615,4184.487,4186.667,4204.359,4183.718,4191.923,4192.051,4149.744,3472.949,4197.821,4210.641
1970-01-01 13:03:48.416994,4178.59,4188.718,4192.051,4178.59,4184.487,4187.051,4199.615,4187.051,4197.179,4191.667,4147.564,3469.359,4198.077,4204.487
1970-01-01 13:03:48.417042,4168.59,4186.154,4182.564,4176.923,4184.487,4192.692,4200.897,4194.359,4197.821,4191.154,4146.923,3470.897,4196.923,4198.846
1970-01-01 13:03:48.432021,4166.154,4182.436,4181.282,4182.308,4184.487,4191.41,4201.282,4194.103,4195.256,4192.436,4143.718,3471.923,4193.077,4195.256
1970-01-01 13:03:48.432073,4169.231,4182.051,4177.692,4181.026,4184.487,4186.282,4191.41,4192.949,4195.0,4191.923,4141.538,3470.769,4196.923,4194.872
1970-01-01 13:03:48.447130,4164.231,4181.795,4171.154,4173.462,4184.487,4181.41,4181.154,4197.179,4195.769,4189.872,4142.949,3470.128,4200.256,4193.974
1970-01-01 13:03:48.447181,4150.897,4180.769,4161.154,4178.462,4184.487,4183.59,4184.487,4200.897,4197.051,4189.872,4142.949,3467.564,4196.41,4191.538
1970-01-01 13:03:48.462065,4153.462,4182.564,4156.538,4183.333,4184.487,4187.692,4185.128,4200.385,4195.513,4190.385,4140.256,3465.897,4193.974,4189.359
1970-01-01 13:03:48.462114,4154.103,4183.718,4154.231,4178.59,4184.487,4182.564,4182.436,4199.231,4193.974,4190.769,4141.282,3468.077,4198.462,4188.718
1970-01-01 13:03:48.477138,4143.846,4182.692,4151.026,4179.103,4184.487,4178.718,4182.821,4200.385,4194.744,4191.026,4142.949,3468.974,4200.385,4190.769
1970-01-01 13:03:48.477187,4138.205,4181.538,4148.462,4184.487,4184.487,4181.538,4182.179,4199.615,4194.872,4190.513,4139.359,3471.667,4197.179,4191.923
1970-01-01 13:03:48.492097,4139.231,4183.974,4146.154,4183.333,4184.231,4181.795,4186.41,4200.897,4197.436,4190.385,4138.974,3472.949,4198.59,4191.154
1970-01-01 13:03:48.492148,4137.051,4185.385,4145.897,4179.872,4184.487,4177.564,4182.692,4202.051,4197.308,4189.615,4140.897,3470.769,4197.179,4188.718
1970-01-01 13:03:48.508616,4132.436,4184.744,4143.59,4182.436,4184.615,4177.436,4171.923,4200.513,4194.615,4189.359,4140.897,3469.615,4194.615,4188.077
1970-01-01 13:03:48.508662,4128.462,4182.308,4145.513,4184.744,4183.974,4177.436,4174.615,4199.359,4192.949,4190.897,4136.538,3473.59,4191.282,4190.769
1970-01-01 13:03:48.522082,4125.128,4183.333,4144.359,4184.487,4184.872,4178.59,4181.41,4198.846,4193.205,4191.026,4135.641,3478.59,4191.667,4196.154
1970-01-01 13:03:48.522128,4122.308,4185.897,4147.051,4185.0,4187.436,4181.41,4172.821,4194.231,4192.564,4186.282,4138.333,3477.949,4192.051,4198.974
1970-01-01 13:03:48.537218,4114.872,4186.154,4149.872,4184.872,4186.923,4181.154,4164.872,4193.974,4193.205,4185.769,4138.718,3475.641,4192.436,4200.641
1970-01-01 13:03:48.552178,4109.487,4185.769,4152.692,4186.282,4184.744,4181.923,4173.974,4195.128,4192.179,4189.487,4134.487,3475.256,4191.41,4206.41
1970-01-01 13:03:48.552225,4111.795,4183.462,4155.128,4185.897,4185.513,4183.59,4177.692,4191.667,4189.359,4191.282,4133.462,3474.359,4189.744,4210.769
1970-01-01 13:03:48.567242,4125.385,4179.615,4163.718,4186.154,4186.154,4181.538,4172.436,4188.59,4189.744,4188.077,4135.0,3469.103,4187.051,4203.718
1970-01-01 13:03:48.582197,4143.718,4181.154,4172.436,4186.282,4184.487,4180.641,4172.179,4189.103,4191.538,4186.41,4135.256,3466.923,4184.615,4200.385
1970-01-01 13:03:48.582243,4171.026,4180.385,4181.026,4185.0,4184.103,4180.256,4172.051,4186.282,4190.256,4184.872,4134.103,3468.59,4183.462,4203.205
1970-01-01 13:03:48.582270,4196.538,4175.641,4189.231,4183.974,4184.359,4176.538,4169.359,4181.923,4183.59,4185.128,4131.154,3465.513,4181.795,4198.462
1970-01-01 13:03:48.597361,4206.538,4176.538,4192.051,4182.179,4183.718,4174.744,4170.385,4183.462,4181.538,4186.026,4129.744,3461.795,4181.154,4195.769
1970-01-01 13:03:48.599271,4229.103,4180.128,4196.667,4180.897,4183.077,4175.769,4171.154,4182.308,4184.744,4187.051,4129.744,3461.282,4179.872,4195.256
1970-01-01 13:03:48.612330,4253.333,4177.821,4201.923,4180.641,4182.949,4176.667,4168.462,4180.769,4185.513,4185.513,4131.026,3462.179,4177.949,4183.077
1970-01-01 13:03:48.627726,4207.051,4175.769,4205.385,4186.282,4184.615,4178.846,4176.538,4183.333,4184.359,4184.359,4132.692,3463.846,4178.974,4176.282
1970-01-01 13:03:48.627774,4137.564,4183.59,4205.128,4193.59,4185.897,4182.821,4187.821,4186.923,4188.974,4186.154,4133.846,3468.59,4184.744,4189.744
1970-01-01 13:03:48.642296,4133.846,4189.103,4199.231,4192.308,4185.897,4180.385,4182.821,4184.872,4191.282,4186.026,4133.462,3476.923,4186.667,4200.0
1970-01-01 13:03:48.642345,4176.795,4184.103,4185.769,4184.615,4185.256,4176.667,4171.795,4182.692,4188.718,4184.872,4133.077,3482.436,4185.385,4195.256
1970-01-01 13:03:48.657324,4229.872,4176.667,4170.128,4182.308,4184.359,4178.077,4169.103,4182.949,4185.769,4185.897,4131.795,3476.41,4182.179,4191.154
1970-01-01 13:03:48.657369,4273.846,4177.821,4155.641,4183.718,4183.974,4177.564,4169.615,4183.077,4187.436,4187.436,4130.385,3464.103,4180.256,4201.667
1970-01-01 13:03:48.672364,4248.077,4180.128,4152.051,4184.872,4185.128,4177.949,4174.359,4182.179,4188.974,4187.051,4132.821,3462.564,4181.026,4212.308
1970-01-01 13:03:48.672410,4181.41,4181.026,4158.077,4186.923,4185.256,4186.026,4184.359,4184.359,4185.513,4187.821,4135.128,3466.795,4185.641,4199.615
1970-01-01 13:03:48.687423,4171.41,4184.359,4162.821,4188.077,4184.744,4188.077,4184.359,4187.308,4183.718,4186.026,4134.359,3461.667,4185.256,4175.128
1970-01-01 13:03:48.687469,4172.564,4188.333,4158.077,4190.641,4186.41,4185.641,4182.179,4191.154,4190.641,4186.154,4138.077,3455.128,4185.641,4171.667
1970-01-01 13:03:48.702346,4142.308,4191.538,4145.769,4194.487,4187.821,4189.872,4186.538,4192.179,4193.718,4193.205,4142.179,3454.615,4189.615,4177.308
1970-01-01 13:03:48.702390,4114.231,4195.513,4139.744,4195.128,4186.538,4195.256,4188.205,4195.128,4192.308,4193.333,4141.282,3455.513,4192.308,4175.256
1970-01-01 13:03:48.717337,4078.718,4196.538,4148.077,4194.231,4186.026,4194.487,4190.0,4198.59,4192.949,4189.615,4139.103,3458.718,4192.949,4176.026
1970-01-01 13:03:48.717376,4068.59,4196.026,4149.872,4196.667,4186.667,4192.564,4194.103,4197.692,4191.923,4190.0,4142.051,3462.308,4193.846,4179.872
1970-01-01 13:03:48.732487,4111.923,4192.436,4140.897,4194.487,4186.923,4192.179,4189.615,4191.923,4188.974,4191.026,4141.538,3464.744,4193.077,4180.897
1970-01-01 13:03:48.732534,4152.949,4189.487,4134.872,4190.385,4184.744,4190.897,4181.41,4190.641,4190.897,4187.179,4138.333,3463.974,4193.077,4178.333
1970-01-01 13:03:48.747966,4106.41,4194.872,4134.744,4195.641,4184.487,4191.154,4186.667,4198.077,4194.615,4189.359,4139.744,3464.103,4197.436,4179.615
1970-01-01 13:03:48.748013,4002.308,4201.026,4139.487,4201.538,4192.821,4194.744,4198.077,4201.154,4195.897,4192.436,4142.949,3471.667,4202.179,4193.077
1970-01-01 13:03:48.762424,3941.026,4202.821,4142.436,4200.641,4201.282,4200.0,4201.795,4199.615,4196.41,4192.564,4145.641,3481.282,4205.0,4204.615
1970-01-01 13:03:48.762465,3938.462,4203.974,4140.0,4200.769,4202.821,4199.231,4203.718,4201.154,4198.205,4193.462,4147.692,3484.615,4206.026,4198.077
1970-01-01 13:03:48.777475,3945.769,4201.795,4166.923,4201.538,4200.769,4194.615,4200.256,4203.718,4197.821,4191.538,4145.769,3482.436,4204.744,4189.872
1970-01-01 13:03:48.777512,3941.282,4191.538,4251.282,4196.026,4194.231,4192.051,4190.769,4195.385,4191.538,4187.436,4139.359,3475.897,4197.179,4188.077
1970-01-01 13:03:48.792603,3957.692,4184.615,4328.59,4191.795,4185.128,4187.308,4184.744,4187.564,4191.154,4188.205,4137.949,3463.59,4189.615,4179.103
1970-01-01 13:03:48.792655,4001.923,4180.385,4331.538,4191.795,4183.718,4178.846,4182.308,4187.821,4192.308,4190.769,4135.897,3465.256,4185.256,4187.564
1970-01-01 13:03:48.807568,4045.128,4174.615,4301.795,4188.077,4185.0,4177.308,4174.615,4186.795,4187.179,4190.128,4132.564,3481.282,4184.872,4217.692
1970-01-01 13:03:48.807615,4185.641,4165.385,4282.436,4179.231,4179.487,4174.359,4161.41,4179.231,4182.692,4186.923,4131.41,3477.949,4175.897,4215.256
1970-01-01 13:03:48.822643,4611.026,4142.821,4242.051,4159.487,4164.103,4151.282,4137.051,4160.769,4175.385,4180.897,4119.744,3448.462,4151.795,4157.564
1970-01-01 13:03:48.837549,5015.385,4121.41,4203.205,4142.308,4151.154,4127.436,4113.077,4143.333,4160.128,4176.41,4103.718,3424.359,4131.667,4098.846
1970-01-01 13:03:48.837586,4845.128,4138.59,4218.846,4153.718,4163.205,4140.385,4125.769,4153.846,4161.538,4181.923,4111.154,3421.795,4146.41,4094.103
1970-01-01 13:03:48.837613,4297.308,4179.103,4231.154,4184.103,4186.41,4171.795,4168.846,4183.59,4182.179,4189.231,4135.128,3440.641,4181.667,4139.231
1970-01-01 13:03:48.852665,4033.59,4193.846,4193.974,4195.128,4188.846,4187.308,4190.128,4196.538,4192.949,4190.256,4143.077,3475.641,4197.821,4180.769
1970-01-01 13:03:48.852711,4135.641,4182.308,4204.359,4184.872,4182.051,4186.538,4178.974,4188.333,4190.385,4185.897,4135.769,3473.846,4191.41,4178.718
1970-01-01 13:03:48.867665,4270.256,4174.231,4285.128,4177.692,4183.846,4178.462,4167.564,4180.0,4185.256,4185.128,4131.026,3419.744,4182.821,4163.205
1970-01-01 13:03:48.883161,4239.872,4172.564,4379.103,4179.615,4184.744,4170.897,4165.769,4177.949,4180.897,4186.41,4130.128,3387.051,4177.436,4167.821
1970-01-01 13:03:48.883208,4020.513,4176.667,4455.0,4188.974,4183.718,4176.923,4170.385,4185.641,4184.615,4185.897,4135.513,3416.154,4183.462,4184.103
1970-01-01 13:03:48.883234,3848.077,4189.103,4441.795,4198.333,4186.538,4188.077,4180.128,4194.615,4193.718,4188.974,4140.385,3453.205,4196.154,4195.641
1970-01-01 13:03:48.927625,3936.923,4194.744,4298.462,4194.615,4187.949,4191.923,4187.564,4194.872,4195.513,4192.564,4140.513,3458.846,4195.897,4200.385
1970-01-01 13:03:48.927669,4145.128,4187.692,4125.256,4183.205,4186.795,4190.128,4185.769,4193.59,4192.308,4191.41,4140.513,3467.564,4187.564,4208.333
1970-01-01 13:03:48.929691,4298.974,4184.231,3978.974,4183.077,4185.641,4186.282,4184.231,4193.974,4191.282,4188.718,4139.744,3487.051,4190.385,4213.974
1970-01-01 13:03:48.929726,4413.077,4191.41,3830.0,4186.538,4186.026,4189.359,4187.308,4196.282,4194.231,4190.128,4138.846,3486.538,4199.103,4207.308
1970-01-01 13:03:48.942948,4495.0,4191.41,3792.436,4179.359,4186.41,4195.897,4186.026,4194.231,4191.41,4191.667,4137.436,3458.59,4192.821,4177.821
1970-01-01 13:03:48.942994,4468.077,4184.231,3949.615,4176.154,4185.256,4191.026,4184.744,4188.59,4183.974,4190.641,4136.41,3437.949,4183.205,4137.564
1970-01-01 13:03:48.957806,4326.667,4180.128,4147.308,4182.821,4184.872,4181.923,4185.256,4183.462,4183.205,4189.103,4133.59,3444.359,4180.897,4125.641
1970-01-01 13:03:48.957851,4159.359,4180.897,4236.41,4186.026,4185.513,4185.385,4183.846,4185.256,4189.615,4187.308,4132.821,3463.59,4182.821,4164.359
1970-01-01 13:03:48.974348,4076.538,4181.667,4244.103,4188.205,4185.256,4187.692,4184.487,4186.41,4189.615,4187.436,4132.821,3471.154,4185.128,4210.0
1970-01-01 13:03:48.974392,4110.256,4181.538,4219.231,4187.308,4185.128,4181.923,4186.026,4185.897,4188.462,4187.051,4133.462,3460.385,4187.564,4213.205
1970-01-01 13:03:48.986879,4192.821,4176.41,4177.179,4178.59,4184.359,4178.462,4178.59,4185.769,4189.103,4187.692,4133.59,3465.641,4182.179,4212.051
1970-01-01 13:03:48.986927,4246.026,4174.231,4156.41,4175.769,4182.179,4178.077,4166.795,4182.692,4185.0,4189.872,4130.0,3482.179,4177.692,4237.051
1970-01-01 13:03:49.001913,4242.821,4175.769,4167.179,4175.385,4182.436,4176.41,4165.897,4180.0,4181.026,4185.513,4129.744,3478.205,4181.282,4250.256
1970-01-01 13:03:49.001962,4240.641,4175.256,4167.949,4159.872,4185.0,4174.744,4167.949,4179.487,4180.256,4183.333,4129.744,3471.795,4180.256,4256.923
1970-01-01 13:03:49.046861,4203.407,4177.289,4100.769,4164.707,4189.341,4181.777,4177.857,4185.256,4184.505,4185.971,4134.396,3486.85,4187.198,4249.524
1970-01-01 13:03:49.046906,4166.172,4179.322,4033.59,4169.542,4193.681,4188.81,4187.766,4191.026,4188.755,4188.608,4139.048,3501.905,4194.139,4242.125
1970-01-01 13:03:49.046933,4128.938,4181.355,3966.41,4174.377,4198.022,4195.842,4197.674,4196.795,4193.004,4191.245,4143.7,3516.96,4201.081,4234.725
1970-01-01 13:03:49.046959,4091.703,4183.388,3899.231,4179.212,4202.363,4202.875,4207.582,4202.564,4197.253,4193.883,4148.352,3532.015,4208.022,4227.326
1970-01-01 13:03:49.048968,4054.469,4185.421,3832.051,4184.048,4206.703,4209.908,4217.491,4208.333,4201.502,4196.52,4153.004,3547.07,4214.963,4219.927
1970-01-01 13:03:49.049001,4017.234,4187.454,3764.872,4188.883,4211.044,4216.941,4227.399,4214.103,4205.751,4199.158,4157.656,3562.125,4221.905,4212.527
1970-01-01 13:03:49.049025,3980.0,4189.487,3697.692,4193.718,4215.385,4223.974,4237.308,4219.872,4210.0,4201.795,4162.308,3577.179,4228.846,4205.128
1970-01-01 13:03:49.049047,4015.128,4173.718,3710.769,4195.641,4212.564,4221.026,4232.051,4218.333,4208.462,4201.026,4160.513,3550.0,4226.41,4252.051
1970-01-01 13:03:49.049069,3975.128,4139.103,3855.0,4224.103,4200.256,4212.564,4216.667,4216.795,4208.077,4192.436,4152.308,3530.769,4218.205,4250.128
1970-01-01 13:03:49.049091,4052.949,4106.154,3955.769,4221.154,4200.641,4203.462,4204.872,4207.949,4201.923,4193.333,4144.487,3518.205,4210.128,4218.205
1970-01-01 13:03:49.062683,4176.667,4115.385,4029.487,4202.051,4200.385,4196.026,4194.231,4196.923,4196.154,4193.205,4141.282,3487.051,4199.231,4186.026
1970-01-01 13:03:49.062733,4185.0,4152.821,4139.103,4201.41,4188.462,4188.333,4186.154,4192.949,4191.154,4184.615,4136.667,3450.385,4186.667,4166.026
1970-01-01 13:03:49.077076,4150.256,4172.949,4238.462,4203.205,4181.026,4182.051,4181.795,4189.359,4187.179,4183.462,4131.282,3442.051,4183.205,4157.308
1970-01-01 13:03:49.077122,4178.077,4172.179,4275.769,4196.667,4186.667,4179.231,4176.154,4180.513,4185.897,4187.949,4129.359,3445.128,4182.436,4147.564
1970-01-01 13:03:49.091944,4239.231,4167.051,4316.795,4193.718,4184.231,4175.513,4165.513,4177.179,4183.462,4186.923,4128.205,3429.487,4174.103,4145.256
1970-01-01 13:03:49.091986,4266.538,4161.41,4412.949,4192.692,4172.821,4167.564,4156.282,4175.0,4177.308,4184.744,4123.077,3402.436,4162.821,4151.923
1970-01-01 13:03:49.107569,4234.231,4154.231,4502.692,4188.974,4169.103,4160.897,4153.462,4168.077,4176.154,4185.256,4118.59,3413.333,4158.846,4161.282
1970-01-01 13:03:49.107623,4225.128,4143.974,4578.333,4183.205,4163.974,4152.308,4143.59,4157.308,4173.462,4184.487,4113.462,3458.846,4149.872,4176.026
1970-01-01 13:03:49.122017,4264.872,4136.923,4654.231,4167.179,4154.744,4141.795,4130.256,4149.615,4160.769,4184.231,4109.103,3485.641,4138.846,4188.718
1970-01-01 13:03:49.137064,4340.641,4144.487,4554.103,4162.692,4159.103,4142.821,4133.974,4149.487,4158.205,4182.821,4109.615,3496.795,4139.487,4184.487
1970-01-01 13:03:49.138725,4450.769,4167.692,4193.59,4177.949,4170.897,4156.538,4152.564,4158.846,4171.282,4183.718,4116.154,3537.821,4152.051,4196.41
1970-01-01 13:03:49.138758,4486.41,4188.462,4015.256,4166.41,4167.949,4162.436,4161.41,4167.564,4178.333,4186.026,4121.795,3563.718,4163.333,4218.846
1970-01-01 13:03:49.152099,4464.615,4205.769,4125.897,4133.718,4162.308,4158.846,4161.154,4166.667,4175.256,4183.718,4119.744,3531.154,4163.718,4203.333
1970-01-01 13:03:49.152147,4542.436,4235.0,3769.359,4130.897,4178.846,4182.564,4194.103,4183.462,4185.897,4185.513,4130.641,3532.821,4185.769,4203.077
1970-01-01 13:03:49.167293,4659.231,4284.103,3006.667,4146.026,4198.205,4222.436,4242.564,4214.231,4205.513,4195.385,4158.205,3590.513,4228.077,4265.0
1970-01-01 13:03:49.182134,4558.846,4349.103,2780.385,4152.821,4205.897,4238.718,4259.231,4228.718,4214.872,4203.462,4172.692,3603.077,4246.41,4309.103
1970-01-01 13:03:49.182180,4347.179,4404.359,2750.385,4170.0,4217.564,4249.872,4276.41,4242.436,4224.231,4200.513,4179.231,3603.718,4253.077,4331.923
1970-01-01 13:03:49.182208,4353.846,4421.026,2193.59,4202.949,4236.154,4276.282,4319.231,4272.949,4243.462,4201.026,4199.744,3657.179,4286.282,4385.256
1970-01-01 13:03:49.212193,4431.41,4397.949,1897.051,4225.256,4241.923,4286.795,4324.103,4283.846,4248.205,4209.744,4208.59,3682.949,4300.897,4407.179
1970-01-01 13:03:49.212240,4316.41,4380.256,2317.051,4237.308,4235.128,4266.282,4281.026,4263.718,4235.641,4210.897,4193.462,3657.821,4273.59,4389.744
1970-01-01 13:03:49.227629,4172.051,4373.974,2520.128,4276.667,4234.744,4253.974,4266.026,4252.692,4233.59,4204.103,4188.59,3670.641,4260.256,4402.179
1970-01-01 13:03:49.227673,4258.974,4333.718,2314.231,4327.949,4239.103,4259.487,4276.026,4255.769,4237.949,4199.872,4193.59,3692.564,4266.795,4411.282
1970-01-01 13:03:49.242205,4329.359,4266.667,2114.103,4353.846,4252.308,4279.615,4293.846,4264.231,4240.641,4206.154,4197.436,3683.205,4277.821,4406.41
1970-01-01 13:03:49.242250,4134.103,4218.846,2244.615,4348.59,4256.154,4287.692,4303.205,4270.513,4242.949,4211.026,4202.821,3682.692,4289.615,4410.513
1970-01-01 13:03:49.257262,4112.436,4179.872,2976.923,4291.667,4224.615,4237.179,4245.769,4236.667,4219.872,4198.846,4179.872,3639.231,4256.41,4350.897
1970-01-01 13:03:49.257303,4362.051,4150.256,3831.923,4205.0,4185.641,4177.308,4170.641,4185.897,4183.846,4185.641,4138.205,3533.718,4190.385,4240.769
1970-01-01 13:03:49.272313,4381.41,4152.051,4231.667,4162.564,4171.795,4166.795,4159.231,4168.333,4175.513,4184.359,4120.897,3474.487,4157.436,4184.744
1970-01-01 13:03:49.272359,4231.41,4148.974,4345.0,4171.41,4173.59,4174.231,4168.462,4167.436,4183.077,4185.385,4121.538,3483.974,4153.718,4181.282
1970-01-01 13:03:49.287340,4332.821,4141.41,4361.923,4176.667,4166.667,4160.513,4151.026,4157.308,4175.256,4183.846,4116.026,3496.154,4142.949,4194.872
1970-01-01 13:03:49.287387,4498.077,4139.872,4396.923,4173.718,4153.333,4133.205,4123.974,4145.256,4159.744,4181.026,4108.333,3499.103,4126.795,4214.615
1970-01-01 13:03:49.302203,4409.744,4125.897,4536.154,4193.718,4150.0,4112.051,4100.769,4136.026,4150.128,4172.564,4103.974,3512.179,4119.872,4230.128
1970-01-01 13:03:49.302242,4258.077,4130.0,4773.333,4214.359,4150.0,4103.333,4084.487,4123.846,4142.692,4165.897,4093.974,3532.692,4111.026,4249.231
1970-01-01 13:03:49.317279,4097.308,4085.897,5617.949,4180.897,4117.436,4066.923,4036.154,4086.41,4119.487,4162.436,4064.359,3546.667,4058.205,4223.718
1970-01-01 13:03:49.317315,3832.821,3916.667,7285.128,4103.205,4046.41,3970.513,3915.769,4001.538,4066.282,4144.872,4003.974,3502.179,3948.59,4103.846
1970-01-01 13:03:49.332332,3630.256,3818.077,7889.487,4120.769,4021.538,3929.487,3867.949,3962.692,4038.974,4136.026,3981.026,3502.436,3906.923,4076.41
1970-01-01 13:03:49.332378,3637.179,3910.897,6481.667,4243.333,4079.359,4004.872,3976.795,4031.667,4077.051,4152.692,4038.846,3694.872,3992.821,4268.718
1970-01-01 13:03:49.347900,3891.667,4015.769,5016.538,4267.179,4128.333,4061.795,4058.462,4092.179,4115.256,4165.0,4089.359,3898.718,4068.718,4464.487
1970-01-01 13:03:49.347949,4844.359,3991.923,4534.872,4147.564,4098.59,4009.359,3992.692,4052.564,4089.231,4156.154,4064.103,3948.462,4027.436,4540.256
1970-01-01 13:03:49.362350,6123.205,3831.026,4887.436,4002.179,4015.897,3888.205,3841.923,3947.051,4015.385,4135.256,3993.205,4022.179,3897.949,4598.59
1970-01-01 13:03:49.362388,6235.641,3658.846,6205.0,3901.538,3947.949,3777.308,3711.026,3847.949,3952.436,4115.641,3928.846,4104.103,3773.59,4647.308
1970-01-01 13:03:49.377308,5733.718,3627.179,7575.128,3881.923,3925.385,3730.513,3664.872,3807.308,3936.154,4105.0,3893.333,3861.923,3730.897,4542.692
1970-01-01 13:03:49.377348,6171.923,3667.179,7840.385,3929.744,3929.359,3734.487,3682.949,3813.846,3940.897,4106.026,3884.359,3408.333,3743.077,4309.872
1970-01-01 13:03:49.392466,6630.256,3702.564,7456.41,3964.359,3948.205,3765.0,3726.154,3842.308,3954.744,4112.821,3897.308,3160.256,3777.564,4180.385
1970-01-01 13:03:49.392512,5911.026,3797.308,7185.385,3983.59,3990.641,3826.538,3801.026,3896.667,3989.103,4127.179,3934.744,3176.41,3849.744,4229.231
1970-01-01 13:03:49.407455,4984.615,3916.026,6742.821,4049.872,4040.641,3906.538,3898.59,3962.949,4032.821,4146.026,3988.333,3302.179,3936.667,4334.744
1970-01-01 13:03:49.407501,4603.974,3994.872,6103.333,4114.744,4071.026,3970.128,3975.641,4012.436,4067.051,4155.897,4030.385,3424.359,3996.41,4432.564
1970-01-01 13:03:49.422464,4441.41,4078.077,5374.359,4151.538,4099.872,4023.846,4038.462,4058.205,4099.487,4163.333,4064.615,3488.205,4053.59,4513.718
1970-01-01 13:03:49.422501,4563.077,4141.538,4633.59,4184.487,4129.872,4065.897,4083.718,4098.205,4125.385,4173.59,4094.872,3518.333,4110.769,4501.538
1970-01-01 13:03:49.467528,4873.846,4153.205,4181.282,4200.0,4140.769,4079.615,4097.051,4115.897,4134.872,4179.359,4109.359,3533.974,4136.795,4395.641
1970-01-01 13:03:49.467579,5011.154,4157.564,4065.897,4197.949,4146.026,4086.667,4107.692,4126.923,4143.974,4181.026,4114.615,3507.308,4145.897,4280.513
1970-01-01 13:03:49.469447,4985.513,4162.179,4171.154,4192.692,4152.692,4099.872,4119.231,4131.795,4149.231,4185.128,4113.974,3473.077,4146.026,4159.231
1970-01-01 13:03:49.469480,4923.333,4158.846,4297.051,4190.0,4154.744,4110.128,4121.41,4135.769,4150.256,4187.821,4112.051,3463.974,4144.487,4077.821
1970-01-01 13:03:49.469504,4819.744,4156.026,4414.487,4188.59,4151.282,4114.359,4122.949,4141.667,4152.436,4184.231,4113.59,3439.487,4146.538,4063.59
1970-01-01 13:03:49.469528,4621.026,4168.205,4498.718,4190.769,4155.385,4123.333,4132.949,4149.231,4159.487,4185.0,4120.128,3412.564,4157.308,4081.795
1970-01-01 13:03:49.497681,4442.179,4186.41,4445.513,4198.718,4163.333,4133.205,4141.923,4161.667,4168.846,4186.795,4127.051,3414.872,4173.333,4110.128
1970-01-01 13:03:49.497729,4312.564,4200.641,4329.359,4210.513,4171.667,4145.128,4153.59,4178.077,4174.872,4187.949,4136.41,3427.436,4187.436,4152.051
1970-01-01 13:03:49.663575,4209.359,4212.949,4234.231,4215.385,4183.974,4161.282,4175.897,4188.205,4182.051,4191.154,4146.154,3435.256,4200.641,4194.615
1970-01-01 13:03:49.663626,4161.538,4224.744,4146.538,4213.333,4188.333,4174.615,4188.846,4194.487,4191.282,4194.487,4152.308,3436.923,4215.385,4218.205
1970-01-01 13:03:49.665524,4123.205,4228.462,4094.487,4216.154,4185.769,4185.513,4191.923,4202.308,4195.128,4196.026,4157.692,3418.846,4223.718,4224.744
1970-01-01 13:03:49.665561,4086.026,4226.538,4078.205,4218.077,4187.436,4199.359,4202.692,4208.59,4197.564,4200.0,4162.436,3401.538,4227.436,4219.231
1970-01-01 13:03:49.665587,4074.103,4224.231,4072.308,4217.051,4190.0,4202.949,4207.821,4209.872,4199.231,4201.667,4160.513,3410.641,4227.821,4206.667
1970-01-01 13:03:49.665613,4093.462,4228.205,4075.0,4215.641,4192.308,4193.462,4201.923,4209.615,4196.538,4198.333,4157.308,3416.795,4226.795,4191.026
1970-01-01 13:03:49.797630,4082.532,4229.69,4061.122,4214.647,4193.654,4196.731,4204.647,4211.709,4198.237,4198.686,4158.761,3415.427,4229.071,4189.017
1970-01-01 13:03:49.797679,4071.603,4231.175,4047.244,4213.654,4195.0,4200.0,4207.372,4213.803,4199.936,4199.038,4160.214,3414.06,4231.346,4187.009
1970-01-01 13:03:49.797706,4060.673,4232.66,4033.365,4212.66,4196.346,4203.269,4210.096,4215.897,4201.635,4199.391,4161.667,3412.692,4233.622,4185.0
1970-01-01 13:03:49.797732,4049.744,4234.145,4019.487,4211.667,4197.692,4206.538,4212.821,4217.991,4203.333,4199.744,4163.12,3411.325,4235.897,4182.991
1970-01-01 13:03:49.799762,4038.814,4235.63,4005.609,4210.673,4199.038,4209.808,4215.545,4220.085,4205.032,4200.096,4164.573,3409.957,4238.173,4180.983
1970-01-01 13:03:49.799799,4027.885,4237.115,3991.731,4209.679,4200.385,4213.077,4218.269,4222.179,4206.731,4200.449,4166.026,3408.59,4240.449,4178.974
1970-01-01 13:03:49.799826,4016.955,4238.6,3977.853,4208.686,4201.731,4216.346,4220.994,4224.274,4208.429,4200.801,4167.479,3407.222,4242.724,4176.966
1970-01-01 13:03:49.799852,4006.026,4240.085,3963.974,4207.692,4203.077,4219.615,4223.718,4226.368,4210.128,4201.154,4168.932,3405.855,4245.0,4174.957
1970-01-01 13:03:49.799878,3995.096,4241.571,3950.096,4206.699,4204.423,4222.885,4226.442,4228.462,4211.827,4201.506,4170.385,3404.487,4247.276,4172.949
1970-01-01 13:03:49.799903,3984.167,4243.056,3936.218,4205.705,4205.769,4226.154,4229.167,4230.556,4213.526,4201.859,4171.838,3403.12,4249.551,4170.94
1970-01-01 13:03:49.799928,3973.237,4244.541,3922.34,4204.712,4207.115,4229.423,4231.891,4232.65,4215.224,4202.212,4173.291,3401.752,4251.827,4168.932
1970-01-01 13:03:49.799953,3962.308,4246.026,3908.462,4203.718,4208.462,4232.692,4234.615,4234.744,4216.923,4202.564,4174.744,3400.385,4254.103,4166.923
1970-01-01 13:03:49.801481,3924.103,4249.872,3861.026,4203.846,4215.513,4246.538,4247.308,4240.513,4226.154,4203.718,4178.846,3399.359,4264.487,4166.923
1970-01-01 13:03:49.801512,3886.41,4259.231,3793.974,4206.282,4217.949,4253.205,4251.282,4249.359,4234.103,4208.59,4184.231,3398.462,4275.385,4168.974
1970-01-01 13:03:49.801537,3841.41,4272.436,3705.0,4209.487,4223.59,4258.462,4255.641,4260.513,4237.949,4208.462,4187.692,3396.41,4289.487,4178.205
1970-01-01 13:03:49.801563,3776.667,4285.897,3594.872,4209.359,4232.949,4269.103,4273.718,4272.179,4245.128,4207.179,4196.923,3393.974,4303.974,4187.692
1970-01-01 13:03:49.801589,3687.949,4301.41,3436.282,4208.718,4242.692,4291.923,4298.462,4288.462,4256.538,4213.59,4212.308,3403.462,4323.974,4203.846
1970-01-01 13:03:49.801614,3587.308,4318.077,3220.256,4215.385,4251.282,4317.949,4318.333,4307.821,4268.462,4219.872,4224.103,3426.282,4346.026,4227.179
1970-01-01 13:03:49.801657,3478.205,4343.462,2953.205,4222.949,4262.308,4334.872,4338.205,4328.846,4281.282,4218.462,4238.205,3453.974,4366.923,4253.718
1970-01-01 13:03:49.801683,3356.923,4377.051,2648.077,4234.231,4281.538,4352.564,4364.231,4351.154,4295.641,4222.308,4255.0,3483.59,4394.103,4288.333
1970-01-01 13:03:49.803328,3230.256,4405.256,2307.308,4253.718,4307.308,4380.0,4396.923,4371.154,4308.718,4232.821,4269.103,3520.128,4422.179,4332.692
1970-01-01 13:03:49.803359,3156.282,4418.205,2016.41,4273.59,4318.718,4405.897,4427.179,4384.359,4313.974,4237.564,4277.949,3555.128,4430.0,4365.897
1970-01-01 13:03:49.812278,3196.282,4415.0,1911.795,4278.333,4313.59,4413.333,4429.487,4384.231,4311.667,4232.179,4278.077,3575.769,4416.538,4374.487
1970-01-01 13:03:49.812325,3369.615,4389.744,2106.41,4270.513,4299.744,4390.256,4394.359,4356.923,4297.179,4223.462,4258.974,3566.41,4388.333,4351.923
1970-01-01 13:03:49.812352,3654.103,4334.744,2598.205,4249.487,4270.0,4337.436,4333.974,4307.308,4265.0,4215.385,4222.821,3526.154,4331.154,4297.821
1970-01-01 13:03:49.812378,3997.564,4258.077,3330.513,4210.769,4226.667,4266.667,4251.923,4250.641,4223.205,4200.513,4179.872,3462.692,4252.949,4218.59
1970-01-01 13:03:49.812403,4322.692,4173.205,4199.615,4166.154,4179.359,4189.615,4158.205,4188.077,4183.846,4181.667,4129.744,3386.154,4176.282,4127.308
1970-01-01 13:03:49.812428,4577.821,4097.564,5028.974,4128.846,4139.231,4121.026,4078.077,4126.667,4148.974,4171.923,4084.359,3317.308,4106.538,4044.615
1970-01-01 13:03:49.814265,4752.821,4043.718,5633.59,4105.513,4110.256,4074.359,4025.769,4080.385,4118.462,4165.513,4053.205,3276.795,4047.949,3986.795
1970-01-01 13:03:49.814296,4830.0,4018.974,5911.538,4101.667,4092.564,4048.718,4001.026,4055.513,4105.128,4155.0,4036.026,3266.923,4018.462,3962.051
1970-01-01 13:03:49.827190,4810.513,4023.59,5901.923,4111.41,4093.333,4041.026,4000.641,4050.641,4105.641,4155.256,4035.385,3280.128,4017.051,3966.41
1970-01-01 13:03:49.827234,4733.077,4045.897,5707.308,4125.128,4106.923,4055.128,4023.59,4064.231,4111.795,4166.282,4050.641,3307.308,4034.872,3993.205
1970-01-01 13:03:49.842199,4631.538,4076.154,5420.769,4143.718,4122.564,4078.205,4061.154,4085.641,4122.051,4168.846,4068.59,3336.026,4060.897,4026.538
1970-01-01 13:03:49.842242,4513.205,4111.538,5092.308,4165.769,4137.692,4100.256,4094.103,4112.051,4136.795,4168.59,4083.462,3360.385,4090.256,4058.077
1970-01-01 13:03:49.842270,4388.333,4143.718,4765.897,4183.077,4157.949,4127.051,4122.051,4137.949,4153.846,4175.897,4099.615,3383.974,4122.051,4088.846
1970-01-01 13:03:49.857142,4271.923,4168.462,4480.897,4194.231,4174.872,4160.897,4159.231,4159.359,4170.256,4183.462,4117.564,3404.615,4155.897,4117.564
1970-01-01 13:03:49.902277,4184.188,4186.838,4297.671,4198.996,4185.876,4179.915,4180.94,4177.158,4182.009,4187.65,4130.342,3415.534,4176.923,4134.252
1970-01-01 13:03:49.902326,4096.453,4205.214,4114.444,4203.761,4196.88,4198.932,4202.65,4194.957,4193.761,4191.838,4143.12,3426.453,4197.949,4150.94
1970-01-01 13:03:49.902353,4008.718,4223.59,3931.218,4208.526,4207.885,4217.949,4224.359,4212.756,4205.513,4196.026,4155.897,3437.372,4218.974,4167.628
1970-01-01 13:03:49.902380,3920.983,4241.966,3747.991,4213.291,4218.889,4236.966,4246.068,4230.556,4217.265,4200.214,4168.675,3448.291,4240.0,4184.316
1970-01-01 13:03:49.902408,3833.248,4260.342,3564.765,4218.056,4229.893,4255.983,4267.778,4248.355,4229.017,4204.402,4181.453,3459.209,4261.026,4201.004
1970-01-01 13:03:49.902433,3745.513,4278.718,3381.538,4222.821,4240.897,4275.0,4289.487,4266.154,4240.769,4208.59,4194.231,3470.128,4282.051,4217.692
1970-01-01 13:03:49.917232,3672.692,4291.795,3247.692,4232.308,4249.744,4287.308,4301.923,4275.0,4247.821,4210.769,4202.436,3484.872,4292.949,4230.641
1970-01-01 13:03:49.917272,3629.487,4301.538,3168.205,4236.154,4252.564,4291.282,4303.846,4279.231,4250.641,4213.59,4202.436,3496.154,4299.231,4240.513
1970-01-01 13:03:49.919239,3631.538,4300.513,3167.051,4235.0,4252.692,4289.231,4300.897,4278.718,4247.436,4209.103,4198.718,3505.641,4295.897,4243.077
1970-01-01 13:03:49.919273,3671.923,4283.077,3258.59,4229.103,4244.487,4280.513,4290.513,4270.513,4238.333,4200.897,4196.154,3507.308,4281.154,4241.282
1970-01-01 13:03:49.919297,3751.538,4259.615,3424.615,4219.615,4234.103,4266.667,4271.538,4255.0,4230.256,4204.744,4187.051,3497.179,4262.436,4230.0
1970-01-01 13:03:49.932362,3867.436,4235.897,3649.359,4210.769,4225.385,4246.154,4246.41,4231.154,4216.667,4203.974,4165.769,3478.59,4235.513,4207.179
1970-01-01 13:03:49.932407,4000.385,4208.59,3929.231,4197.436,4208.59,4218.718,4215.513,4206.026,4195.897,4190.256,4145.0,3456.795,4201.667,4178.846
1970-01-01 13:03:49.947331,4129.231,4177.564,4221.026,4185.641,4188.205,4189.744,4181.41,4180.769,4178.205,4180.513,4131.538,3435.0,4171.282,4151.41
1970-01-01 13:03:49.947380,4250.256,4150.897,4470.513,4181.41,4175.128,4164.231,4147.308,4157.821,4167.692,4178.205,4116.026,3415.769,4148.333,4125.385
1970-01-01 13:03:49.962474,4365.0,4128.462,4695.128,4175.769,4166.154,4143.205,4123.462,4137.436,4152.821,4178.077,4096.795,3397.051,4122.179,4097.308
1970-01-01 13:03:49.964325,4459.744,4105.769,4941.667,4165.385,4151.154,4123.077,4109.103,4117.949,4134.359,4175.385,4082.821,3380.897,4091.41,4069.744
1970-01-01 13:03:49.977364,4528.718,4081.41,5213.974,4158.205,4136.923,4098.462,4083.974,4095.769,4119.744,4168.462,4068.333,3368.333,4063.846,4043.462
1970-01-01 13:03:49.977412,4571.795,4062.436,5442.436,4152.051,4128.846,4075.0,4056.923,4078.077,4111.154,4166.538,4054.103,3351.154,4046.667,4021.026
1970-01-01 13:03:49.993932,4596.923,4056.795,5540.641,4150.128,4121.154,4064.359,4052.564,4070.513,4107.436,4168.077,4049.487,3342.436,4038.205,4015.385
1970-01-01 13:03:49.993980,4612.436,4064.615,5506.026,4157.436,4121.282,4064.744,4058.974,4070.513,4110.128,4167.821,4052.436,3349.231,4038.205,4019.231
1970-01-01 13:03:50.007448,4612.949,4078.59,5392.051,4166.923,4128.718,4067.051,4059.103,4076.795,4114.487,4168.077,4057.821,3353.462,4048.205,4024.872
1970-01-01 13:03:50.007500,4592.308,4092.692,5241.41,4180.385,4137.564,4074.103,4068.205,4085.256,4119.103,4169.231,4063.205,3355.385,4061.923,4041.026
1970-01-01 13:03:50.022365,4554.487,4102.949,5063.846,4190.0,4146.154,4092.692,4097.949,4094.744,4127.179,4170.897,4070.0,3373.333,4074.615,4062.179
1970-01-01 13:03:50.024216,4522.308,4113.333,4903.718,4197.564,4151.538,4115.385,4122.821,4105.769,4134.872,4173.846,4074.744,3385.0,4085.0,4065.0
1970-01-01 13:03:50.037494,4497.564,4130.769,4764.359,4206.923,4157.692,4123.333,4126.923,4118.974,4142.308,4175.897,4083.462,3379.615,4098.077,4069.359
1970-01-01 13:03:50.052467,4475.256,4148.462,4643.846,4211.667,4166.026,4120.0,4126.026,4127.051,4148.333,4175.513,4094.487,3385.641,4108.718,4092.308
1970-01-01 13:03:50.052517,4447.308,4161.154,4537.436,4213.718,4172.308,4126.41,4137.308,4135.128,4153.846,4176.026,4101.538,3400.128,4122.308,4110.256
1970-01-01 13:03:50.067563,4423.462,4170.0,4461.282,4216.923,4169.231,4136.41,4148.974,4143.462,4158.59,4179.615,4104.359,3402.821,4134.103,4114.103
1970-01-01 13:03:50.067611,4399.359,4176.538,4400.513,4216.538,4165.897,4144.487,4153.462,4151.923,4165.385,4183.077,4112.949,3401.667,4141.667,4120.256
1970-01-01 13:03:50.082442,4371.923,4179.744,4345.641,4216.923,4174.231,4156.41,4160.897,4154.872,4169.103,4183.846,4120.513,3402.692,4144.359,4125.128
1970-01-01 13:03:50.082481,4340.897,4187.179,4298.462,4222.179,4183.974,4171.154,4170.0,4161.026,4171.538,4184.103,4118.462,3404.872,4150.128,4126.026
1970-01-01 13:03:50.097553,4315.0,4194.103,4254.872,4223.077,4186.154,4176.41,4172.051,4170.769,4175.256,4184.359,4119.231,3410.128,4157.949,4130.128
1970-01-01 13:03:50.097602,4292.564,4197.436,4216.538,4217.821,4182.692,4175.769,4171.667,4172.436,4177.564,4185.513,4129.103,3418.333,4164.744,4139.103
1970-01-01 13:03:50.112552,4266.154,4206.154,4180.897,4218.333,4185.385,4176.41,4172.821,4173.846,4179.359,4188.077,4132.692,3421.41,4173.846,4146.282
1970-01-01 13:03:50.112601,4237.179,4215.641,4152.949,4219.359,4187.692,4174.231,4173.077,4183.846,4180.256,4188.846,4131.667,3416.538,4186.154,4152.436
1970-01-01 13:03:50.128110,4199.359,4213.205,4127.051,4212.692,4184.744,4175.897,4174.487,4191.538,4183.462,4186.667,4137.051,3422.821,4191.154,4162.949
1970-01-01 13:03:50.142546,4173.462,4207.179,4116.538,4206.538,4186.795,4186.667,4182.821,4192.436,4191.154,4188.718,4143.333,3437.308,4188.974,4166.282
1970-01-01 13:03:50.142589,4154.231,4207.692,4104.615,4204.872,4187.308,4195.897,4192.179,4197.308,4196.923,4192.949,4144.359,3440.0,4193.846,4160.513
1970-01-01 13:03:50.157582,4145.385,4210.769,4095.128,4206.282,4185.0,4191.667,4188.077,4203.077,4195.641,4191.154,4144.744,3432.821,4203.333,4155.256
1970-01-01 13:03:50.159459,4124.872,4215.385,4079.487,4199.872,4192.564,4188.974,4185.385,4206.026,4195.256,4190.897,4148.59,3436.154,4213.333,4168.846
1970-01-01 13:03:50.172655,4110.769,4217.179,4071.538,4196.795,4200.128,4193.077,4193.333,4201.667,4196.667,4190.897,4148.59,3437.821,4213.333,4176.282
1970-01-01 13:03:50.172706,4095.897,4210.513,4069.615,4198.333,4199.615,4197.564,4200.385,4202.179,4199.872,4192.179,4150.128,3437.436,4210.128,4169.872
1970-01-01 13:03:50.187753,4091.538,4205.769,4078.462,4199.231,4192.949,4203.077,4195.769,4208.718,4200.128,4191.795,4150.897,3440.385,4209.487,4163.718
1970-01-01 13:03:50.187802,4088.205,4209.615,4070.641,4195.385,4190.641,4207.949,4195.513,4212.179,4202.179,4193.718,4152.692,3441.667,4218.59,4168.462
1970-01-01 13:03:50.202650,4088.59,4211.667,4059.615,4193.333,4197.692,4202.179,4197.949,4206.026,4201.795,4195.0,4152.564,3438.462,4218.846,4172.179
1970-01-01 13:03:50.202689,4084.231,4209.615,4059.487,4195.0,4202.949,4197.564,4198.974,4207.179,4201.667,4193.846,4152.051,3439.615,4215.513,4170.0
1970-01-01 13:03:50.217778,4086.282,4206.795,4067.051,4196.795,4198.462,4200.256,4201.667,4210.385,4203.462,4194.231,4151.538,3441.538,4217.821,4166.282
1970-01-01 13:03:50.219694,4091.667,4207.821,4067.436,4195.256,4198.718,4201.795,4198.59,4210.897,4204.744,4194.103,4151.41,3439.487,4220.897,4167.564
1970-01-01 13:03:50.232711,4090.897,4208.974,4067.821,4195.128,4200.513,4203.077,4195.256,4209.103,4202.692,4192.564,4148.846,3436.538,4214.744,4164.359
1970-01-01 13:03:50.232757,4091.795,4206.667,4072.692,4197.949,4190.385,4203.59,4199.872,4206.41,4201.538,4192.564,4146.41,3435.641,4210.641,4155.897
1970-01-01 13:03:50.248246,4098.59,4206.41,4078.718,4200.0,4191.41,4197.308,4194.744,4205.513,4200.0,4191.923,4147.692,3435.0,4212.564,4157.821
1970-01-01 13:03:50.248292,4100.128,4210.128,4076.795,4197.436,4202.821,4195.256,4187.692,4207.436,4196.923,4190.769,4149.744,3432.051,4211.282,4169.615
1970-01-01 13:03:50.262698,4092.949,4209.487,4071.538,4195.256,4200.769,4203.59,4199.872,4208.205,4198.59,4192.179,4147.949,3431.282,4208.974,4170.128
1970-01-01 13:03:50.262738,4090.897,4207.308,4076.667,4196.538,4197.436,4209.487,4209.103,4206.667,4202.821,4194.487,4145.769,3430.769,4210.128,4159.615
1970-01-01 13:03:50.277746,4092.564,4207.179,4085.769,4198.718,4200.256,4208.077,4202.692,4204.487,4200.385,4192.821,4144.359,3426.538,4205.256,4153.205
1970-01-01 13:03:50.279748,4095.897,4205.256,4085.0,4199.359,4200.0,4208.846,4201.41,4201.795,4195.513,4191.923,4142.564,3426.282,4196.41,4152.051
1970-01-01 13:03:50.292805,4099.231,4203.333,4082.051,4198.077,4197.821,4208.846,4203.59,4203.462,4197.692,4193.077,4141.923,3431.923,4197.564,4152.949
1970-01-01 13:03:50.292855,4104.231,4205.0,4086.154,4197.308,4200.385,4203.077,4196.795,4204.744,4198.333,4191.41,4141.538,3432.308,4199.872,4153.077
1970-01-01 13:03:50.307890,4108.205,4207.051,4087.564,4197.692,4201.538,4198.59,4194.103,4201.154,4195.256,4190.0,4142.692,3429.615,4200.128,4154.231
1970-01-01 13:03:50.307938,4111.923,4207.308,4088.077,4200.128,4194.359,4196.538,4197.308,4196.282,4194.487,4191.538,4142.821,3430.0,4198.333,4155.769
1970-01-01 13:03:50.321735,4109.487,4209.103,4091.538,4197.308,4192.436,4197.949,4195.256,4198.718,4196.538,4191.795,4143.462,3432.564,4198.718,4159.231
1970-01-01 13:03:50.321773,4108.846,4205.128,4096.923,4194.615,4194.615,4202.436,4191.026,4200.769,4196.538,4189.231,4141.667,3434.487,4198.59,4159.487
1970-01-01 13:03:50.336802,4106.538,4197.821,4092.949,4196.795,4191.282,4206.538,4198.333,4203.333,4197.949,4191.154,4141.923,3434.872,4196.923,4155.513
1970-01-01 13:03:50.338684,4100.256,4191.667,4092.564,4199.359,4191.41,4205.385,4206.923,4204.872,4197.692,4193.846,4141.923,3432.692,4191.282,4149.744
1970-01-01 13:03:50.351937,4093.077,4192.949,4095.641,4197.179,4202.436,4207.692,4201.282,4203.462,4197.692,4193.077,4141.538,3431.282,4194.231,4150.256
1970-01-01 13:03:50.366908,4098.974,4200.0,4098.974,4196.795,4201.795,4208.59,4193.205,4202.821,4197.308,4191.538,4141.795,3427.949,4198.333,4153.462
1970-01-01 13:03:50.366961,4106.795,4204.615,4094.103,4198.205,4192.436,4200.897,4193.333,4206.154,4194.359,4191.154,4143.077,3428.205,4198.462,4157.692
1970-01-01 13:03:50.382310,4111.154,4202.821,4095.769,4196.026,4192.436,4195.0,4190.641,4201.923,4191.795,4190.256,4141.667,3433.333,4199.231,4162.179
1970-01-01 13:03:50.382356,4108.333,4205.0,4098.205,4193.846,4191.667,4196.923,4190.769,4196.538,4196.026,4190.256,4141.538,3436.795,4203.205,4166.282
1970-01-01 13:03:50.396809,4107.436,4208.718,4098.718,4195.256,4186.154,4196.795,4197.179,4197.051,4195.769,4191.282,4142.179,3436.154,4202.564,4165.641
1970-01-01 13:03:50.396854,4109.103,4202.051,4098.462,4194.872,4186.282,4197.436,4198.462,4198.974,4190.769,4192.692,4142.308,3437.436,4203.205,4163.59
1970-01-01 13:03:50.411924,4109.872,4196.154,4100.0,4193.462,4192.821,4200.897,4195.513,4199.359,4193.077,4193.205,4143.718,3438.205,4202.179,4163.077
1970-01-01 13:03:50.411970,4108.718,4202.436,4097.949,4193.077,4202.692,4200.513,4197.179,4203.462,4198.846,4193.333,4145.385,3436.41,4200.897,4166.026
1970-01-01 13:03:50.426895,4113.974,4208.077,4098.718,4194.744,4201.667,4196.667,4194.744,4201.923,4197.564,4192.436,4144.359,3435.0,4206.282,4168.718
1970-01-01 13:03:50.441934,4119.231,4207.692,4103.846,4193.846,4190.385,4193.718,4190.128,4198.077,4195.385,4191.923,4145.385,3436.154,4209.359,4169.744
1970-01-01 13:03:50.441974,4117.051,4207.436,4105.513,4192.436,4186.41,4194.744,4192.564,4200.897,4198.333,4192.692,4148.718,3438.974,4208.974,4170.513
1970-01-01 13:03:50.456798,4113.846,4209.359,4105.128,4192.308,4190.769,4202.692,4197.308,4203.462,4201.026,4193.462,4149.231,3440.256,4209.872,4171.282
1970-01-01 13:03:50.456835,4113.333,4209.231,4105.256,4192.949,4187.436,4209.103,4196.41,4204.231,4200.0,4193.333,4150.128,3439.487,4210.769,4172.179
1970-01-01 13:03:50.471868,4114.103,4206.923,4106.923,4191.795,4183.974,4208.974,4193.846,4206.154,4198.59,4193.333,4149.615,3438.59,4209.744,4171.41
1970-01-01 13:03:50.473721,4113.846,4205.385,4106.154,4186.282,4185.641,4208.205,4199.231,4208.718,4200.385,4193.205,4147.949,3439.744,4213.333,4170.641
1970-01-01 13:03:50.486927,4114.231,4204.231,4106.667,4186.282,4187.308,4207.949,4202.949,4205.897,4201.667,4192.949,4147.692,3443.205,4213.077,4170.385
1970-01-01 13:03:50.486972,4112.949,4203.718,4105.256,4187.051,4185.769,4207.564,4198.846,4205.385,4203.205,4196.282,4150.769,3444.103,4207.692,4171.538
1970-01-01 13:03:50.503499,4117.051,4203.59,4104.103,4186.923,4185.256,4205.769,4194.615,4208.205,4202.949,4195.385,4151.282,3441.41,4205.641,4172.179
1970-01-01 13:03:50.503545,4117.308,4204.231,4098.718,4186.667,4185.0,4201.538,4195.897,4210.385,4202.436,4191.538,4152.692,3442.179,4211.026,4174.231
1970-01-01 13:03:50.516906,4117.821,4202.179,4101.667,4186.154,4186.026,4197.564,4195.769,4207.692,4200.513,4193.333,4152.564,3442.436,4208.462,4173.333
1970-01-01 13:03:50.516946,4114.744,4200.128,4106.154,4184.744,4186.282,4198.333,4192.179,4207.564,4201.538,4195.513,4148.462,3442.692,4203.462,4172.179
1970-01-01 13:03:50.531988,4116.538,4197.051,4111.538,4188.077,4185.769,4196.282,4190.256,4205.641,4200.897,4192.179,4143.462,3443.205,4198.333,4168.205
1970-01-01 13:03:50.533862,4120.0,4195.897,4109.615,4190.513,4186.282,4193.333,4192.051,4200.256,4199.872,4192.308,4142.564,3443.205,4198.59,4162.179
1970-01-01 13:03:50.547012,4120.641,4199.744,4109.359,4190.256,4186.026,4194.231,4191.667,4198.846,4199.231,4191.538,4141.282,3442.051,4196.667,4161.154
1970-01-01 13:03:50.547060,4115.897,4200.641,4113.077,4190.769,4186.026,4195.641,4190.128,4201.667,4197.051,4188.333,4141.667,3443.846,4193.462,4166.026
1970-01-01 13:03:50.562137,4116.154,4195.256,4117.692,4190.769,4186.667,4193.205,4190.641,4197.949,4193.333,4188.974,4140.897,3446.41,4189.103,4165.769
1970-01-01 13:03:50.562184,4116.923,4193.205,4115.385,4190.0,4188.077,4190.769,4190.897,4194.231,4192.821,4191.41,4139.487,3445.513,4187.821,4163.077
1970-01-01 13:03:50.577028,4114.872,4192.692,4115.385,4190.128,4187.308,4195.0,4191.282,4195.128,4194.615,4189.359,4139.615,3444.487,4187.692,4162.821
1970-01-01 13:03:50.577066,4113.077,4190.641,4121.154,4188.59,4183.59,4201.667,4195.128,4195.641,4196.282,4188.462,4141.538,3445.513,4184.359,4161.282
1970-01-01 13:03:50.592226,4110.256,4189.487,4118.974,4191.026,4188.718,4197.692,4197.051,4195.513,4196.026,4190.769,4141.667,3448.462,4182.949,4162.821
1970-01-01 13:03:50.594302,4107.821,4192.179,4110.513,4195.0,4195.641,4193.205,4196.538,4196.923,4194.872,4191.923,4141.41,3446.923,4182.692,4163.846
1970-01-01 13:03:50.607137,4106.026,4193.462,4107.821,4191.154,4189.872,4198.846,4197.436,4200.641,4198.077,4192.051,4141.282,3443.59,4180.897,4164.103
1970-01-01 13:03:50.607185,4104.103,4191.154,4112.821,4188.462,4183.718,4198.974,4196.154,4200.256,4201.026,4189.615,4139.744,3446.026,4178.462,4164.231
1970-01-01 13:03:50.622667,4103.59,4191.41,4111.667,4193.462,4187.308,4192.949,4193.205,4200.897,4198.846,4188.974,4142.051,3450.385,4181.538,4165.128
1970-01-01 13:03:50.622718,4109.359,4192.949,4112.692,4194.231,4188.205,4192.308,4192.821,4204.487,4197.051,4192.308,4141.538,3446.154,4183.59,4163.205
1970-01-01 13:03:50.637174,4110.513,4191.795,4115.256,4190.0,4185.385,4193.718,4193.846,4209.744,4198.333,4194.615,4140.385,3442.051,4185.0,4164.103
1970-01-01 13:03:50.637219,4115.128,4190.385,4118.59,4191.667,4187.051,4192.564,4193.846,4208.59,4196.667,4193.718,4141.026,3447.436,4184.744,4164.359
1970-01-01 13:03:50.652174,4120.128,4194.744,4117.692,4191.538,4186.795,4195.513,4192.821,4204.103,4197.436,4193.077,4143.59,3450.641,4188.077,4161.282
1970-01-01 13:03:50.667299,4124.615,4196.282,4122.821,4189.359,4185.641,4195.128,4191.795,4197.821,4198.59,4192.692,4142.692,3443.974,4191.154,4162.179
1970-01-01 13:03:50.667347,4124.103,4195.128,4124.231,4189.615,4186.667,4191.795,4193.205,4198.077,4198.333,4189.872,4143.333,3442.051,4196.538,4169.487
1970-01-01 13:03:50.682239,4126.538,4195.256,4125.385,4189.615,4187.179,4191.667,4191.923,4198.718,4196.923,4187.051,4144.231,3444.487,4200.641,4169.872
1970-01-01 13:03:50.682285,4126.538,4195.385,4124.103,4187.692,4188.462,4193.974,4191.282,4195.0,4197.564,4190.0,4142.564,3443.59,4202.564,4167.692
1970-01-01 13:03:50.697329,4127.821,4195.641,4124.231,4190.256,4189.103,4195.385,4193.974,4193.974,4195.641,4191.538,4142.308,3441.41,4199.615,4167.564
1970-01-01 13:03:50.697370,4127.308,4198.462,4122.051,4192.436,4187.692,4197.051,4195.385,4199.615,4194.231,4190.256,4144.231,3442.949,4200.897,4167.692
1970-01-01 13:03:50.712231,4126.923,4198.59,4125.0,4189.231,4185.897,4197.179,4195.385,4197.821,4195.0,4189.359,4143.077,3443.59,4202.692,4165.769
1970-01-01 13:03:50.712267,4126.41,4195.385,4131.154,4186.282,4185.897,4195.897,4196.923,4193.205,4193.718,4189.744,4142.564,3441.923,4200.641,4166.538
1970-01-01 13:03:50.727373,4129.103,4195.256,4131.538,4187.692,4186.154,4194.487,4194.615,4194.487,4192.821,4191.026,4142.949,3441.923,4199.615,4166.538
1970-01-01 13:03:50.727418,4129.231,4196.282,4128.718,4190.769,4185.897,4195.128,4192.308,4195.513,4193.846,4191.923,4141.41,3443.718,4202.308,4165.769
1970-01-01 13:03:50.742387,4124.872,4197.564,4127.821,4191.538,4185.385,4195.897,4193.59,4194.103,4194.231,4191.282,4140.385,3442.821,4202.179,4167.051
1970-01-01 13:03:50.742434,4126.282,4198.718,4128.462,4189.872,4186.667,4195.385,4193.846,4195.513,4192.051,4189.487,4141.538,3443.077,4196.923,4169.231
1970-01-01 13:03:50.757817,4130.0,4196.026,4126.154,4189.744,4185.641,4197.821,4194.231,4198.462,4193.205,4191.282,4142.308,3446.154,4195.385,4169.359
1970-01-01 13:03:50.772347,4134.103,4192.051,4131.026,4193.333,4187.179,4200.128,4196.795,4193.974,4195.897,4192.821,4140.769,3445.0,4191.41,4162.308
1970-01-01 13:03:50.772386,4135.641,4193.846,4133.974,4191.538,4191.154,4197.051,4194.103,4190.769,4193.462,4191.538,4139.872,3444.103,4190.769,4161.795
1970-01-01 13:03:50.787392,4137.179,4196.667,4132.308,4187.436,4191.538,4191.667,4188.974,4193.59,4190.256,4189.615,4139.872,3445.128,4195.897,4168.846
1970-01-01 13:03:50.789387,4132.821,4195.641,4130.256,4187.692,4191.795,4193.718,4192.436,4196.154,4195.385,4190.256,4141.923,3445.385,4197.564,4166.538
1970-01-01 13:03:50.802445,4134.103,4194.615,4135.385,4191.795,4191.538,4199.359,4196.282,4194.615,4198.59,4191.667,4141.282,3443.333,4186.667,4154.487
1970-01-01 13:03:50.802494,4136.538,4195.385,4137.821,4191.923,4187.051,4199.872,4194.872,4196.282,4195.0,4190.385,4142.308,3443.077,4188.333,4157.564
1970-01-01 13:03:50.817527,4134.231,4195.513,4141.154,4189.487,4184.615,4193.718,4188.077,4197.436,4191.667,4187.692,4143.462,3445.513,4198.077,4170.641
1970-01-01 13:03:50.817572,4121.154,4194.744,4133.846,4187.051,4187.308,4195.897,4188.718,4197.692,4198.333,4189.872,4142.308,3451.41,4194.231,4171.026
1970-01-01 13:03:50.832433,4113.333,4190.0,4131.41,4188.718,4187.564,4205.513,4199.872,4195.641,4201.667,4192.821,4138.718,3450.256,4182.051,4157.949
1970-01-01 13:03:50.832473,4117.564,4189.487,4137.179,4189.872,4185.385,4204.872,4202.821,4197.308,4197.179,4193.077,4140.385,3444.103,4185.641,4158.205
1970-01-01 13:03:50.847513,4130.256,4194.615,4138.333,4188.974,4187.051,4193.846,4190.513,4199.231,4192.179,4191.795,4142.949,3446.41,4194.103,4170.256
1970-01-01 13:03:50.849364,4134.744,4197.692,4127.821,4187.308,4187.051,4189.872,4184.487,4198.205,4192.436,4192.692,4141.923,3449.872,4196.795,4175.385
1970-01-01 13:03:50.862531,4133.333,4194.359,4130.513,4186.667,4187.308,4192.051,4191.41,4195.385,4193.846,4193.846,4140.385,3445.641,4195.641,4170.256
1970-01-01 13:03:50.862577,4131.923,4191.667,4140.897,4187.949,4187.436,4194.103,4195.769,4197.051,4193.333,4192.564,4140.769,3445.0,4195.513,4164.487
1970-01-01 13:03:50.878034,4133.974,4192.436,4138.077,4189.615,4187.051,4193.077,4195.128,4197.821,4193.718,4191.282,4142.179,3447.436,4196.154,4163.59
1970-01-01 13:03:50.878082,4134.103,4194.744,4130.897,4187.436,4187.308,4190.385,4193.205,4192.436,4193.846,4192.179,4142.692,3445.641,4196.795,4168.462
1970-01-01 13:03:50.892554,4130.513,4195.769,4128.205,4185.385,4187.564,4191.538,4190.385,4192.564,4193.333,4194.744,4139.487,3445.769,4199.103,4173.974
1970-01-01 13:03:50.892596,4129.872,4193.333,4130.641,4185.513,4186.538,4196.154,4190.897,4194.744,4193.333,4192.692,4137.949,3448.59,4199.744,4172.564
1970-01-01 13:03:50.907543,4127.564,4192.949,4131.41,4182.436,4185.128,4198.077,4191.795,4194.744,4197.949,4190.769,4142.051,3449.231,4198.718,4169.744
1970-01-01 13:03:50.909401,4132.564,4193.718,4133.974,4185.513,4185.385,4195.0,4188.974,4192.308,4197.179,4192.692,4141.026,3448.718,4196.538,4168.462
1970-01-01 13:03:50.922594,4137.564,4194.359,4135.0,4190.0,4185.897,4193.333,4187.949,4192.949,4190.0,4193.333,4138.205,3449.231,4198.846,4170.256
1970-01-01 13:03:50.922642,4137.436,4193.974,4138.974,4188.205,4185.256,4194.103,4190.769,4192.308,4187.436,4190.256,4139.615,3448.846,4197.436,4170.897
1970-01-01 13:03:50.937826,4135.897,4194.103,4135.256,4185.641,4185.0,4195.0,4193.077,4193.718,4194.103,4189.615,4142.308,3451.538,4198.205,4171.282
1970-01-01 13:03:50.937872,4142.564,4194.359,4133.59,4187.436,4185.385,4191.795,4191.41,4195.128,4195.0,4191.41,4140.513,3452.949,4199.744,4169.615
1970-01-01 13:03:50.952601,4139.359,4195.769,4133.59,4185.513,4185.256,4189.359,4190.0,4195.897,4192.949,4191.41,4141.41,3451.282,4203.333,4173.205
1970-01-01 13:03:50.952640,4132.179,4194.103,4137.051,4184.872,4185.128,4192.308,4191.282,4194.487,4192.308,4191.667,4143.077,3451.667,4202.821,4179.487
1970-01-01 13:03:50.967601,4130.769,4189.615,4137.821,4186.538,4185.256,4197.308,4195.256,4195.513,4193.077,4192.949,4144.615,3455.128,4202.179,4180.385
1970-01-01 13:03:50.982748,4135.0,4186.795,4140.385,4185.513,4185.256,4197.308,4194.744,4195.0,4195.641,4192.179,4143.333,3454.231,4197.821,4170.513
1970-01-01 13:03:50.982794,4135.769,4189.615,4137.692,4181.667,4185.128,4194.231,4192.179,4194.744,4199.103,4192.179,4141.026,3452.179,4197.436,4169.103
1970-01-01 13:03:50.997751,4136.538,4194.103,4135.0,4181.282,4185.128,4189.359,4190.897,4194.359,4196.795,4191.282,4143.462,3451.282,4202.308,4179.615
1970-01-01 13:03:50.997800,4135.513,4195.256,4135.513,4183.974,4185.385,4185.769,4189.487,4194.744,4192.949,4190.0,4146.154,3450.897,4203.205,4182.949
1970-01-01 13:03:51.014272,4135.769,4193.077,4137.308,4185.641,4185.128,4188.077,4188.462,4193.462,4193.718,4189.744,4141.282,3452.179,4199.231,4176.154
1970-01-01 13:03:51.014318,4137.821,4190.769,4140.513,4187.051,4185.0,4193.718,4189.744,4191.667,4194.487,4190.128,4136.538,3452.692,4198.718,4171.667
1970-01-01 13:03:51.027691,4137.564,4190.897,4142.949,4189.615,4186.667,4196.41,4192.821,4192.179,4193.462,4190.385,4139.615,3451.795,4198.205,4173.846
1970-01-01 13:03:51.042709,4135.256,4192.179,4143.205,4188.333,4187.949,4196.795,4193.333,4192.564,4193.974,4190.256,4141.538,3448.59,4193.462,4174.359
1970-01-01 13:03:51.044576,4133.077,4190.128,4142.308,4184.103,4187.436,4198.462,4192.692,4193.846,4196.026,4191.667,4138.333,3445.897,4194.487,4175.0
1970-01-01 13:03:51.044610,4137.308,4188.846,4145.0,4183.846,4186.795,4196.795,4193.205,4193.077,4195.128,4192.564,4137.564,3447.821,4194.615,4175.128
1970-01-01 13:03:51.057793,4141.026,4194.231,4143.974,4184.487,4187.179,4193.205,4192.564,4193.205,4193.974,4190.641,4140.897,3450.513,4194.744,4173.974
1970-01-01 13:03:51.072839,4146.154,4198.077,4145.385,4186.795,4186.923,4188.846,4188.462,4192.051,4190.769,4187.564,4141.026,3447.949,4196.41,4173.59
1970-01-01 13:03:51.072881,4146.282,4194.744,4143.077,4188.333,4186.026,4187.308,4185.256,4192.949,4188.333,4189.487,4140.385,3450.256,4197.821,4178.205
1970-01-01 13:03:51.086841,4142.692,4189.487,4144.359,4184.103,4186.026,4194.103,4187.821,4193.846,4189.615,4192.564,4138.974,3455.513,4193.333,4178.846
1970-01-01 13:03:51.086881,4136.538,4187.692,4144.359,4179.231,4186.282,4204.231,4195.385,4195.128,4196.154,4192.564,4140.513,3456.154,4193.462,4173.59
1970-01-01 13:03:51.102075,4136.667,4188.333,4145.897,4184.103,4186.154,4201.667,4197.179,4192.436,4198.077,4190.641,4140.256,3456.923,4192.692,4169.487
1970-01-01 13:03:51.104221,4137.821,4192.308,4143.462,4186.667,4186.154,4188.462,4191.41,4193.333,4194.103,4190.897,4139.615,3457.051,4193.077,4174.103
1970-01-01 13:03:51.116900,4145.128,4194.103,4143.59,4183.333,4186.154,4182.179,4187.821,4195.385,4189.487,4190.769,4140.897,3450.897,4195.128,4180.513
1970-01-01 13:03:51.116949,4145.385,4193.333,4140.256,4180.256,4186.154,4189.103,4190.0,4194.359,4190.256,4191.282,4143.077,3450.256,4199.744,4184.487
1970-01-01 13:03:51.132395,4140.128,4190.513,4142.436,4183.974,4186.154,4195.256,4190.769,4193.077,4192.436,4191.538,4140.385,3455.641,4198.718,4178.462
1970-01-01 13:03:51.132440,4137.821,4187.051,4145.385,4187.692,4186.154,4196.026,4192.821,4195.385,4195.385,4192.051,4139.359,3455.769,4192.436,4172.564
1970-01-01 13:03:51.146871,4138.59,4186.538,4145.128,4185.769,4186.154,4195.641,4192.821,4194.615,4196.154,4192.179,4142.692,3452.821,4189.744,4174.231
1970-01-01 13:03:51.146912,4137.179,4187.821,4143.205,4183.718,4186.154,4195.769,4192.179,4193.59,4193.077,4192.179,4144.487,3454.103,4196.154,4177.308
1970-01-01 13:03:51.162272,4143.462,4190.513,4144.359,4186.795,4186.154,4192.051,4192.564,4194.487,4192.051,4192.308,4141.795,3454.231,4197.821,4178.077
1970-01-01 13:03:51.164455,4151.667,4191.667,4146.282,4187.436,4186.154,4183.462,4186.282,4193.205,4192.821,4193.077,4138.077,3452.564,4192.564,4178.077
1970-01-01 13:03:51.176972,4149.359,4191.795,4145.0,4182.436,4186.154,4182.051,4181.923,4193.462,4190.897,4192.692,4137.949,3451.538,4196.538,4179.744
1970-01-01 13:03:51.177021,4147.564,4193.077,4145.641,4181.667,4186.154,4190.641,4189.103,4195.256,4190.256,4189.103,4139.487,3451.795,4199.872,4181.41
1970-01-01 13:03:51.192092,4147.949,4191.923,4147.051,4183.974,4186.154,4196.41,4192.821,4193.205,4191.923,4189.487,4140.385,3455.0,4195.385,4182.051
1970-01-01 13:03:51.192139,4148.846,4188.974,4149.103,4185.385,4186.154,4194.231,4188.59,4189.487,4191.026,4192.564,4139.615,3455.513,4191.538,4179.103
1970-01-01 13:03:51.206929,4147.051,4192.436,4145.769,4185.385,4186.154,4193.333,4190.641,4191.923,4193.077,4193.462,4139.615,3455.385,4195.513,4177.564
1970-01-01 13:03:51.206966,4146.667,4192.179,4150.256,4184.872,4186.154,4194.744,4192.949,4192.051,4194.359,4192.564,4139.103,3455.513,4196.026,4175.769
1970-01-01 13:03:51.222036,4142.949,4186.923,4153.846,4184.487,4186.154,4196.41,4190.897,4192.564,4193.077,4191.923,4139.872,3456.538,4194.487,4174.872
1970-01-01 13:03:51.223946,4143.333,4187.564,4154.615,4188.846,4186.154,4195.897,4190.897,4193.077,4190.897,4190.256,4139.359,3453.718,4192.051,4175.256
1970-01-01 13:03:51.237050,4142.692,4192.179,4151.795,4189.744,4186.154,4195.128,4194.487,4194.615,4192.179,4189.103,4138.462,3451.667,4191.538,4175.128
1970-01-01 13:03:51.237096,4143.205,4187.308,4154.744,4187.436,4186.154,4194.744,4196.795,4194.872,4191.667,4190.641,4137.436,3453.205,4189.615,4172.051
1970-01-01 13:03:51.252603,4141.795,4185.385,4152.821,4185.256,4186.154,4196.41,4197.179,4195.641,4192.436,4192.051,4138.846,3456.538,4189.231,4172.308
1970-01-01 13:03:51.267036,4146.667,4188.077,4154.231,4186.41,4186.154,4194.359,4193.333,4192.821,4191.923,4189.103,4139.103,3454.615,4185.385,4168.59
1970-01-01 13:03:51.267076,4149.231,4187.436,4154.103,4187.821,4186.154,4191.795,4191.41,4192.051,4192.821,4187.949,4139.872,3450.769,4186.282,4168.846
1970-01-01 13:03:51.267103,4147.051,4185.769,4152.436,4189.487,4186.282,4191.667,4191.795,4191.154,4192.949,4191.41,4139.359,3451.538,4188.462,4174.487
1970-01-01 13:03:51.282062,4145.256,4190.256,4151.282,4189.231,4186.41,4189.231,4188.846,4190.769,4191.538,4192.179,4138.718,3453.846,4190.0,4178.333
1970-01-01 13:03:51.297172,4149.359,4195.641,4153.462,4188.205,4186.282,4186.026,4185.128,4190.769,4192.051,4189.615,4139.615,3452.692,4191.154,4178.718
1970-01-01 13:03:51.297217,4148.333,4191.154,4153.846,4187.692,4186.282,4190.385,4188.333,4190.641,4193.462,4190.513,4140.769,3452.051,4191.923,4178.718
1970-01-01 13:03:51.312174,4142.051,4185.256,4154.487,4187.179,4186.538,4197.821,4192.821,4192.051,4193.205,4191.41,4140.0,3453.077,4190.385,4176.282
1970-01-01 13:03:51.312220,4144.487,4188.333,4157.051,4185.385,4185.641,4196.538,4191.795,4191.41,4193.59,4191.538,4139.231,3454.744,4190.256,4174.103
1970-01-01 13:03:51.327176,4150.385,4192.564,4155.128,4183.59,4184.615,4191.667,4192.051,4189.872,4193.205,4192.308,4138.974,3454.744,4194.103,4177.949
1970-01-01 13:03:51.327215,4149.615,4191.667,4150.385,4184.872,4184.872,4189.872,4193.077,4192.051,4191.026,4190.769,4138.974,3451.795,4195.385,4179.359
1970-01-01 13:03:51.342154,4143.974,4190.385,4148.077,4186.795,4185.513,4191.41,4189.231,4197.179,4194.487,4190.897,4141.41,3451.41,4194.872,4176.667
1970-01-01 13:03:51.342193,4145.0,4188.205,4155.385,4186.282,4185.385,4194.487,4188.718,4194.231,4195.128,4192.308,4140.641,3455.128,4189.487,4172.436
1970-01-01 13:03:51.357260,4145.128,4185.641,4159.359,4186.154,4185.256,4193.974,4193.462,4191.154,4192.821,4191.41,4139.487,3456.282,4188.974,4171.154
1970-01-01 13:03:51.357307,4148.333,4185.769,4160.256,4188.846,4185.385,4191.538,4193.846,4192.308,4192.308,4190.385,4138.077,3450.641,4191.154,4172.051
1970-01-01 13:03:51.372240,4151.026,4188.974,4154.744,4187.821,4185.385,4191.41,4191.667,4195.385,4193.333,4192.051,4137.692,3447.564,4191.154,4175.641
1970-01-01 13:03:51.387691,4151.282,4187.692,4153.846,4186.667,4185.385,4189.872,4190.256,4193.974,4192.051,4192.436,4137.308,3451.154,4189.103,4176.667
1970-01-01 13:03:51.387731,4146.538,4185.128,4151.923,4187.051,4185.385,4190.897,4191.282,4192.436,4194.487,4191.923,4138.718,3455.385,4191.923,4175.513
1970-01-01 13:03:51.402331,4150.128,4185.513,4155.641,4189.359,4185.385,4195.769,4191.667,4190.897,4194.231,4191.154,4138.077,3453.205,4187.308,4171.026
1970-01-01 13:03:51.402369,4150.256,4188.462,4156.41,4190.641,4185.385,4196.154,4188.205,4190.513,4190.897,4191.41,4137.179,3451.795,4185.769,4172.436
1970-01-01 13:03:51.417299,4148.846,4188.333,4157.051,4190.385,4185.385,4191.795,4185.0,4188.333,4190.385,4190.641,4136.538,3451.026,4186.667,4174.487
1970-01-01 13:03:51.419177,4149.103,4186.667,4156.667,4187.308,4185.385,4194.359,4188.718,4189.872,4190.641,4189.231,4137.436,3450.641,4186.282,4174.231
1970-01-01 13:03:51.432349,4152.179,4185.641,4156.795,4185.641,4185.385,4195.769,4190.513,4192.051,4188.333,4189.615,4138.974,3451.795,4186.667,4173.974
1970-01-01 13:03:51.432394,4151.538,4185.897,4153.974,4186.026,4185.385,4191.282,4187.821,4191.667,4189.872,4192.308,4139.872,3454.359,4190.897,4175.641
1970-01-01 13:03:51.447438,4152.308,4186.667,4154.872,4186.026,4185.385,4190.0,4190.256,4191.154,4191.795,4193.59,4137.949,3456.282,4190.897,4174.872
1970-01-01 13:03:51.447483,4153.59,4186.923,4159.487,4186.154,4185.385,4191.667,4191.923,4191.026,4190.513,4193.333,4138.333,3457.051,4190.128,4173.462
1970-01-01 13:03:51.462348,4153.718,4186.923,4159.615,4187.436,4185.385,4192.692,4188.59,4189.615,4188.846,4191.667,4139.744,3454.103,4192.179,4174.487
1970-01-01 13:03:51.462390,4154.231,4185.128,4159.615,4187.308,4185.385,4192.179,4189.359,4191.923,4191.026,4190.0,4136.923,3450.128,4189.744,4174.487
1970-01-01 13:03:51.477372,4153.462,4182.692,4162.051,4186.667,4185.385,4188.59,4192.821,4195.897,4192.308,4191.026,4135.513,3450.897,4187.179,4173.077
1970-01-01 13:03:51.479411,4154.103,4183.59,4163.205,4188.205,4185.385,4186.154,4188.462,4188.974,4189.615,4191.795,4137.308,3452.179,4188.846,4172.821
1970-01-01 13:03:51.492446,4152.692,4187.564,4158.718,4188.846,4185.385,4192.179,4184.487,4186.795,4190.513,4191.282,4138.846,3453.077,4189.744,4174.615
1970-01-01 13:03:51.492493,4153.462,4185.0,4160.769,4188.59,4185.385,4193.59,4189.487,4192.692,4192.821,4191.282,4137.436,3453.462,4185.513,4175.385
1970-01-01 13:03:51.508988,4151.282,4181.154,4161.538,4187.051,4185.385,4189.103,4192.821,4194.359,4192.436,4190.641,4138.59,3453.333,4185.769,4175.385
1970-01-01 13:03:51.509035,4152.692,4184.359,4162.179,4186.538,4185.385,4190.513,4189.359,4188.974,4190.128,4190.0,4136.41,3453.077,4185.897,4171.154
1970-01-01 13:03:51.522442,4152.179,4190.769,4158.974,4187.051,4185.385,4191.795,4188.59,4189.103,4191.667,4188.718,4134.615,3453.205,4186.667,4170.128
1970-01-01 13:03:51.522481,4154.744,4189.615,4159.103,4189.872,4185.385,4187.692,4188.205,4189.359,4189.744,4186.026,4134.359,3453.333,4187.179,4173.974
1970-01-01 13:03:51.537474,4152.051,4185.513,4156.923,4189.872,4185.385,4188.974,4187.308,4190.0,4188.846,4188.077,4136.923,3454.872,4192.564,4178.462
1970-01-01 13:03:51.539365,4149.359,4185.128,4160.769,4189.872,4185.385,4191.538,4188.333,4191.923,4188.846,4190.128,4138.846,3454.103,4190.256,4173.846
1970-01-01 13:03:51.552525,4150.256,4185.385,4162.308,4188.846,4185.385,4192.436,4191.154,4191.795,4188.974,4189.359,4139.231,3453.718,4187.179,4172.179
1970-01-01 13:03:51.552573,4154.615,4182.308,4164.231,4187.051,4185.385,4190.513,4190.385,4189.103,4188.718,4190.128,4136.154,3454.487,4186.923,4175.641
1970-01-01 13:03:51.567668,4154.231,4182.179,4162.692,4185.128,4185.385,4186.923,4188.59,4189.359,4190.897,4191.154,4137.308,3455.897,4191.538,4177.692
1970-01-01 13:03:51.567717,4155.897,4186.154,4163.077,4186.41,4185.385,4186.41,4186.795,4190.641,4191.795,4190.0,4139.487,3455.256,4193.205,4176.41
1970-01-01 13:03:51.582517,4156.282,4186.795,4161.154,4187.949,4185.385,4190.256,4184.872,4192.308,4191.667,4191.538,4138.205,3455.897,4191.667,4178.333
1970-01-01 13:03:51.597756,4152.179,4184.231,4160.641,4188.205,4185.385,4190.385,4185.385,4192.308,4191.795,4192.564,4137.308,3456.41,4191.923,4180.256
1970-01-01 13:03:51.597809,4152.692,4185.897,4162.692,4187.308,4185.385,4190.0,4187.179,4192.692,4191.923,4190.0,4137.179,3457.308,4191.538,4179.487
1970-01-01 13:03:51.612689,4157.692,4189.103,4162.179,4187.051,4185.385,4193.718,4188.846,4192.308,4192.051,4191.282,4137.564,3455.128,4189.872,4178.333
1970-01-01 13:03:51.612737,4158.333,4185.0,4165.256,4189.231,4185.385,4194.487,4190.128,4190.769,4191.41,4192.692,4137.692,3451.154,4186.923,4176.667
1970-01-01 13:03:51.627637,4155.641,4180.513,4167.564,4188.333,4185.385,4192.821,4191.026,4191.923,4192.308,4191.667,4136.538,3458.333,4189.231,4177.564
1970-01-01 13:03:51.627680,4155.513,4184.103,4164.231,4185.0,4185.385,4191.282,4190.641,4194.487,4191.795,4190.897,4137.821,3466.923,4192.692,4178.59
1970-01-01 13:03:51.643165,4152.564,4187.821,4158.718,4184.231,4185.385,4190.897,4189.744,4196.026,4191.667,4191.667,4140.513,3463.846,4195.0,4179.103
1970-01-01 13:03:51.643211,4156.41,4185.128,4165.897,4187.821,4185.385,4188.205,4185.641,4191.026,4191.282,4191.795,4137.179,3455.769,4191.667,4179.487
1970-01-01 13:03:51.657638,4157.692,4185.256,4167.051,4187.179,4185.385,4185.0,4183.462,4190.513,4193.462,4192.179,4137.051,3454.231,4189.359,4181.538
1970-01-01 13:03:51.657674,4154.872,4187.436,4163.205,4185.128,4185.385,4187.821,4187.692,4191.026,4192.179,4191.538,4140.0,3454.359,4190.128,4178.333
1970-01-01 13:03:51.672834,4151.026,4187.308,4161.795,4187.308,4185.385,4194.872,4192.179,4191.795,4190.513,4190.641,4138.333,3456.154,4192.436,4176.795
1970-01-01 13:03:51.672881,4157.308,4185.0,4167.821,4191.026,4185.385,4192.051,4188.077,4192.179,4189.744,4190.641,4135.0,3458.205,4190.513,4179.487
1970-01-01 13:03:51.687809,4158.333,4187.821,4163.718,4189.103,4185.385,4184.231,4186.538,4196.538,4190.385,4191.538,4139.231,3456.154,4192.949,4181.282
1970-01-01 13:03:51.702734,4155.897,4190.385,4161.667,4185.769,4185.385,4186.154,4189.103,4194.744,4191.154,4190.513,4139.359,3453.974,4194.487,4178.333
1970-01-01 13:03:51.702772,4156.538,4188.205,4163.462,4185.513,4185.385,4194.359,4187.179,4190.641,4191.923,4189.231,4136.795,3456.154,4192.564,4178.974
1970-01-01 13:03:51.717706,4162.564,4184.231,4167.436,4189.103,4185.385,4191.795,4182.821,4188.59,4190.0,4188.718,4135.769,3457.949,4190.385,4180.641
1970-01-01 13:03:51.717742,4161.282,4187.692,4165.385,4188.205,4185.385,4185.897,4186.41,4191.41,4189.231,4190.256,4136.41,3458.077,4193.718,4182.179
1970-01-01 13:03:51.732772,4157.949,4192.564,4163.846,4186.026,4185.385,4187.949,4191.282,4193.974,4192.179,4190.256,4136.538,3456.41,4192.179,4182.051
1970-01-01 13:03:51.734675,4158.59,4193.59,4163.718,4187.436,4185.385,4190.128,4188.333,4191.282,4194.231,4190.128,4138.205,3455.385,4189.872,4180.256
1970-01-01 13:03:51.747808,4160.641,4192.949,4165.385,4190.128,4185.385,4187.436,4184.744,4189.359,4190.0,4192.179,4140.641,3454.615,4191.154,4179.744
1970-01-01 13:03:51.747854,4161.538,4189.615,4169.103,4187.179,4185.385,4185.256,4184.231,4192.821,4187.949,4192.949,4138.718,3454.487,4191.795,4181.538
1970-01-01 13:03:51.762349,4163.077,4185.0,4169.103,4183.59,4185.385,4186.667,4185.897,4193.718,4191.41,4191.795,4135.385,3453.077,4191.026,4179.872
1970-01-01 13:03:51.762396,4164.359,4185.513,4167.949,4184.744,4185.256,4188.205,4186.282,4188.462,4192.821,4191.154,4136.667,3452.692,4188.974,4176.923
1970-01-01 13:03:51.776792,4159.231,4189.615,4166.154,4185.128,4185.385,4188.59,4184.615,4191.795,4192.308,4191.538,4139.872,3457.564,4190.128,4177.821
1970-01-01 13:03:51.776830,4158.846,4188.846,4164.487,4184.103,4185.128,4188.718,4184.231,4197.949,4192.308,4190.641,4138.59,3460.385,4189.744,4178.333
1970-01-01 13:03:51.791877,4160.513,4188.333,4161.026,4184.872,4184.615,4192.179,4185.641,4196.154,4192.051,4191.538,4138.718,3459.487,4192.051,4179.744
1970-01-01 13:03:51.793899,4163.462,4187.949,4164.103,4187.051,4183.846,4192.436,4181.282,4192.051,4188.974,4193.59,4139.359,3459.359,4192.564,4179.872
1970-01-01 13:03:51.806900,4161.41,4187.051,4163.462,4184.744,4184.487,4187.564,4179.744,4196.026,4192.821,4194.231,4137.436,3458.846,4193.59,4180.256
1970-01-01 13:03:51.806947,4162.564,4186.282,4165.256,4184.872,4185.128,4186.41,4185.897,4196.41,4194.231,4191.923,4136.154,3457.821,4191.667,4179.487
1970-01-01 13:03:51.822017,4162.308,4188.462,4165.513,4185.641,4184.487,4191.026,4188.205,4193.205,4192.436,4190.513,4140.128,3460.0,4194.103,4181.923
1970-01-01 13:03:51.822065,4163.718,4188.333,4167.436,4184.487,4184.872,4191.923,4184.872,4192.436,4192.436,4192.308,4138.974,3457.949,4195.256,4182.692
1970-01-01 13:03:51.836908,4160.0,4187.179,4163.59,4183.974,4185.769,4192.692,4185.769,4197.308,4193.974,4192.051,4136.667,3455.256,4193.974,4180.769
1970-01-01 13:03:51.836950,4159.231,4186.923,4163.718,4187.051,4184.744,4190.769,4186.282,4195.256,4193.59,4188.205,4136.923,3456.154,4190.897,4177.821
1970-01-01 13:03:51.852001,4163.333,4188.077,4166.923,4185.769,4184.103,4186.41,4183.718,4190.513,4194.487,4188.974,4137.179,3455.128,4191.667,4180.256
1970-01-01 13:03:51.853885,4168.59,4188.462,4170.897,4183.974,4185.256,4184.487,4182.308,4190.256,4193.205,4190.897,4136.154,3454.359,4191.026,4182.564
1970-01-01 13:03:51.866996,4163.718,4188.718,4166.026,4186.026,4185.769,4187.821,4184.359,4192.692,4190.769,4190.385,4138.077,3456.795,4191.282,4181.026
1970-01-01 13:03:51.867043,4160.897,4187.564,4162.436,4186.026,4185.128,4190.513,4185.641,4191.282,4191.923,4191.026,4139.231,3456.795,4192.564,4180.513
1970-01-01 13:03:51.882040,4163.718,4187.436,4166.41,4182.436,4185.0,4189.359,4185.513,4190.641,4193.077,4193.59,4137.692,3457.821,4193.333,4182.821
1970-01-01 13:03:51.897518,4164.103,4189.103,4167.051,4183.205,4185.385,4187.692,4185.385,4191.923,4191.026,4193.718,4136.923,3457.692,4191.41,4181.026
1970-01-01 13:03:51.897563,4163.077,4187.692,4166.282,4189.359,4186.026,4184.615,4183.59,4189.744,4189.615,4191.154,4135.769,3454.487,4190.385,4180.0
1970-01-01 13:03:51.912018,4161.41,4185.128,4167.051,4189.744,4185.0,4185.385,4179.615,4189.615,4191.026,4189.872,4134.872,3457.692,4188.718,4182.308
1970-01-01 13:03:51.912058,4164.231,4186.538,4168.718,4186.538,4183.59,4186.795,4179.231,4190.897,4192.436,4190.256,4136.026,3461.41,4185.385,4181.154
1970-01-01 13:03:51.927196,4165.128,4190.0,4164.359,4187.179,4184.744,4186.795,4183.846,4192.179,4193.462,4190.769,4139.103,3457.692,4187.949,4179.744
1970-01-01 13:03:51.927243,4165.385,4186.282,4165.128,4190.128,4187.308,4185.128,4185.256,4192.564,4190.897,4190.128,4137.949,3454.103,4189.359,4177.949
1970-01-01 13:03:51.942158,4161.026,4182.179,4163.462,4187.436,4185.897,4184.872,4183.205,4194.359,4191.026,4190.513,4136.282,3458.205,4190.897,4178.462
1970-01-01 13:03:51.957164,4163.718,4184.103,4166.923,4185.385,4183.333,4185.897,4181.923,4190.385,4189.487,4192.308,4136.154,3460.0,4190.128,4179.103
1970-01-01 13:03:51.957202,4166.026,4187.692,4169.103,4184.615,4184.359,4186.795,4184.231,4188.077,4189.615,4192.179,4136.795,3458.205,4190.897,4180.641
1970-01-01 13:03:51.957229,4165.513,4185.385,4170.897,4184.103,4186.41,4186.41,4185.769,4189.872,4190.513,4189.231,4134.615,3456.026,4188.205,4178.333
1970-01-01 13:03:51.972105,4161.282,4182.821,4166.41,4184.359,4185.128,4187.564,4186.154,4191.41,4191.795,4188.974,4134.744,3457.308,4188.59,4178.974
1970-01-01 13:03:51.972143,4163.846,4184.744,4167.308,4187.564,4183.846,4187.692,4183.974,4189.231,4191.538,4189.103,4134.872,3458.718,4188.846,4180.513
1970-01-01 13:03:51.987226,4165.0,4188.462,4167.051,4186.538,4184.615,4185.128,4182.821,4190.385,4191.795,4189.744,4137.436,3458.974,4191.154,4179.487
1970-01-01 13:03:52.002207,4165.513,4187.179,4168.59,4186.282,4185.513,4183.462,4181.923,4190.897,4187.821,4190.641,4138.205,3457.308,4190.897,4177.436
1970-01-01 13:03:52.002253,4164.359,4184.359,4168.205,4189.359,4185.385,4186.282,4183.59,4191.667,4186.923,4191.538,4137.821,3456.667,4188.462,4178.846
1970-01-01 13:03:52.018820,4166.154,4184.744,4169.359,4188.205,4184.487,4187.821,4185.769,4193.462,4190.256,4190.769,4135.641,3457.949,4187.949,4179.231
1970-01-01 13:03:52.018874,4167.436,4185.385,4170.641,4182.436,4184.231,4185.769,4183.718,4192.051,4190.769,4190.641,4135.897,3458.846,4190.128,4176.923
1970-01-01 13:03:52.032196,4167.051,4183.59,4170.641,4181.923,4184.615,4184.487,4182.179,4189.615,4191.282,4191.667,4139.231,3459.744,4190.0,4177.179
1970-01-01 13:03:52.032233,4163.846,4184.744,4169.487,4184.615,4184.487,4186.667,4185.0,4191.667,4194.103,4191.154,4139.359,3461.41,4190.385,4182.051
1970-01-01 13:03:52.047233,4164.231,4186.154,4170.897,4185.0,4184.359,4186.41,4186.795,4192.949,4191.282,4190.641,4137.179,3461.795,4192.692,4182.692
1970-01-01 13:03:52.049119,4167.564,4183.077,4175.128,4185.0,4184.487,4187.179,4186.667,4189.231,4186.667,4190.385,4136.026,3459.872,4191.667,4178.462
1970-01-01 13:03:52.062283,4165.641,4181.41,4173.077,4183.846,4184.487,4191.795,4186.538,4190.256,4189.744,4190.769,4136.538,3461.795,4188.974,4178.077
1970-01-01 13:03:52.062330,4165.128,4182.692,4170.513,4183.077,4184.487,4188.974,4184.359,4189.872,4191.795,4189.615,4136.026,3463.718,4186.154,4180.769
1970-01-01 13:03:52.077374,4165.0,4183.462,4168.59,4185.513,4184.487,4184.872,4182.821,4188.974,4190.128,4189.872,4137.436,3460.385,4188.205,4183.59
1970-01-01 13:03:52.077419,4167.179,4181.538,4170.641,4187.692,4184.487,4184.487,4182.949,4188.846,4188.59,4191.282,4137.308,3456.795,4190.385,4181.923
1970-01-01 13:03:52.092343,4165.385,4182.436,4169.359,4186.282,4184.359,4184.744,4181.795,4190.385,4190.256,4191.154,4136.795,3457.821,4190.256,4179.744
1970-01-01 13:03:52.092395,4166.282,4183.077,4172.308,4187.821,4184.359,4185.128,4182.308,4188.077,4188.974,4189.359,4135.256,3458.59,4183.974,4177.692
1970-01-01 13:03:52.107479,4166.41,4182.821,4173.846,4188.718,4184.487,4189.103,4187.436,4189.103,4187.179,4190.385,4134.615,3458.718,4184.231,4179.615
1970-01-01 13:03:52.109375,4169.359,4184.615,4176.026,4187.692,4184.359,4187.308,4188.077,4189.872,4188.205,4190.641,4135.0,3458.077,4188.205,4178.846
1970-01-01 13:03:52.122376,4167.436,4188.205,4172.308,4186.538,4184.231,4184.615,4183.462,4188.077,4192.308,4189.487,4136.667,3457.179,4192.051,4178.718
1970-01-01 13:03:52.122425,4169.231,4188.333,4175.128,4187.436,4185.256,4185.385,4180.128,4185.256,4190.128,4189.615,4134.487,3455.385,4188.077,4180.769
1970-01-01 13:03:52.137925,4170.641,4187.692,4176.923,4185.513,4186.282,4185.897,4184.103,4188.462,4188.462,4190.128,4133.718,3455.256,4187.051,4181.538
1970-01-01 13:03:52.137973,4169.744,4187.692,4179.103,4183.462,4186.282,4186.923,4186.41,4191.667,4190.256,4190.385,4135.769,3456.026,4189.231,4177.692
1970-01-01 13:03:52.152465,4167.308,4185.897,4176.538,4182.308,4186.41,4188.59,4186.154,4190.0,4192.308,4190.641,4137.051,3457.051,4190.513,4176.154
1970-01-01 13:03:52.152517,4168.846,4184.872,4173.077,4182.051,4186.282,4186.282,4186.923,4187.821,4191.282,4189.231,4136.667,3455.769,4188.974,4178.077
1970-01-01 13:03:52.167523,4167.821,4186.41,4173.077,4184.487,4185.256,4184.487,4187.308,4190.128,4190.769,4190.0,4137.051,3457.051,4189.103,4178.718
1970-01-01 13:03:52.169895,4166.154,4185.769,4173.974,4187.051,4185.128,4185.513,4180.897,4191.154,4191.538,4192.949,4135.769,3460.128,4190.256,4177.949
1970-01-01 13:03:52.182683,4167.821,4184.744,4173.077,4186.282,4185.897,4186.154,4177.179,4188.974,4189.487,4192.564,4135.128,3460.0,4190.769,4180.0
1970-01-01 13:03:52.182739,4169.615,4185.256,4170.897,4186.538,4185.0,4185.385,4182.308,4187.564,4189.872,4190.0,4137.564,3458.077,4189.872,4182.436
1970-01-01 13:03:52.197524,4170.385,4184.615,4172.564,4188.077,4184.487,4183.462,4184.487,4188.333,4192.308,4189.359,4137.949,3454.872,4186.667,4181.41
1970-01-01 13:03:52.197574,4168.462,4184.359,4172.436,4186.282,4185.897,4182.564,4182.692,4190.128,4192.821,4191.026,4137.308,3454.231,4189.103,4180.897
1970-01-01 13:03:52.212537,4170.256,4186.282,4173.462,4185.0,4185.0,4182.949,4184.103,4189.103,4189.359,4192.692,4137.692,3456.41,4191.154,4180.641
1970-01-01 13:03:52.227463,4170.128,4188.718,4169.872,4185.128,4183.333,4184.359,4188.077,4190.769,4189.359,4190.769,4137.692,3457.051,4192.949,4180.769
1970-01-01 13:03:52.227499,4171.282,4186.026,4170.897,4188.077,4184.359,4182.051,4184.615,4191.026,4192.564,4187.692,4136.923,3455.897,4192.308,4178.846
1970-01-01 13:03:52.242747,4167.949,4183.59,4169.872,4187.821,4184.744,4181.026,4179.872,4189.872,4193.333,4189.872,4138.718,3457.051,4189.487,4179.744
1970-01-01 13:03:52.242804,4168.718,4184.103,4172.051,4186.154,4184.103,4183.205,4181.667,4188.462,4188.718,4193.205,4137.436,3458.205,4183.077,4179.744
1970-01-01 13:03:52.257561,4169.744,4185.641,4173.205,4184.744,4185.0,4186.538,4184.359,4190.513,4187.051,4190.385,4138.462,3460.513,4186.667,4180.641
1970-01-01 13:03:52.257610,4170.641,4186.282,4176.41,4185.128,4185.769,4185.769,4181.154,4189.744,4188.333,4184.744,4137.949,3459.359,4190.513,4181.154
1970-01-01 13:03:52.273045,4167.436,4186.667,4170.897,4183.974,4184.487,4186.026,4179.231,4191.41,4191.026,4185.513,4136.795,3458.333,4192.051,4181.795
1970-01-01 13:03:52.273093,4167.308,4186.795,4169.359,4185.256,4184.103,4187.564,4182.308,4191.282,4187.949,4187.051,4136.282,3460.641,4192.051,4180.641
1970-01-01 13:03:52.287523,4167.051,4186.282,4171.538,4187.692,4184.744,4186.41,4184.103,4189.359,4187.564,4187.821,4137.564,3462.179,4192.692,4181.282
1970-01-01 13:03:52.287566,4169.359,4182.949,4175.385,4188.718,4184.359,4185.256,4182.821,4189.872,4191.41,4188.974,4136.923,3460.0,4190.769,4180.769
1970-01-01 13:03:52.302601,4170.513,4182.949,4172.564,4187.949,4184.487,4185.769,4182.692,4193.59,4192.564,4190.256,4136.667,3462.051,4190.385,4180.641
1970-01-01 13:03:52.317542,4170.128,4186.667,4169.487,4185.641,4184.359,4180.769,4179.615,4190.128,4188.077,4189.744,4136.282,3463.59,4191.026,4181.154
1970-01-01 13:03:52.317585,4168.974,4185.897,4171.667,4183.205,4184.103,4178.077,4177.949,4187.564,4189.231,4189.744,4136.667,3461.154,4190.513,4182.564
1970-01-01 13:03:52.332632,4169.615,4182.051,4173.077,4183.974,4184.744,4184.872,4180.513,4192.564,4195.0,4191.154,4138.205,3462.436,4191.154,4182.564
1970-01-01 13:03:52.332675,4168.974,4183.718,4170.769,4182.821,4184.359,4188.205,4182.564,4193.974,4193.59,4190.0,4135.897,3464.615,4191.41,4179.615
1970-01-01 13:03:52.347590,4164.103,4181.538,4171.795,4182.436,4184.231,4183.974,4180.385,4190.385,4192.821,4189.744,4134.615,3462.436,4187.821,4178.205
1970-01-01 13:03:52.347632,4166.538,4175.513,4175.513,4186.282,4186.154,4183.846,4178.846,4189.872,4192.821,4189.487,4136.667,3456.41,4183.333,4177.949
1970-01-01 13:03:52.362653,4169.615,4182.051,4174.744,4185.641,4187.179,4182.692,4177.949,4193.462,4192.564,4190.256,4138.718,3455.897,4187.949,4178.846
1970-01-01 13:03:52.364718,4173.205,4189.231,4177.564,4185.0,4185.769,4176.026,4174.872,4188.846,4190.128,4191.41,4137.564,3458.462,4191.667,4181.795
1970-01-01 13:03:52.377704,4174.872,4186.41,4176.026,4186.667,4185.256,4172.821,4172.179,4186.026,4189.872,4192.051,4136.154,3457.692,4190.641,4186.154
1970-01-01 13:03:52.377751,4175.897,4185.385,4174.615,4186.538,4184.744,4173.333,4170.256,4188.974,4190.897,4191.41,4136.154,3456.41,4188.462,4183.205
1970-01-01 13:03:52.393196,4168.59,4189.359,4173.974,4185.0,4183.846,4177.821,4172.821,4192.692,4192.179,4191.538,4138.333,3462.949,4190.385,4181.923
1970-01-01 13:03:52.393242,4166.026,4182.949,4177.949,4186.282,4184.359,4184.615,4180.128,4190.385,4192.821,4193.077,4138.333,3465.769,4186.282,4183.333
1970-01-01 13:03:52.407676,4167.949,4179.487,4176.026,4185.128,4184.615,4189.872,4184.359,4189.744,4193.974,4191.41,4137.692,3458.974,4185.256,4180.128
1970-01-01 13:03:52.407714,4172.949,4187.564,4179.359,4186.667,4183.59,4184.615,4178.205,4190.513,4190.256,4188.077,4135.769,3454.744,4187.179,4175.769
1970-01-01 13:03:52.422748,4172.949,4192.051,4176.282,4188.333,4183.462,4174.615,4172.564,4192.821,4187.051,4190.256,4137.692,3459.231,4191.282,4185.897
1970-01-01 13:03:52.424652,4172.179,4188.462,4171.667,4185.128,4183.59,4171.538,4175.0,4193.205,4189.615,4192.051,4139.744,3463.59,4191.282,4193.846
1970-01-01 13:03:52.437870,4168.462,4187.436,4171.795,4183.718,4183.205,4180.513,4179.615,4192.692,4193.846,4192.179,4138.333,3462.692,4190.128,4186.282
1970-01-01 13:03:52.437921,4166.538,4185.0,4175.256,4185.0,4183.333,4190.0,4181.154,4189.872,4191.026,4192.949,4134.103,3458.846,4185.385,4177.949
1970-01-01 13:03:52.452833,4167.564,4179.359,4174.103,4183.974,4183.333,4189.744,4180.769,4189.359,4187.821,4191.923,4134.231,3461.41,4183.333,4178.846
1970-01-01 13:03:52.452878,4173.974,4180.769,4176.026,4185.385,4183.333,4184.615,4177.308,4190.641,4188.462,4190.256,4137.692,3464.103,4187.051,4178.462
1970-01-01 13:03:52.467758,4176.41,4185.769,4178.077,4187.821,4183.333,4179.103,4174.615,4188.59,4190.256,4191.795,4137.308,3458.59,4191.795,4178.077
1970-01-01 13:03:52.467798,4171.923,4184.615,4172.821,4187.436,4183.333,4175.897,4176.154,4186.026,4189.872,4192.308,4135.128,3455.897,4191.026,4186.154
1970-01-01 13:03:52.481791,4167.436,4182.051,4171.026,4187.051,4183.333,4182.821,4180.641,4187.949,4188.974,4189.231,4134.872,3459.744,4186.282,4187.051
1970-01-01 13:03:52.483825,4164.615,4181.026,4175.0,4187.821,4183.333,4194.872,4182.179,4193.718,4190.385,4188.333,4135.769,3461.923,4186.154,4178.846
1970-01-01 13:03:52.496906,4166.538,4180.385,4178.846,4187.949,4183.333,4195.641,4179.103,4190.128,4191.154,4191.538,4133.59,3461.026,4186.923,4174.103
1970-01-01 13:03:52.496954,4168.846,4183.462,4173.718,4186.282,4183.333,4184.615,4176.026,4185.0,4190.0,4190.897,4134.359,3462.051,4189.359,4177.949
1970-01-01 13:03:52.511866,4172.564,4188.333,4170.641,4185.513,4183.333,4172.179,4174.359,4186.41,4185.256,4185.769,4136.538,3458.59,4190.0,4182.179
1970-01-01 13:03:52.511911,4172.051,4188.205,4168.333,4185.0,4183.333,4173.718,4174.103,4192.436,4185.769,4185.641,4137.051,3456.795,4192.051,4187.564
1970-01-01 13:03:52.528372,4173.59,4183.077,4172.051,4185.897,4183.333,4184.744,4176.41,4191.923,4189.872,4190.128,4135.513,3457.949,4190.897,4188.718
1970-01-01 13:03:52.541854,4171.154,4182.436,4173.59,4183.718,4183.333,4187.308,4180.641,4188.718,4194.744,4191.795,4136.667,3459.872,4190.513,4184.744
1970-01-01 13:03:52.541891,4171.667,4182.308,4177.308,4183.718,4183.333,4181.538,4178.974,4188.718,4192.821,4188.718,4133.846,3462.179,4189.359,4180.0
1970-01-01 13:03:52.557002,4171.667,4183.59,4174.872,4185.256,4183.333,4184.359,4177.821,4194.103,4189.872,4188.077,4133.59,3463.462,4190.769,4183.462
1970-01-01 13:03:52.557050,4174.103,4185.897,4176.667,4186.538,4183.205,4187.051,4178.974,4192.949,4189.103,4189.872,4135.128,3461.282,4189.615,4183.718
1970-01-01 13:03:52.571984,4170.385,4187.051,4177.308,4186.026,4183.205,4184.359,4177.564,4188.077,4190.513,4190.641,4134.103,3461.538,4188.462,4178.974
1970-01-01 13:03:52.572035,4168.974,4185.513,4177.564,4187.051,4183.59,4185.0,4176.923,4188.846,4188.718,4189.231,4133.846,3463.205,4187.436,4175.897
1970-01-01 13:03:52.587059,4170.0,4185.128,4174.744,4186.795,4183.077,4186.026,4180.897,4193.974,4188.462,4189.744,4137.308,3461.538,4187.821,4179.487
1970-01-01 13:03:52.587109,4172.051,4185.641,4176.154,4183.974,4183.333,4183.718,4181.154,4191.538,4192.436,4190.641,4135.641,3459.744,4184.487,4180.641
1970-01-01 13:03:52.602055,4174.615,4183.462,4177.564,4182.692,4185.385,4181.923,4178.718,4188.462,4191.923,4188.974,4131.282,3462.564,4183.077,4178.718
1970-01-01 13:03:52.617088,4179.231,4183.718,4175.769,4184.872,4186.154,4181.923,4178.718,4190.513,4188.077,4188.974,4132.821,3461.923,4188.59,4181.41
1970-01-01 13:03:52.618923,4179.103,4187.436,4173.846,4185.897,4184.744,4181.795,4176.795,4189.744,4187.821,4189.744,4136.026,3459.103,4193.974,4185.641
1970-01-01 13:03:52.632064,4169.359,4184.359,4171.538,4184.103,4183.974,4184.487,4178.462,4188.077,4190.897,4190.897,4136.282,3462.308,4193.077,4185.0
1970-01-01 13:03:52.632110,4163.205,4177.564,4174.744,4184.487,4184.487,4192.821,4186.026,4191.154,4193.077,4191.538,4133.974,3463.846,4187.179,4178.59
1970-01-01 13:03:52.647561,4166.795,4177.308,4181.667,4187.051,4184.487,4196.154,4186.795,4194.103,4191.795,4190.385,4132.308,3461.154,4187.692,4176.795
1970-01-01 13:03:52.647608,4174.615,4183.974,4184.103,4187.179,4184.231,4187.564,4178.333,4188.333,4188.59,4187.821,4133.333,3461.154,4190.769,4180.641
1970-01-01 13:03:52.662083,4174.487,4188.718,4174.487,4183.59,4184.359,4179.615,4174.359,4187.436,4188.077,4188.718,4137.821,3462.564,4195.256,4187.692
1970-01-01 13:03:52.662127,4174.359,4186.538,4173.718,4183.846,4184.359,4178.077,4176.154,4189.615,4186.538,4191.538,4137.436,3458.333,4194.231,4189.103
1970-01-01 13:03:52.677249,4172.051,4182.564,4176.41,4184.103,4184.359,4181.538,4181.154,4191.154,4189.103,4191.667,4136.923,3459.359,4193.205,4185.897
1970-01-01 13:03:52.679267,4169.872,4180.513,4178.59,4183.846,4184.359,4187.821,4187.179,4190.128,4193.333,4188.333,4136.026,3464.487,4190.385,4178.205
1970-01-01 13:03:52.692152,4167.821,4183.59,4176.795,4185.256,4184.359,4191.667,4185.385,4192.564,4192.308,4188.077,4136.026,3462.051,4192.821,4178.077
1970-01-01 13:03:52.692199,4169.744,4182.949,4176.667,4187.692,4184.359,4188.718,4178.846,4191.667,4187.692,4191.282,4133.333,3457.692,4191.923,4183.077
1970-01-01 13:03:52.707215,4168.077,4181.667,4171.282,4185.256,4184.359,4188.077,4181.41,4190.128,4189.872,4191.667,4131.923,3462.308,4190.256,4183.59
1970-01-01 13:03:52.707261,4176.538,4183.846,4177.179,4184.744,4184.359,4182.564,4182.436,4188.718,4187.436,4186.41,4133.59,3460.128,4189.615,4177.308
1970-01-01 13:03:52.722137,4181.923,4188.974,4179.872,4187.949,4184.359,4175.769,4173.974,4188.718,4184.744,4184.487,4137.179,3454.487,4192.564,4181.154
1970-01-01 13:03:52.722177,4174.231,4189.231,4171.795,4187.051,4184.359,4179.615,4173.974,4188.462,4188.846,4188.59,4136.41,3459.359,4192.436,4190.256
1970-01-01 13:03:52.737181,4165.385,4184.231,4169.872,4182.821,4184.359,4189.231,4188.077,4188.462,4189.615,4191.026,4134.231,3464.359,4191.026,4186.795
1970-01-01 13:03:52.739056,4169.487,4180.256,4181.538,4185.513,4184.359,4192.564,4189.487,4188.59,4188.333,4187.821,4134.744,3459.103,4185.769,4175.385
1970-01-01 13:03:52.752233,4175.897,4178.59,4184.487,4187.436,4184.359,4189.744,4180.0,4187.564,4191.026,4187.692,4137.564,3460.513,4179.744,4173.333
1970-01-01 13:03:52.752280,4181.154,4182.179,4178.974,4184.103,4184.359,4183.718,4178.205,4186.667,4188.333,4190.897,4137.051,3461.667,4183.974,4179.615
1970-01-01 13:03:52.767730,4184.615,4190.128,4176.538,4185.128,4184.359,4176.41,4178.59,4187.179,4183.974,4189.615,4135.897,3451.026,4191.667,4188.205
1970-01-01 13:03:52.767776,4173.077,4190.128,4171.41,4186.538,4184.359,4176.026,4174.872,4187.692,4188.846,4186.795,4138.077,3454.359,4192.051,4195.513
1970-01-01 13:03:52.782205,4166.282,4181.282,4176.667,4184.487,4184.359,4182.821,4178.718,4184.615,4190.385,4187.179,4136.41,3467.564,4185.641,4187.564
1970-01-01 13:03:52.782247,4174.487,4177.949,4189.487,4184.744,4184.359,4188.846,4188.718,4186.41,4189.359,4189.744,4133.077,3463.59,4181.026,4171.154
1970-01-01 13:03:52.797271,4178.462,4181.41,4190.385,4187.692,4184.359,4187.179,4188.333,4188.59,4191.667,4189.615,4132.821,3454.487,4180.128,4169.359
1970-01-01 13:03:52.799129,4168.59,4186.667,4171.41,4185.897,4184.359,4181.026,4182.692,4185.897,4191.026,4188.846,4136.154,3460.641,4188.718,4185.641
1970-01-01 13:03:52.812328,4171.026,4190.256,4167.308,4186.026,4184.359,4176.795,4179.487,4183.846,4185.256,4189.231,4136.667,3465.256,4191.795,4192.949
1970-01-01 13:03:52.812373,4177.821,4188.205,4176.667,4186.667,4184.359,4180.128,4179.103,4189.487,4187.692,4190.641,4136.282,3461.282,4189.231,4183.59
1970-01-01 13:03:52.827326,4177.692,4181.667,4184.744,4187.692,4184.359,4184.744,4179.103,4188.205,4189.872,4190.385,4133.333,3456.026,4186.923,4171.923
1970-01-01 13:03:52.842390,4172.308,4183.077,4179.231,4186.795,4184.359,4184.231,4179.615,4185.897,4187.949,4189.231,4134.231,3456.538,4191.154,4181.795
1970-01-01 13:03:52.842435,4174.872,4186.667,4180.0,4184.359,4184.359,4180.385,4179.615,4185.769,4188.077,4187.692,4136.667,3461.538,4191.026,4192.436
1970-01-01 13:03:52.857352,4176.282,4185.897,4182.949,4181.667,4184.359,4182.436,4179.103,4185.513,4192.051,4188.846,4136.026,3462.692,4190.385,4186.154
1970-01-01 13:03:52.857393,4178.333,4183.462,4185.641,4183.333,4184.359,4185.385,4180.897,4185.641,4191.282,4191.923,4135.256,3458.333,4188.846,4179.103
1970-01-01 13:03:52.872474,4174.615,4183.718,4181.026,4185.385,4184.359,4184.231,4182.949,4187.692,4190.769,4192.436,4137.564,3460.0,4191.154,4184.744
1970-01-01 13:03:52.872521,4170.513,4183.718,4178.462,4186.41,4184.359,4183.718,4180.641,4185.385,4191.667,4190.0,4136.538,3461.923,4191.667,4187.179
1970-01-01 13:03:52.887476,4173.462,4184.231,4182.179,4185.256,4184.359,4184.487,4179.231,4184.103,4191.026,4189.744,4135.256,3457.436,4189.103,4182.564
1970-01-01 13:03:52.887522,4180.256,4185.513,4184.487,4184.872,4184.359,4184.231,4181.41,4185.769,4189.103,4191.282,4135.0,3457.179,4187.949,4180.769
1970-01-01 13:03:52.902952,4181.026,4185.385,4179.872,4185.641,4184.359,4181.795,4179.872,4186.795,4187.821,4190.513,4135.256,3460.256,4189.615,4182.436
1970-01-01 13:03:52.902996,4175.128,4184.872,4178.205,4186.282,4184.359,4181.795,4180.256,4187.949,4190.641,4190.641,4137.051,3459.487,4189.615,4182.436
1970-01-01 13:03:52.917456,4173.333,4184.103,4182.821,4187.692,4184.359,4185.128,4186.41,4189.103,4192.564,4192.436,4136.667,3457.949,4188.333,4177.308
1970-01-01 13:03:52.932616,4180.385,4187.179,4185.513,4189.744,4184.359,4182.179,4183.59,4189.103,4189.359,4191.538,4134.103,3457.179,4190.385,4175.128
1970-01-01 13:03:52.934473,4186.282,4190.0,4183.846,4189.615,4184.359,4173.462,4173.077,4185.897,4185.256,4188.974,4133.974,3455.0,4190.513,4182.436
1970-01-01 13:03:52.947566,4175.641,4186.538,4174.744,4186.795,4184.359,4177.436,4177.949,4184.872,4187.821,4190.769,4136.282,3457.308,4191.154,4186.41
1970-01-01 13:03:52.947613,4166.538,4180.0,4178.077,4186.795,4184.359,4190.513,4188.333,4185.385,4189.487,4192.308,4135.385,3460.897,4187.949,4179.359
1970-01-01 13:03:52.962642,4168.846,4181.154,4184.744,4187.308,4184.359,4192.308,4185.641,4188.462,4190.256,4190.769,4135.0,3459.487,4186.538,4173.59
1970-01-01 13:03:52.962690,4176.41,4186.154,4181.282,4187.436,4184.359,4182.949,4177.949,4186.154,4192.692,4189.615,4135.256,3456.923,4186.41,4175.0
1970-01-01 13:03:52.977567,4174.615,4185.897,4173.077,4184.744,4184.359,4180.769,4178.333,4185.641,4192.308,4190.769,4137.821,3456.154,4187.949,4183.333
1970-01-01 13:03:52.977605,4178.077,4180.641,4181.154,4184.615,4184.359,4182.436,4179.744,4185.256,4186.282,4188.846,4136.795,3453.333,4182.564,4182.564
1970-01-01 13:03:52.992617,4182.051,4181.538,4183.846,4185.897,4184.359,4181.667,4178.333,4186.923,4188.205,4186.923,4136.026,3455.897,4183.077,4179.359
1970-01-01 13:03:52.994504,4181.667,4187.692,4182.308,4186.154,4184.359,4178.59,4177.308,4185.897,4191.282,4188.59,4137.949,3458.59,4186.41,4180.897
1970-01-01 13:03:53.007718,4173.333,4187.692,4179.231,4184.359,4184.359,4184.615,4181.154,4184.487,4190.128,4191.538,4139.359,3457.821,4185.641,4185.128
1970-01-01 13:03:53.007766,4171.154,4180.897,4180.513,4186.282,4184.359,4191.538,4184.872,4185.641,4189.359,4189.487,4136.026,3456.667,4182.821,4180.513
1970-01-01 13:03:53.024300,4174.359,4181.41,4181.41,4187.821,4184.359,4186.923,4183.462,4188.59,4191.282,4186.538,4135.513,3457.179,4185.0,4176.282
1970-01-01 13:03:53.024354,4175.641,4185.128,4179.103,4184.231,4184.359,4182.051,4177.436,4188.333,4189.487,4188.205,4136.41,3455.897,4185.769,4180.897
1970-01-01 13:03:53.037693,4176.41,4184.744,4176.154,4182.821,4184.359,4183.718,4177.179,4188.333,4188.974,4189.872,4138.077,3457.179,4185.513,4185.0
1970-01-01 13:03:53.037732,4177.949,4183.077,4181.667,4186.41,4184.359,4185.385,4184.487,4187.692,4191.667,4189.487,4138.333,3458.333,4185.641,4179.872
1970-01-01 13:03:53.052708,4176.41,4183.333,4184.744,4186.282,4184.359,4186.923,4187.308,4185.385,4190.641,4191.154,4134.744,3458.077,4186.154,4175.769
1970-01-01 13:03:53.054697,4172.692,4181.667,4180.128,4184.359,4184.359,4188.205,4184.487,4187.179,4190.256,4191.923,4134.487,3461.282,4186.795,4178.974
1970-01-01 13:03:53.067755,4175.513,4180.897,4181.282,4187.436,4184.359,4185.513,4184.487,4188.59,4190.513,4188.974,4136.923,3461.026,4184.615,4182.051
1970-01-01 13:03:53.067802,4177.564,4183.974,4182.308,4188.205,4184.359,4182.949,4183.462,4186.923,4190.513,4189.231,4136.795,3457.308,4181.795,4182.436
1970-01-01 13:03:53.082851,4178.846,4185.0,4182.308,4186.026,4184.359,4181.538,4178.846,4186.026,4191.026,4192.821,4133.462,3457.051,4182.821,4181.154
1970-01-01 13:03:53.082896,4176.41,4182.564,4180.0,4185.256,4184.359,4183.205,4182.564,4188.077,4192.179,4191.282,4133.077,3457.692,4188.333,4179.872
1970-01-01 13:03:53.097776,4176.026,4179.103,4182.051,4184.744,4184.359,4185.641,4187.308,4186.538,4189.231,4187.692,4132.051,3454.231,4187.436,4178.077
1970-01-01 13:03:53.097823,4175.128,4181.41,4180.641,4184.359,4184.359,4184.615,4182.308,4188.846,4188.205,4189.231,4134.103,3455.0,4189.487,4178.205
1970-01-01 13:03:53.111935,4179.231,4185.641,4182.564,4188.205,4184.359,4180.385,4178.718,4188.974,4189.487,4188.846,4134.231,3458.974,4189.744,4178.974
1970-01-01 13:03:53.113744,4177.051,4185.513,4181.923,4186.667,4184.359,4181.795,4182.821,4189.103,4190.128,4187.436,4132.179,3460.897,4187.949,4183.974
1970-01-01 13:03:53.126951,4174.487,4182.051,4184.487,4184.359,4184.359,4184.103,4186.026,4189.359,4186.923,4190.0,4131.026,3459.615,4182.692,4182.564
1970-01-01 13:03:53.141878,4175.0,4184.744,4183.846,4186.282,4184.359,4184.487,4185.897,4188.077,4188.974,4191.923,4131.795,3458.846,4182.436,4180.0
1970-01-01 13:03:53.141922,4180.769,4187.692,4186.154,4188.077,4184.359,4182.821,4182.436,4184.615,4191.41,4189.744,4132.564,3455.769,4182.821,4181.026
1970-01-01 13:03:53.157421,4177.821,4184.744,4183.59,4185.513,4184.359,4183.077,4178.59,4189.872,4189.872,4189.487,4135.256,3456.667,4186.667,4181.41
1970-01-01 13:03:53.157467,4173.462,4183.59,4179.359,4184.744,4184.359,4184.103,4178.077,4191.41,4189.487,4190.128,4135.385,3460.256,4188.205,4180.128
1970-01-01 13:03:53.172029,4174.103,4185.769,4177.436,4183.974,4184.359,4183.205,4181.923,4187.051,4193.077,4190.641,4133.974,3458.333,4185.256,4183.462
1970-01-01 13:03:53.172078,4178.333,4180.513,4182.564,4184.359,4184.359,4182.821,4183.718,4186.538,4190.385,4188.333,4133.333,3453.077,4181.795,4182.051
1970-01-01 13:03:53.187005,4178.974,4177.949,4183.077,4185.769,4184.359,4184.615,4180.256,4188.077,4186.41,4184.103,4133.974,3454.744,4180.641,4178.974
1970-01-01 13:03:53.187054,4176.41,4185.385,4176.667,4185.0,4184.359,4184.872,4179.231,4186.41,4190.513,4186.154,4134.359,3460.641,4181.667,4181.667
1970-01-01 13:03:53.201962,4177.436,4186.282,4177.564,4184.615,4184.359,4182.821,4183.333,4184.615,4192.821,4192.051,4136.026,3461.795,4183.59,4181.667
1970-01-01 13:03:53.202008,4179.615,4179.487,4181.026,4186.538,4184.359,4184.103,4182.949,4187.179,4190.128,4191.154,4137.051,3458.462,4185.513,4177.692
1970-01-01 13:03:53.217046,4180.0,4180.769,4181.026,4187.564,4184.359,4187.051,4178.846,4188.462,4189.231,4188.718,4134.487,3455.385,4185.128,4178.077
1970-01-01 13:03:53.231967,4176.667,4183.718,4179.615,4185.641,4184.359,4186.026,4180.769,4186.923,4189.615,4191.282,4132.821,3457.051,4184.615,4180.385
1970-01-01 13:03:53.232006,4178.846,4179.872,4182.051,4184.103,4184.359,4182.436,4183.077,4186.026,4188.59,4191.923,4133.718,3458.462,4181.923,4178.333
1970-01-01 13:03:53.247089,4178.462,4181.795,4179.231,4184.231,4184.359,4184.103,4181.538,4190.513,4190.513,4191.026,4135.897,3458.333,4182.949,4179.872
1970-01-01 13:03:53.249013,4178.462,4185.256,4179.487,4187.564,4184.359,4185.641,4180.641,4189.872,4189.103,4190.0,4133.974,3457.692,4184.615,4180.513
1970-01-01 13:03:53.262042,4177.179,4184.487,4176.154,4187.308,4184.359,4185.0,4181.538,4187.692,4187.949,4190.128,4135.641,3460.0,4187.692,4182.179
1970-01-01 13:03:53.262090,4180.128,4182.051,4175.128,4185.256,4184.359,4183.974,4179.231,4187.308,4187.949,4190.897,4136.923,3463.077,4188.205,4185.0
1970-01-01 13:03:53.277595,4178.205,4181.667,4177.308,4185.128,4184.359,4186.923,4179.487,4188.59,4189.487,4191.026,4135.769,3462.308,4190.641,4185.769
1970-01-01 13:03:53.277642,4176.538,4181.026,4185.513,4187.821,4184.359,4188.718,4183.59,4184.744,4188.462,4188.974,4135.897,3457.051,4186.923,4179.231
1970-01-01 13:03:53.292018,4174.359,4182.821,4180.641,4186.41,4184.359,4186.538,4184.872,4183.718,4187.821,4189.103,4138.974,3456.795,4187.436,4180.256
1970-01-01 13:03:53.292056,4175.897,4183.718,4178.59,4184.615,4184.359,4183.59,4181.026,4184.103,4188.205,4190.769,4136.923,3457.564,4190.769,4186.667
1970-01-01 13:03:53.307089,4175.897,4183.333,4183.205,4184.231,4184.359,4185.897,4180.769,4186.667,4190.256,4190.897,4135.128,3457.564,4191.538,4185.128
1970-01-01 13:03:53.308943,4179.615,4181.667,4186.154,4184.615,4184.359,4186.923,4181.026,4188.718,4188.462,4190.641,4137.692,3458.846,4186.538,4176.154
1970-01-01 13:03:53.322121,4182.051,4180.641,4183.718,4185.128,4184.359,4183.462,4178.718,4187.949,4186.282,4190.769,4138.462,3461.795,4187.821,4178.974
1970-01-01 13:03:53.322168,4177.692,4182.692,4183.846,4187.436,4184.359,4181.154,4178.846,4186.154,4188.077,4189.359,4135.513,3460.0,4191.154,4190.128
1970-01-01 13:03:53.337216,4174.744,4183.846,4187.051,4188.205,4184.359,4183.974,4181.538,4185.0,4190.0,4188.718,4135.513,3457.436,4187.692,4187.179
1970-01-01 13:03:53.337262,4178.205,4182.949,4186.282,4186.026,4184.359,4189.359,4184.103,4185.128,4189.744,4191.795,4136.538,3460.256,4186.538,4176.41
1970-01-01 13:03:53.352104,4177.821,4183.205,4182.179,4184.487,4184.359,4190.641,4185.769,4186.795,4187.692,4192.949,4135.256,3461.667,4189.487,4177.692
1970-01-01 13:03:53.352149,4174.487,4185.385,4179.744,4183.462,4184.359,4186.667,4184.231,4190.128,4187.051,4189.487,4134.359,3460.0,4190.897,4185.256
1970-01-01 13:03:53.367189,4179.744,4184.744,4184.744,4183.846,4184.359,4182.692,4180.769,4190.641,4188.974,4187.179,4133.077,3458.333,4189.615,4185.256
1970-01-01 13:03:53.369209,4181.538,4184.103,4184.487,4185.513,4184.359,4182.821,4179.744,4189.744,4189.615,4189.231,4134.231,3459.744,4190.513,4185.769
1970-01-01 13:03:53.382222,4179.231,4185.128,4184.359,4187.308,4184.359,4182.821,4179.872,4188.846,4184.359,4190.0,4136.026,3460.0,4187.692,4184.487
1970-01-01 13:03:53.382269,4175.897,4186.154,4182.692,4185.385,4184.359,4184.487,4180.256,4190.0,4187.436,4190.385,4136.667,3459.744,4188.077,4183.077
1970-01-01 13:03:53.397733,4178.59,4181.667,4182.179,4185.128,4184.359,4186.667,4181.41,4186.282,4194.231,4191.923,4134.231,3459.103,4189.615,4186.41
1970-01-01 13:03:53.397779,4177.949,4179.744,4180.769,4185.769,4184.359,4187.564,4183.59,4184.872,4191.154,4190.897,4136.667,3462.179,4191.154,4189.744
1970-01-01 13:03:53.412212,4180.769,4184.359,4185.385,4186.41,4184.359,4184.872,4181.538,4186.538,4182.949,4189.615,4136.538,3461.667,4189.615,4184.231
1970-01-01 13:03:53.412252,4173.974,4187.051,4180.256,4185.128,4184.359,4182.436,4180.385,4188.205,4187.436,4191.795,4135.0,3457.051,4192.564,4184.231
1970-01-01 13:03:53.427342,4168.846,4182.179,4182.051,4184.487,4184.359,4182.949,4186.154,4184.487,4193.333,4190.0,4135.641,3458.59,4186.923,4188.077
1970-01-01 13:03:53.429250,4175.513,4179.744,4189.872,4185.256,4184.359,4187.692,4190.0,4186.154,4189.744,4187.308,4136.667,3462.692,4182.179,4180.897
1970-01-01 13:03:53.442294,4184.103,4181.282,4188.974,4188.077,4184.359,4190.128,4185.897,4188.718,4185.769,4188.846,4134.615,3457.821,4185.641,4171.282
1970-01-01 13:03:53.442339,4177.051,4183.59,4176.154,4187.308,4184.359,4187.564,4181.923,4187.692,4189.615,4188.59,4133.718,3455.385,4190.897,4182.564
1970-01-01 13:03:53.457237,4173.974,4185.385,4178.333,4184.744,4184.359,4178.205,4181.154,4185.513,4188.59,4187.436,4134.615,3457.436,4190.769,4192.821
1970-01-01 13:03:53.472350,4181.667,4185.513,4186.923,4184.615,4184.359,4173.077,4178.077,4185.128,4184.103,4190.769,4133.974,3457.949,4191.026,4185.128
1970-01-01 13:03:53.472393,4183.462,4184.615,4185.0,4186.795,4184.359,4179.487,4175.897,4186.41,4184.872,4188.205,4132.308,3459.231,4189.359,4178.205
1970-01-01 13:03:53.487348,4177.436,4185.385,4179.359,4187.051,4184.359,4185.769,4177.051,4187.564,4188.462,4183.59,4133.462,3460.385,4185.641,4183.077
1970-01-01 13:03:53.487389,4175.256,4186.538,4180.256,4188.077,4184.359,4184.487,4179.359,4187.692,4188.846,4188.077,4135.256,3458.846,4187.949,4185.256
1970-01-01 13:03:53.502449,4179.744,4185.513,4185.641,4189.487,4184.359,4181.282,4179.615,4186.41,4188.077,4191.923,4133.974,3456.41,4187.564,4182.051
1970-01-01 13:03:53.502496,4180.128,4185.897,4184.487,4186.282,4184.359,4180.385,4177.179,4188.205,4189.744,4189.744,4134.231,3457.436,4186.795,4181.667
1970-01-01 13:03:53.517434,4178.974,4186.282,4184.872,4184.615,4184.359,4180.385,4177.436,4187.949,4190.256,4188.205,4136.795,3460.0,4189.359,4183.846
1970-01-01 13:03:53.517480,4178.462,4185.385,4183.205,4185.641,4184.359,4181.923,4179.231,4187.692,4188.846,4188.205,4137.564,3459.359,4189.615,4184.744
1970-01-01 13:03:53.533945,4182.821,4183.462,4187.308,4187.821,4184.359,4181.41,4178.974,4187.051,4187.436,4188.205,4133.462,3455.641,4185.385,4179.231
1970-01-01 13:03:53.533988,4181.41,4183.974,4185.385,4187.179,4184.359,4181.795,4179.744,4188.718,4189.744,4190.641,4133.462,3458.59,4189.615,4177.949
1970-01-01 13:03:53.547417,4180.513,4184.359,4182.051,4186.154,4184.359,4181.923,4178.846,4188.462,4186.538,4191.282,4134.744,3459.872,4190.513,4181.667
1970-01-01 13:03:53.562523,4179.615,4183.974,4180.128,4186.538,4184.359,4182.949,4179.359,4187.821,4184.744,4188.077,4135.769,3455.256,4185.897,4182.564
1970-01-01 13:03:53.564528,4180.513,4181.667,4185.897,4188.718,4184.359,4185.385,4181.795,4185.0,4188.974,4186.923,4133.333,3453.205,4183.59,4178.077
1970-01-01 13:03:53.577524,4176.795,4180.897,4188.333,4187.308,4184.359,4187.179,4183.077,4183.205,4191.154,4191.538,4133.205,3457.692,4186.154,4180.128
1970-01-01 13:03:53.577571,4179.359,4181.154,4190.385,4186.923,4184.359,4185.256,4181.538,4183.462,4186.667,4191.795,4132.821,3457.821,4181.667,4182.308
1970-01-01 13:03:53.592590,4182.308,4182.949,4185.256,4188.59,4184.359,4184.615,4182.051,4188.333,4185.769,4186.41,4132.949,3457.308,4180.897,4181.538
1970-01-01 13:03:53.592630,4180.513,4185.513,4181.795,4188.718,4184.359,4184.615,4179.615,4187.692,4186.154,4184.231,4134.744,3458.205,4185.0,4182.564
1970-01-01 13:03:53.607606,4177.308,4187.564,4181.795,4186.026,4184.359,4184.103,4176.923,4184.872,4186.282,4188.077,4135.641,3457.949,4188.462,4184.872
1970-01-01 13:03:53.607655,4177.308,4185.513,4184.487,4187.436,4184.359,4187.564,4182.179,4187.692,4185.769,4190.513,4135.513,3457.051,4185.897,4181.154
1970-01-01 13:03:53.622657,4176.667,4182.692,4184.615,4188.077,4184.359,4189.872,4187.308,4190.769,4185.256,4190.0,4137.564,3459.744,4183.718,4176.795
1970-01-01 13:03:53.624490,4178.59,4182.051,4185.513,4186.154,4184.359,4184.359,4184.615,4187.051,4185.513,4189.872,4137.308,3461.41,4182.564,4177.949
1970-01-01 13:03:53.637625,4181.667,4179.872,4185.897,4187.692,4184.359,4181.538,4181.667,4183.718,4185.641,4189.744,4134.744,3459.487,4183.846,4181.282
1970-01-01 13:03:53.637670,4180.0,4179.744,4182.051,4189.615,4184.359,4182.051,4181.026,4186.923,4185.513,4189.487,4135.256,3458.846,4186.795,4183.462
1970-01-01 13:03:53.653136,4181.282,4183.846,4182.692,4186.282,4184.359,4179.487,4178.974,4188.333,4185.256,4189.103,4136.538,3457.051,4185.513,4180.769
1970-01-01 13:03:53.653181,4182.308,4185.513,4183.718,4182.564,4184.359,4180.769,4180.128,4185.897,4189.487,4189.744,4136.282,3456.154,4185.769,4178.718
1970-01-01 13:03:53.667687,4182.308,4182.564,4187.051,4186.026,4184.359,4184.103,4182.308,4182.821,4191.282,4190.897,4135.513,3458.974,4185.385,4180.513
1970-01-01 13:03:53.667731,4180.513,4182.436,4185.385,4186.795,4184.359,4183.59,4180.256,4186.154,4190.897,4190.897,4136.667,3461.795,4187.179,4180.641
1970-01-01 13:03:53.682716,4182.692,4183.718,4186.538,4185.513,4184.359,4181.026,4178.205,4188.333,4187.436,4188.59,4136.026,3461.282,4186.923,4177.821
1970-01-01 13:03:53.684654,4177.179,4182.821,4186.282,4185.769,4184.359,4181.795,4179.615,4188.333,4186.667,4187.821,4136.923,3462.051,4188.333,4183.462
1970-01-01 13:03:53.697745,4175.897,4180.0,4187.949,4185.897,4184.359,4184.231,4180.641,4185.385,4185.897,4189.103,4136.795,3462.564,4187.436,4186.667
1970-01-01 13:03:53.697791,4178.846,4180.385,4182.821,4183.333,4184.359,4184.615,4181.282,4187.564,4187.436,4190.513,4136.538,3462.308,4189.872,4184.487
1970-01-01 13:03:53.712787,4182.821,4183.974,4182.564,4184.615,4184.359,4179.872,4180.0,4188.59,4187.308,4190.769,4135.513,3460.769,4189.359,4181.154
1970-01-01 13:03:53.712832,4181.026,4186.923,4184.359,4186.026,4184.359,4177.308,4177.692,4188.077,4187.436,4190.897,4136.923,3459.744,4188.462,4183.59
1970-01-01 13:03:53.727722,4183.205,4183.846,4187.436,4186.026,4184.359,4177.949,4176.41,4186.282,4188.718,4190.769,4135.385,3460.128,4185.769,4185.513
1970-01-01 13:03:53.727763,4183.205,4182.692,4184.359,4185.0,4184.359,4178.333,4177.179,4187.692,4190.0,4192.179,4135.128,3462.179,4186.923,4188.59
1970-01-01 13:03:53.742759,4181.667,4184.487,4183.718,4184.615,4184.359,4181.282,4177.564,4188.462,4188.846,4193.205,4137.436,3461.282,4190.256,4189.872
1970-01-01 13:03:53.744721,4180.0,4185.128,4184.231,4184.487,4184.359,4184.744,4177.436,4188.077,4189.615,4192.692,4137.692,3462.308,4189.872,4189.615
1970-01-01 13:03:53.757813,4181.538,4183.205,4184.487,4184.487,4184.359,4181.282,4178.462,4188.205,4192.308,4191.538,4135.641,3464.487,4186.795,4188.718
