timestamp,AF3,F7,F3,FC5,T7,P7,O1,O2,P8,T8,FC6,F4,F8,AF4
1970-01-14 10:05:41.161092,4212.692,4124.359,4236.538,4252.436,4253.333,4214.872,4163.974,4208.462,4242.179,4215.769,4570.0,4416.41,4351.795,4475.897
1970-01-14 10:05:41.161135,4217.564,4129.744,4238.205,4251.538,4376.41,4233.974,4167.949,4216.41,4248.077,4189.231,4581.538,4423.205,4357.821,4482.051
1970-01-14 10:05:41.161161,4224.744,4135.256,4240.128,4254.359,4420.513,4244.615,4174.487,4220.769,4251.154,4151.795,4590.0,4428.59,4360.385,4487.179
1970-01-14 10:05:41.161186,4230.897,4138.718,4241.282,4258.974,4376.667,4243.462,4180.641,4220.769,4250.641,4128.205,4592.436,4430.128,4359.487,4489.872
1970-01-14 10:05:41.176594,4234.359,4139.872,4241.538,4263.205,4289.231,4234.231,4183.077,4218.205,4248.333,4138.205,4589.615,4427.821,4356.923,4490.256
1970-01-14 10:05:41.176637,4235.128,4140.256,4241.538,4266.282,4216.667,4223.59,4180.513,4215.256,4246.667,4177.179,4584.744,4424.103,4354.231,4488.59
1970-01-14 10:05:41.179033,4234.359,4142.051,4242.179,4268.718,4193.205,4216.795,4174.487,4213.077,4247.051,4218.333,4581.026,4421.923,4352.564,4486.282
1970-01-14 10:05:41.179063,4233.846,4146.41,4243.974,4272.051,4212.949,4215.256,4169.359,4212.179,4249.359,4233.205,4580.513,4422.308,4352.692,4485.513
1970-01-14 10:05:41.193429,4234.487,4152.436,4246.41,4276.923,4242.692,4217.692,4169.231,4212.821,4251.923,4213.462,4583.59,4424.744,4355.128,4487.564
1970-01-14 10:05:41.193474,4236.026,4157.308,4248.718,4282.564,4248.974,4220.897,4174.615,4215.0,4253.333,4174.744,4589.103,4427.564,4359.487,4491.538
1970-01-14 10:05:41.193499,4237.436,4159.103,4250.641,4286.282,4221.282,4221.795,4181.538,4217.821,4253.333,4143.974,4594.231,4429.872,4363.846,4494.359
1970-01-14 10:05:41.193523,4237.821,4157.821,4252.179,4286.282,4175.385,4219.359,4184.872,4219.359,4252.564,4142.692,4596.538,4431.026,4365.769,4494.359
1970-01-14 10:05:41.206280,4237.179,4155.385,4252.821,4282.692,4139.615,4215.513,4182.692,4218.718,4252.051,4173.59,4594.744,4431.026,4364.231,4492.179
1970-01-14 10:05:41.206331,4235.385,4154.359,4252.821,4277.949,4136.282,4213.974,4177.692,4216.41,4251.923,4217.051,4590.385,4430.641,4361.026,4490.385
1970-01-14 10:05:41.206359,4233.205,4156.538,4253.462,4275.385,4168.205,4217.051,4174.872,4214.872,4252.179,4242.436,4587.692,4431.667,4359.487,4491.41
1970-01-14 10:05:41.221160,4231.795,4161.795,4256.41,4276.795,4216.026,4223.462,4176.923,4215.256,4253.333,4231.282,4590.128,4435.769,4362.692,4496.026
1970-01-14 10:05:41.221197,4232.051,4168.59,4261.667,4281.667,4250.128,4230.0,4182.692,4217.821,4256.026,4193.462,4598.59,4442.179,4370.897,4503.462
1970-01-14 10:05:41.221222,4234.103,4174.872,4266.667,4287.564,4251.538,4234.231,4188.205,4221.538,4260.897,4160.0,4609.231,4448.718,4381.026,4511.41
1970-01-14 10:05:41.236248,4236.154,4177.949,4269.103,4292.308,4227.051,4236.282,4190.385,4225.256,4267.692,4158.462,4616.667,4452.692,4387.949,4516.41
1970-01-14 10:05:41.236284,4236.154,4177.436,4268.077,4294.487,4205.0,4238.205,4189.615,4227.949,4274.231,4190.769,4616.923,4453.59,4388.077,4516.154
1970-01-14 10:05:41.236310,4232.564,4174.744,4264.487,4293.333,4212.949,4241.282,4187.949,4228.59,4277.436,4231.154,4610.256,4451.795,4381.923,4510.128
1970-01-14 10:05:41.236335,4225.641,4171.795,4259.872,4289.103,4255.128,4243.846,4186.795,4226.538,4275.769,4249.231,4600.897,4448.205,4373.205,4501.282
1970-01-14 10:05:41.238693,4217.692,4169.744,4255.641,4283.077,4310.128,4242.949,4185.641,4222.821,4269.872,4234.103,4593.846,4444.231,4366.154,4493.333
1970-01-14 10:05:41.254590,4211.538,4167.692,4252.564,4277.692,4348.846,4238.205,4184.359,4218.974,4262.949,4201.154,4592.179,4441.538,4363.077,4489.103
1970-01-14 10:05:41.254641,4209.231,4165.769,4251.667,4275.769,4354.872,4232.051,4183.462,4216.41,4258.077,4176.282,4595.128,4441.154,4363.718,4489.231
1970-01-14 10:05:41.254670,4210.897,4165.513,4252.821,4278.974,4331.282,4228.59,4183.59,4215.641,4257.308,4173.718,4599.615,4442.821,4366.538,4492.436
1970-01-14 10:05:41.254697,4214.744,4168.462,4254.872,4286.795,4293.077,4229.231,4184.872,4216.154,4260.256,4188.462,4602.692,4444.744,4370.256,4496.667
1970-01-14 10:05:41.266305,4217.436,4173.59,4255.769,4295.897,4257.436,4232.564,4186.795,4216.154,4263.846,4204.615,4602.308,4445.128,4373.205,4500.0
1970-01-14 10:05:41.266351,4215.897,4177.692,4254.487,4301.795,4237.308,4235.769,4188.333,4213.333,4264.615,4206.923,4597.564,4442.179,4373.59,4499.872
1970-01-14 10:05:41.266379,4209.615,4177.692,4250.513,4301.923,4236.154,4236.282,4188.077,4206.795,4260.641,4189.872,4589.615,4435.128,4370.256,4495.641
1970-01-14 10:05:41.266405,4201.538,4174.231,4245.128,4297.949,4244.487,4233.59,4185.256,4198.974,4253.718,4161.282,4582.308,4426.538,4364.872,4489.359
1970-01-14 10:05:41.281336,4196.41,4172.436,4241.154,4295.641,4243.462,4229.615,4181.538,4194.615,4248.59,4138.718,4580.128,4421.282,4361.538,4485.897
1970-01-14 10:05:41.281380,4197.692,4176.538,4241.923,4300.128,4222.308,4226.923,4179.231,4197.564,4250.128,4138.718,4585.128,4423.077,4363.205,4488.846
1970-01-14 10:05:41.281407,4204.615,4186.538,4247.692,4311.026,4191.026,4227.179,4180.0,4206.538,4258.718,4164.103,4595.128,4430.385,4369.615,4497.564
1970-01-14 10:05:41.281433,4212.821,4197.949,4255.256,4322.564,4174.487,4230.256,4183.077,4215.385,4269.744,4202.949,4604.359,4437.051,4377.308,4506.923
1970-01-14 10:05:41.296373,4217.692,4205.0,4260.0,4328.333,4188.077,4234.359,4186.282,4218.077,4276.41,4237.051,4608.59,4437.949,4382.564,4511.282
1970-01-14 10:05:41.296422,4217.051,4204.744,4260.128,4326.154,4220.897,4237.821,4187.051,4213.59,4275.641,4251.923,4606.923,4432.949,4383.59,4508.333
1970-01-14 10:05:41.296449,4211.667,4197.821,4256.667,4318.974,4241.41,4238.077,4184.231,4205.385,4268.846,4242.051,4601.538,4425.641,4380.128,4500.128
1970-01-14 10:05:41.313750,4204.487,4188.462,4252.692,4312.564,4226.154,4233.205,4178.846,4198.077,4260.385,4213.205,4595.897,4419.872,4373.846,4492.051
1970-01-14 10:05:41.313799,4199.487,4181.154,4250.513,4309.744,4186.538,4223.59,4173.59,4195.128,4255.641,4181.026,4592.821,4417.821,4367.692,4489.487
1970-01-14 10:05:41.313839,4199.231,4178.205,4250.897,4309.359,4163.462,4214.231,4171.923,4197.436,4257.436,4163.974,4593.59,4420.0,4364.744,4493.974
1970-01-14 10:05:41.313868,4203.333,4178.974,4252.821,4308.205,4190.769,4210.897,4174.487,4203.59,4264.231,4170.897,4597.692,4425.256,4366.154,4501.795
1970-01-14 10:05:41.326413,4209.103,4181.026,4254.487,4305.513,4259.359,4215.897,4179.744,4210.513,4271.538,4194.231,4603.205,4430.513,4371.026,4507.821
1970-01-14 10:05:41.326462,4213.846,4182.821,4255.128,4303.333,4321.41,4225.385,4184.615,4215.513,4275.0,4215.256,4607.949,4433.205,4376.538,4508.846
1970-01-14 10:05:41.326490,4216.41,4184.615,4255.513,4304.103,4333.718,4233.333,4187.179,4217.949,4273.846,4218.718,4611.026,4432.821,4380.256,4507.179
1970-01-14 10:05:41.326515,4217.692,4187.051,4256.538,4306.795,4297.821,4237.051,4188.205,4219.103,4270.897,4205.128,4612.692,4431.538,4381.795,4507.436
1970-01-14 10:05:41.341541,4218.462,4189.615,4258.077,4308.846,4255.385,4237.436,4189.487,4220.256,4269.231,4189.103,4613.846,4430.641,4382.179,4512.051
1970-01-14 10:05:41.341595,4218.974,4191.282,4259.487,4308.205,4248.077,4237.051,4192.564,4221.795,4269.872,4186.41,4615.0,4430.513,4382.436,4518.974
1970-01-14 10:05:41.341624,4218.718,4190.897,4260.128,4304.744,4280.641,4236.923,4196.154,4223.077,4271.41,4200.0,4615.641,4430.769,4382.692,4523.077
1970-01-14 10:05:41.341651,4216.41,4187.821,4259.487,4300.0,4318.846,4234.615,4196.41,4222.564,4271.795,4217.821,4614.231,4430.256,4381.41,4520.256
1970-01-14 10:05:41.356484,4211.282,4182.308,4256.667,4294.744,4316.923,4227.051,4190.769,4219.487,4269.103,4225.0,4608.974,4427.564,4376.923,4510.256
1970-01-14 10:05:41.356538,4204.231,4175.385,4251.538,4289.872,4256.026,4213.462,4180.0,4214.487,4262.436,4218.077,4600.0,4421.026,4369.103,4497.692
1970-01-14 10:05:41.356569,4197.308,4168.846,4245.897,4286.282,4163.333,4198.077,4169.615,4210.0,4254.487,4206.282,4589.615,4412.308,4360.0,4488.205
1970-01-14 10:05:41.371523,4193.846,4164.487,4243.205,4285.256,4095.897,4188.846,4165.641,4208.718,4249.487,4200.641,4582.949,4405.641,4353.846,4485.513
1970-01-14 10:05:41.374060,4195.641,4162.949,4245.641,4287.564,4095.769,4191.026,4170.385,4211.667,4249.872,4202.692,4584.231,4405.641,4354.872,4489.487
1970-01-14 10:05:41.374094,4202.308,4164.231,4252.179,4292.051,4157.308,4204.231,4180.641,4217.564,4254.744,4204.231,4593.59,4413.077,4363.205,4497.051
1970-01-14 10:05:41.374120,4210.897,4167.179,4259.231,4296.154,4235.128,4221.923,4190.641,4224.103,4260.513,4196.923,4607.051,4424.103,4374.615,4504.872
1970-01-14 10:05:41.389420,4217.821,4170.513,4263.59,4297.821,4281.282,4235.897,4195.256,4229.231,4264.487,4182.949,4618.59,4433.718,4382.821,4510.769
1970-01-14 10:05:41.389471,4221.154,4173.462,4264.744,4297.051,4278.077,4240.641,4192.949,4231.026,4265.513,4175.513,4623.462,4438.462,4384.359,4514.103
1970-01-14 10:05:41.389498,4220.769,4175.513,4263.333,4295.897,4244.103,4236.282,4186.154,4229.103,4263.718,4188.974,4621.154,4437.051,4379.872,4514.231
1970-01-14 10:05:41.389526,4217.308,4175.385,4260.0,4295.641,4220.128,4227.821,4179.359,4224.615,4259.872,4221.795,4613.718,4430.641,4373.077,4510.769
1970-01-14 10:05:41.401584,4211.154,4171.667,4254.615,4294.231,4239.744,4222.051,4176.154,4218.846,4255.128,4252.308,4603.462,4421.538,4366.667,4504.103
1970-01-14 10:05:41.401630,4203.462,4165.128,4247.564,4288.846,4301.538,4222.436,4176.795,4212.821,4250.897,4253.846,4593.077,4412.436,4361.282,4496.026
1970-01-14 10:05:41.401659,4197.308,4160.513,4240.769,4280.256,4361.795,4227.308,4178.59,4207.949,4248.077,4219.231,4585.256,4405.513,4357.308,4489.615
1970-01-14 10:05:41.401686,4195.769,4162.692,4237.692,4273.974,4363.333,4231.026,4179.231,4205.128,4247.051,4169.487,4582.436,4402.308,4355.128,4487.692
1970-01-14 10:05:41.416520,4200.256,4172.308,4240.641,4277.051,4281.923,4228.59,4178.077,4205.0,4246.538,4137.949,4585.641,4404.359,4355.513,4490.897
1970-01-14 10:05:41.416565,4208.59,4183.718,4248.846,4290.385,4154.615,4219.359,4176.538,4206.795,4245.641,4144.103,4592.949,4411.026,4358.846,4497.308
1970-01-14 10:05:41.416591,4217.051,4190.128,4257.821,4306.538,4059.231,4208.59,4175.769,4209.103,4245.128,4180.641,4600.641,4419.487,4363.846,4504.744
1970-01-14 10:05:41.416617,4221.538,4187.949,4261.538,4314.103,4059.359,4204.231,4175.385,4210.385,4247.436,4222.179,4604.872,4425.641,4367.564,4510.385
1970-01-14 10:05:41.434944,4221.154,4179.615,4257.179,4306.923,4156.795,4210.385,4174.615,4209.872,4255.641,4244.359,4604.359,4426.923,4367.949,4512.179
1970-01-14 10:05:41.437391,4217.564,4172.179,4247.949,4290.256,4290.128,4223.59,4173.462,4208.333,4270.641,4239.744,4601.282,4424.487,4365.0,4510.0
1970-01-14 10:05:41.437421,4214.744,4171.923,4241.282,4276.41,4381.667,4235.256,4173.974,4208.077,4289.615,4219.615,4599.615,4421.667,4362.436,4506.923
1970-01-14 10:05:41.437444,4215.641,4180.0,4242.436,4274.872,4393.077,4239.615,4177.179,4211.154,4307.564,4204.744,4602.051,4420.897,4363.846,4506.282
1970-01-14 10:05:41.451018,4219.872,4190.0,4250.0,4284.487,4341.026,4236.538,4182.436,4216.667,4319.103,4207.436,4607.051,4422.692,4368.718,4508.205
1970-01-14 10:05:41.451068,4222.821,4193.462,4257.308,4295.769,4267.949,4229.103,4186.026,4221.154,4321.795,4220.769,4609.744,4424.615,4372.308,4510.256
1970-01-14 10:05:41.451095,4220.128,4186.282,4258.205,4298.974,4208.59,4220.513,4184.872,4220.897,4317.308,4225.513,4606.667,4424.359,4370.128,4509.103
1970-01-14 10:05:41.451126,4211.923,4172.308,4251.795,4291.795,4179.103,4212.949,4178.333,4215.385,4309.359,4207.821,4599.359,4421.538,4362.308,4504.487
1970-01-14 10:05:41.461614,4202.564,4159.872,4243.205,4280.0,4182.308,4208.333,4170.256,4207.308,4303.077,4173.974,4593.462,4418.077,4353.846,4499.359
1970-01-14 10:05:41.461660,4197.308,4155.385,4238.846,4271.282,4208.846,4207.436,4166.282,4201.667,4301.41,4147.051,4592.949,4417.051,4350.513,4497.179
1970-01-14 10:05:41.461685,4198.462,4158.718,4241.667,4269.487,4236.923,4208.718,4169.231,4202.179,4304.103,4149.231,4597.308,4419.744,4353.974,4499.487
1970-01-14 10:05:41.476562,4204.872,4164.744,4248.718,4273.718,4243.974,4208.974,4176.795,4208.205,4308.974,4183.205,4602.308,4424.359,4361.154,4504.744
1970-01-14 10:05:41.476609,4212.821,4168.59,4255.256,4279.744,4221.667,4206.795,4183.462,4215.513,4313.59,4230.513,4604.487,4427.821,4367.564,4509.872
1970-01-14 10:05:41.476637,4219.231,4169.359,4258.718,4284.487,4182.436,4203.846,4185.256,4219.744,4316.667,4266.41,4604.359,4428.718,4371.282,4512.692
1970-01-14 10:05:41.476662,4223.077,4169.872,4259.359,4287.179,4153.462,4203.462,4183.205,4220.256,4318.077,4276.282,4605.256,4428.333,4373.462,4513.205
1970-01-14 10:05:41.476687,4224.231,4171.923,4258.846,4287.564,4162.692,4207.308,4181.154,4218.974,4318.077,4260.128,4609.359,4428.333,4376.154,4512.179
1970-01-14 10:05:41.490590,4223.59,4173.718,4256.795,4284.103,4220.385,4213.974,4181.154,4217.308,4317.179,4228.077,4614.615,4427.821,4379.359,4510.0
1970-01-14 10:05:41.492927,4221.538,4171.538,4251.923,4274.872,4305.385,4220.128,4181.41,4215.128,4316.41,4194.487,4616.667,4424.744,4380.769,4506.154
1970-01-14 10:05:41.492959,4218.59,4164.231,4245.0,4262.179,4370.513,4222.949,4178.718,4211.667,4316.282,4173.462,4613.077,4418.59,4378.462,4501.154
1970-01-14 10:05:41.507474,4215.769,4155.385,4239.615,4253.59,4371.026,4221.795,4173.077,4207.692,4316.667,4173.59,4606.026,4412.179,4374.103,4497.436
1970-01-14 10:05:41.507522,4214.487,4150.513,4240.128,4256.41,4298.59,4218.077,4167.821,4205.769,4317.051,4191.41,4601.41,4408.974,4371.667,4497.308
1970-01-14 10:05:41.507548,4215.513,4153.077,4246.795,4270.256,4194.103,4213.974,4166.667,4208.205,4317.179,4214.615,4603.077,4410.256,4374.231,4501.795
1970-01-14 10:05:41.507574,4217.949,4161.282,4255.385,4286.538,4122.692,4211.41,4170.256,4214.231,4317.564,4231.154,4609.744,4413.718,4380.385,4508.462
1970-01-14 10:05:41.520750,4219.615,4169.615,4259.487,4294.359,4128.205,4211.923,4175.513,4220.256,4318.59,4237.564,4615.128,4415.385,4384.744,4512.949
1970-01-14 10:05:41.520808,4218.974,4172.692,4255.385,4289.103,4203.077,4215.256,4178.462,4221.282,4319.744,4235.256,4613.462,4412.436,4383.333,4511.41
1970-01-14 10:05:41.520840,4215.897,4170.0,4245.385,4275.256,4295.897,4219.103,4176.923,4216.026,4319.744,4225.513,4604.231,4405.513,4376.154,4503.974
1970-01-14 10:05:41.520870,4212.436,4165.641,4236.282,4262.821,4349.231,4220.385,4172.051,4207.821,4317.564,4211.41,4593.077,4398.718,4367.436,4494.359
1970-01-14 10:05:41.535611,4210.897,4163.974,4234.359,4260.385,4337.308,4217.821,4167.308,4202.949,4313.846,4201.026,4586.282,4396.41,4361.282,4487.692
1970-01-14 10:05:41.535661,4212.179,4166.154,4240.513,4268.718,4278.59,4212.436,4165.256,4204.359,4310.128,4204.103,4586.538,4399.744,4359.359,4486.538
1970-01-14 10:05:41.535695,4215.128,4170.0,4250.0,4281.026,4218.718,4206.41,4166.667,4210.769,4308.205,4220.0,4592.308,4405.641,4361.026,4490.513
1970-01-14 10:05:41.551123,4217.692,4172.308,4257.179,4287.949,4198.462,4202.949,4169.615,4217.051,4308.718,4234.487,4599.872,4410.769,4364.615,4496.667
1970-01-14 10:05:41.551171,4219.103,4171.667,4258.974,4284.615,4227.692,4204.359,4172.051,4219.231,4311.026,4230.641,4606.795,4413.333,4369.359,4502.308
1970-01-14 10:05:41.551203,4219.231,4169.103,4256.41,4274.615,4282.051,4210.256,4173.077,4217.564,4313.462,4205.128,4612.051,4413.59,4373.974,4505.897
1970-01-14 10:05:41.553988,4218.333,4167.179,4252.308,4265.769,4323.205,4216.795,4172.564,4215.0,4315.128,4173.846,4615.128,4412.436,4377.308,4507.821
1970-01-14 10:05:41.554023,4217.179,4167.179,4249.103,4264.615,4326.923,4219.103,4170.897,4214.744,4315.513,4159.744,4615.385,4410.641,4378.333,4508.205
1970-01-14 10:05:41.569537,4216.795,4168.462,4247.564,4271.026,4297.179,4215.385,4167.821,4216.795,4315.385,4174.615,4612.949,4408.59,4377.051,4507.051
1970-01-14 10:05:41.569586,4217.308,4168.974,4247.051,4278.846,4257.436,4208.462,4163.59,4218.333,4315.0,4209.359,4608.205,4406.154,4374.615,4504.744
1970-01-14 10:05:41.569613,4218.205,4166.923,4246.41,4281.41,4227.692,4202.692,4158.974,4216.154,4313.333,4240.897,4603.205,4402.564,4372.564,4502.308
1970-01-14 10:05:41.569639,4218.718,4162.821,4245.897,4276.923,4210.769,4200.385,4156.41,4210.513,4309.872,4249.615,4600.0,4397.692,4372.308,4501.41
1970-01-14 10:05:41.580682,4218.974,4158.077,4246.154,4269.231,4197.308,4200.641,4158.333,4203.974,4304.744,4231.667,4599.872,4393.59,4373.974,4503.077
1970-01-14 10:05:41.580727,4219.359,4154.615,4247.692,4264.103,4184.103,4201.026,4164.487,4200.256,4300.256,4200.769,4602.436,4392.564,4375.897,4506.538
1970-01-14 10:05:41.580753,4219.872,4153.462,4249.359,4263.59,4184.103,4200.769,4171.667,4200.769,4298.59,4179.231,4605.513,4395.128,4376.795,4509.231
1970-01-14 10:05:41.595677,4219.487,4154.231,4250.0,4265.385,4212.179,4201.41,4175.641,4204.615,4301.282,4181.923,4605.897,4399.231,4375.897,4508.718
1970-01-14 10:05:41.595725,4217.436,4155.256,4248.59,4265.641,4261.026,4203.846,4173.462,4208.462,4307.051,4205.513,4601.795,4402.179,4373.718,4504.872
1970-01-14 10:05:41.595751,4213.718,4154.487,4245.769,4262.179,4295.897,4205.641,4165.769,4208.846,4312.051,4228.077,4594.359,4402.692,4371.026,4499.487
1970-01-14 10:05:41.595777,4209.103,4150.513,4242.692,4255.897,4280.641,4202.564,4156.026,4204.359,4312.692,4227.179,4587.308,4400.385,4368.333,4494.231
1970-01-14 10:05:41.610691,4204.872,4144.615,4240.513,4250.641,4211.923,4193.59,4149.103,4196.667,4307.821,4199.872,4583.974,4396.41,4366.154,4490.385
1970-01-14 10:05:41.610731,4202.179,4138.974,4240.385,4249.487,4127.821,4182.308,4148.077,4189.615,4300.513,4167.692,4584.359,4392.692,4364.487,4488.333
1970-01-14 10:05:41.610758,4200.769,4135.513,4241.41,4251.795,4083.462,4174.872,4151.667,4187.308,4295.0,4156.795,4585.769,4390.769,4362.692,4486.538
1970-01-14 10:05:41.613238,4200.128,4135.0,4241.795,4253.59,4112.179,4174.744,4155.641,4190.0,4293.718,4174.359,4584.615,4390.385,4359.615,4482.949
1970-01-14 10:05:41.627799,4199.744,4136.538,4239.359,4252.051,4199.359,4180.385,4155.897,4194.615,4295.256,4202.564,4579.872,4389.231,4355.128,4477.051
1970-01-14 10:05:41.627846,4199.231,4138.333,4233.974,4247.949,4288.59,4187.179,4151.538,4196.41,4296.41,4215.897,4573.718,4386.026,4351.026,4470.897
1970-01-14 10:05:41.627873,4198.333,4138.974,4228.718,4245.385,4319.103,4190.641,4145.385,4192.949,4294.872,4202.564,4570.256,4382.179,4349.744,4467.308
1970-01-14 10:05:41.627899,4197.436,4138.205,4227.821,4247.308,4272.051,4189.872,4141.154,4185.897,4291.026,4172.949,4572.051,4380.641,4352.564,4468.59
1970-01-14 10:05:41.640791,4198.077,4137.051,4232.051,4252.564,4188.846,4187.692,4141.154,4179.744,4288.59,4150.128,4578.205,4383.077,4358.333,4474.487
1970-01-14 10:05:41.640842,4200.897,4136.538,4238.462,4256.667,4143.205,4188.59,4145.513,4179.359,4291.026,4151.154,4585.256,4388.462,4364.487,4482.692
1970-01-14 10:05:41.640870,4205.128,4137.564,4242.564,4256.154,4183.718,4195.385,4152.436,4186.282,4298.846,4175.385,4590.128,4394.615,4369.103,4490.128
1970-01-14 10:05:41.640897,4209.103,4140.128,4242.051,4250.641,4290.897,4205.513,4158.974,4197.179,4307.949,4205.513,4591.41,4399.359,4370.897,4493.718
1970-01-14 10:05:41.655824,4211.026,4142.821,4237.436,4244.359,4385.256,4211.538,4161.282,4205.256,4311.923,4221.41,4589.872,4400.641,4369.359,4492.692
1970-01-14 10:05:41.655876,4210.128,4143.462,4230.897,4241.795,4384.487,4206.538,4157.051,4204.872,4307.308,4213.846,4586.026,4397.308,4364.359,4487.692
1970-01-14 10:05:41.655908,4206.538,4140.897,4225.0,4244.359,4270.385,4190.385,4147.436,4196.154,4296.795,4191.667,4580.385,4390.897,4356.923,4480.513
1970-01-14 10:05:41.670848,4201.667,4136.154,4221.923,4248.718,4108.462,4171.026,4137.179,4185.256,4287.564,4174.359,4573.846,4384.744,4349.359,4473.718
1970-01-14 10:05:41.670897,4197.436,4131.41,4222.436,4250.513,4005.641,4160.0,4131.667,4180.0,4286.282,4175.128,4568.846,4382.051,4345.513,4469.615
1970-01-14 10:05:41.670926,4196.41,4129.231,4226.026,4247.821,4033.59,4164.231,4133.59,4183.846,4293.846,4188.462,4568.077,4383.846,4348.333,4470.0
1970-01-14 10:05:41.686272,4200.0,4130.128,4231.154,4242.564,4178.718,4181.41,4142.179,4194.231,4305.385,4196.154,4572.692,4388.462,4356.923,4474.359
1970-01-14 10:05:41.688812,4207.051,4132.949,4236.667,4237.821,4354.103,4202.179,4152.949,4204.744,4313.333,4188.077,4580.897,4392.949,4367.051,4480.385
1970-01-14 10:05:41.688846,4214.487,4136.154,4240.897,4235.641,4462.051,4216.795,4160.897,4209.872,4313.718,4175.256,4588.077,4394.615,4373.333,4485.769
1970-01-14 10:05:41.688870,4219.103,4138.846,4242.051,4234.744,4459.359,4220.256,4162.308,4207.564,4307.949,4178.59,4590.385,4391.795,4373.205,4488.333
1970-01-14 10:05:41.688892,4218.974,4140.513,4239.103,4233.205,4374.744,4213.974,4157.436,4200.513,4301.154,4204.103,4587.821,4385.256,4367.949,4486.667
1970-01-14 10:05:41.703894,4215.128,4140.256,4233.462,4230.769,4273.077,4202.308,4149.744,4193.333,4297.821,4233.333,4582.692,4378.59,4361.41,4480.897
1970-01-14 10:05:41.703943,4210.128,4137.821,4228.077,4229.231,4202.436,4188.718,4143.205,4189.615,4298.462,4239.615,4578.333,4375.128,4357.692,4473.974
1970-01-14 10:05:41.703970,4207.179,4134.359,4226.026,4231.282,4168.718,4175.897,4140.256,4190.0,4300.256,4213.718,4576.538,4375.385,4358.205,4470.128
1970-01-14 10:05:41.703997,4208.974,4132.692,4228.333,4237.821,4151.538,4166.923,4141.026,4193.462,4300.256,4172.436,4577.949,4378.077,4362.692,4473.077
1970-01-14 10:05:41.715923,4215.0,4135.385,4233.846,4246.667,4137.821,4165.513,4145.385,4198.462,4299.103,4145.641,4582.179,4381.667,4369.615,4482.179
1970-01-14 10:05:41.715974,4222.051,4142.308,4240.0,4252.949,4137.821,4174.744,4152.179,4203.205,4299.359,4151.154,4587.564,4386.026,4377.436,4492.949
1970-01-14 10:05:41.716001,4224.872,4149.103,4243.333,4251.41,4170.0,4191.41,4158.718,4205.641,4302.179,4182.308,4591.026,4389.487,4382.949,4498.59
1970-01-14 10:05:41.716027,4220.256,4150.385,4241.667,4239.744,4232.821,4206.538,4160.641,4203.333,4304.359,4214.103,4588.718,4388.718,4381.538,4495.0
1970-01-14 10:05:41.730913,4210.385,4143.846,4235.385,4222.051,4297.564,4209.615,4155.641,4195.769,4301.538,4223.077,4579.231,4381.795,4371.026,4483.59
1970-01-14 10:05:41.730964,4200.256,4131.667,4227.051,4206.026,4328.462,4197.692,4144.872,4185.256,4292.949,4204.231,4565.256,4370.897,4354.872,4470.769
1970-01-14 10:05:41.730992,4194.744,4120.0,4220.256,4198.333,4311.282,4177.821,4133.59,4176.154,4282.308,4173.462,4553.205,4361.282,4341.41,4463.333
1970-01-14 10:05:41.731019,4194.744,4114.744,4217.436,4200.128,4263.846,4162.179,4127.308,4172.436,4275.256,4153.205,4549.103,4357.564,4338.077,4463.974
1970-01-14 10:05:41.749031,4197.949,4117.564,4219.231,4207.308,4220.0,4158.59,4128.462,4175.256,4275.385,4153.205,4553.974,4360.128,4345.513,4470.128
1970-01-14 10:05:41.749080,4201.667,4124.487,4224.487,4214.487,4202.308,4165.0,4134.359,4182.051,4281.795,4165.128,4563.333,4365.513,4357.179,4476.154
1970-01-14 10:05:41.749106,4203.59,4130.256,4230.897,4218.59,4207.436,4172.949,4140.0,4188.333,4289.487,4173.462,4570.641,4369.231,4365.385,4478.462
1970-01-14 10:05:41.749131,4203.462,4131.538,4235.513,4219.744,4215.256,4175.385,4141.154,4191.026,4293.59,4172.436,4572.308,4368.59,4366.282,4476.41
1970-01-14 10:05:41.760891,4202.308,4129.103,4236.41,4219.615,4209.103,4171.026,4138.205,4190.385,4292.179,4168.974,4570.0,4364.872,4362.436,4473.077
1970-01-14 10:05:41.760939,4201.795,4126.154,4234.359,4219.231,4190.769,4165.256,4134.359,4189.487,4287.436,4172.308,4567.308,4361.923,4359.487,4472.564
1970-01-14 10:05:41.760967,4202.564,4124.615,4231.026,4217.821,4177.179,4163.462,4132.692,4190.385,4282.692,4180.897,4566.538,4362.179,4360.769,4475.513
1970-01-14 10:05:41.775954,4203.974,4123.974,4227.949,4213.718,4184.487,4167.051,4133.846,4192.949,4279.103,4183.077,4567.051,4364.103,4364.744,4479.487
1970-01-14 10:05:41.776001,4204.231,4122.179,4225.641,4206.923,4214.231,4172.051,4135.256,4194.103,4275.769,4171.667,4566.41,4363.846,4366.795,4480.769
1970-01-14 10:05:41.776028,4202.821,4118.59,4224.615,4200.128,4252.436,4172.564,4133.59,4191.795,4272.051,4154.487,4563.59,4359.231,4364.359,4478.718
1970-01-14 10:05:41.776054,4201.41,4116.026,4226.154,4198.462,4277.308,4166.026,4128.077,4186.667,4269.487,4150.0,4560.256,4352.692,4359.231,4475.897
1970-01-14 10:05:41.790830,4201.538,4116.795,4230.256,4204.487,4270.128,4154.487,4120.897,4181.538,4270.641,4168.718,4558.846,4348.846,4355.513,4475.128
1970-01-14 10:05:41.790868,4203.846,4120.897,4235.641,4216.282,4225.769,4142.949,4116.282,4179.103,4276.026,4202.949,4561.282,4349.744,4356.795,4477.308
1970-01-14 10:05:41.790894,4207.949,4125.769,4240.128,4227.564,4161.667,4136.795,4117.179,4180.513,4283.846,4231.154,4567.179,4354.231,4363.205,4481.538
1970-01-14 10:05:41.790920,4212.564,4129.231,4242.821,4232.949,4113.846,4138.974,4122.821,4185.513,4291.795,4235.897,4575.513,4359.487,4372.564,4487.308
1970-01-14 10:05:41.806376,4217.051,4131.154,4243.718,4231.282,4115.641,4149.487,4130.128,4192.821,4298.333,4217.051,4584.103,4362.821,4382.308,4493.59
1970-01-14 10:05:41.808892,4219.872,4132.436,4243.077,4225.769,4174.359,4164.103,4135.385,4199.872,4302.051,4189.359,4590.385,4363.333,4389.615,4498.59
1970-01-14 10:05:41.808925,4219.744,4133.077,4240.0,4219.872,4262.821,4176.026,4135.897,4203.077,4301.795,4169.615,4590.769,4360.641,4392.179,4499.487
1970-01-14 10:05:41.825039,4215.897,4132.051,4234.231,4214.231,4335.0,4179.103,4131.282,4199.615,4296.923,4165.769,4583.846,4355.641,4387.949,4494.359
1970-01-14 10:05:41.825087,4208.718,4127.692,4226.923,4207.949,4355.256,4171.41,4123.205,4189.487,4287.436,4174.872,4571.154,4349.103,4377.308,4483.974
1970-01-14 10:05:41.825113,4200.769,4120.641,4220.641,4201.538,4318.974,4156.026,4114.359,4176.41,4275.513,4186.795,4557.308,4341.795,4363.974,4471.795
1970-01-14 10:05:41.825140,4195.385,4114.103,4217.308,4197.821,4251.282,4139.487,4107.308,4165.641,4264.744,4190.769,4547.308,4335.513,4353.462,4463.846
1970-01-14 10:05:41.836005,4195.256,4112.051,4218.077,4200.128,4188.59,4128.718,4104.359,4162.051,4259.231,4181.667,4544.615,4333.333,4350.385,4464.487
1970-01-14 10:05:41.836051,4201.026,4116.282,4223.205,4208.077,4157.692,4128.59,4106.667,4167.051,4261.41,4163.846,4549.103,4337.692,4355.513,4473.59
1970-01-14 10:05:41.836079,4210.385,4124.615,4230.385,4217.436,4164.615,4138.974,4112.436,4177.051,4269.359,4147.949,4557.308,4346.667,4364.872,4486.282
1970-01-14 10:05:41.836105,4218.462,4130.256,4235.385,4221.795,4194.615,4153.974,4117.179,4185.128,4277.179,4142.692,4563.59,4353.974,4372.308,4495.128
1970-01-14 10:05:41.850990,4220.385,4127.821,4234.103,4218.333,4221.923,4164.231,4116.282,4185.897,4279.231,4149.744,4563.718,4353.59,4372.821,4495.385
1970-01-14 10:05:41.851035,4214.744,4117.308,4226.795,4208.462,4227.436,4162.821,4108.462,4178.718,4273.59,4163.077,4556.538,4343.846,4365.769,4487.692
1970-01-14 10:05:41.851061,4204.872,4104.744,4217.179,4198.333,4214.872,4150.897,4097.051,4168.333,4263.59,4173.718,4545.385,4328.59,4355.256,4477.564
1970-01-14 10:05:41.851087,4197.179,4097.949,4210.641,4193.205,4209.487,4136.923,4088.718,4160.769,4255.513,4174.872,4535.385,4314.231,4347.821,4470.769
1970-01-14 10:05:41.866143,4196.795,4101.026,4210.128,4194.744,4235.0,4131.026,4088.205,4160.128,4254.615,4166.154,4531.538,4306.41,4347.564,4469.872
1970-01-14 10:05:41.866194,4203.974,4111.154,4215.256,4199.359,4287.692,4137.436,4095.897,4165.641,4261.41,4155.897,4534.872,4307.179,4353.59,4473.205
1970-01-14 10:05:41.868670,4213.718,4120.897,4222.436,4202.308,4331.795,4150.897,4106.41,4172.564,4270.641,4157.051,4541.538,4312.949,4359.872,4476.923
1970-01-14 10:05:41.868702,4219.615,4124.231,4227.564,4201.795,4322.564,4160.256,4112.821,4175.385,4275.769,4173.846,4545.128,4316.795,4360.513,4478.462
1970-01-14 10:05:41.884039,4218.205,4119.103,4228.462,4200.256,4242.949,4156.538,4110.513,4171.41,4273.077,4193.077,4541.923,4313.59,4353.846,4477.564
1970-01-14 10:05:41.884088,4210.769,4107.821,4226.154,4200.256,4123.333,4139.359,4101.026,4162.821,4265.0,4191.667,4533.59,4304.615,4343.974,4475.128
1970-01-14 10:05:41.884115,4202.051,4095.0,4223.462,4202.051,4028.462,4118.333,4090.513,4155.513,4257.821,4157.949,4526.538,4296.154,4337.949,4472.308
1970-01-14 10:05:41.884142,4196.923,4086.795,4222.821,4203.077,4017.051,4105.769,4084.744,4154.487,4256.795,4107.692,4527.179,4293.59,4340.128,4470.769
1970-01-14 10:05:41.896084,4196.923,4087.051,4224.103,4201.154,4101.41,4109.103,4085.256,4160.769,4262.949,4075.0,4536.154,4297.949,4349.744,4471.538
1970-01-14 10:05:41.896133,4200.513,4096.154,4225.769,4195.897,4240.385,4125.385,4089.231,4170.128,4272.308,4086.026,4548.462,4305.641,4360.897,4474.744
1970-01-14 10:05:41.896162,4204.744,4109.487,4226.667,4188.974,4367.179,4145.0,4092.949,4176.923,4279.487,4137.051,4557.436,4311.923,4367.949,4479.359
1970-01-14 10:05:41.896187,4207.821,4120.256,4225.897,4182.564,4430.641,4158.077,4094.231,4177.692,4280.769,4197.821,4559.744,4313.462,4369.103,4483.846
1970-01-14 10:05:41.910996,4209.744,4123.718,4223.846,4178.59,4420.385,4160.513,4093.205,4173.462,4277.179,4235.256,4557.179,4309.744,4366.667,4487.308
1970-01-14 10:05:41.911060,4211.667,4120.0,4222.308,4178.846,4361.154,4154.615,4091.923,4168.333,4272.436,4235.641,4553.846,4303.59,4364.359,4489.103
1970-01-14 10:05:41.911089,4213.846,4112.692,4222.821,4183.462,4287.692,4145.256,4091.026,4165.897,4268.59,4207.692,4552.179,4298.974,4363.846,4490.256
1970-01-14 10:05:41.911116,4216.41,4106.795,4225.256,4190.128,4223.205,4135.513,4089.744,4166.026,4264.744,4171.667,4551.026,4297.821,4364.487,4491.026
1970-01-14 10:05:41.929463,4218.462,4103.846,4227.821,4195.128,4176.154,4126.923,4086.282,4165.897,4258.59,4145.769,4547.821,4298.205,4363.974,4491.667
1970-01-14 10:05:41.929508,4218.974,4102.564,4228.718,4195.0,4149.103,4120.641,4080.513,4162.308,4250.513,4137.436,4542.179,4297.564,4361.538,4491.923
1970-01-14 10:05:41.931853,4217.821,4100.256,4228.077,4189.359,4145.769,4117.821,4075.0,4156.026,4243.59,4141.923,4537.179,4294.872,4358.205,4491.923
1970-01-14 10:05:41.931882,4216.026,4095.897,4227.179,4181.282,4170.769,4119.231,4073.333,4150.897,4241.282,4149.103,4536.538,4291.795,4356.923,4492.436
1970-01-14 10:05:41.946813,4215.385,4091.923,4227.051,4175.385,4219.872,4124.359,4077.564,4151.795,4244.231,4153.974,4541.154,4290.385,4359.615,4494.103
1970-01-14 10:05:41.946865,4217.564,4092.308,4227.949,4174.615,4275.769,4131.923,4085.897,4159.231,4250.385,4161.282,4548.59,4291.538,4366.154,4498.205
1970-01-14 10:05:41.946894,4222.179,4098.333,4229.487,4178.59,4312.436,4139.872,4093.974,4169.231,4256.41,4175.385,4554.872,4294.231,4373.462,4504.231
1970-01-14 10:05:41.956105,4227.436,4105.897,4231.026,4183.718,4310.128,4145.0,4097.179,4175.385,4259.872,4189.231,4557.692,4297.179,4377.949,4509.359
1970-01-14 10:05:41.956152,4230.385,4108.974,4231.795,4186.41,4268.462,4144.487,4093.974,4173.718,4259.487,4187.179,4557.821,4298.333,4377.308,4510.769
1970-01-14 10:05:41.956179,4229.103,4104.231,4231.154,4184.872,4208.974,4137.821,4087.051,4165.641,4255.641,4161.923,4556.41,4296.538,4372.821,4507.564
1970-01-14 10:05:41.956204,4224.487,4094.103,4229.359,4180.513,4164.872,4128.333,4080.513,4156.667,4250.385,4126.154,4554.487,4292.564,4367.436,4501.923
1970-01-14 10:05:41.971009,4218.974,4085.0,4227.051,4175.769,4161.795,4120.897,4076.795,4152.179,4246.41,4105.769,4551.154,4288.59,4363.846,4497.564
1970-01-14 10:05:41.971046,4216.026,4082.308,4225.0,4171.795,4204.231,4119.103,4075.513,4153.59,4244.744,4117.692,4546.41,4286.538,4363.205,4496.667
1970-01-14 10:05:41.971071,4216.41,4085.897,4223.462,4167.821,4270.641,4122.564,4074.872,4158.59,4246.026,4155.385,4541.026,4286.282,4365.128,4498.205
1970-01-14 10:05:41.971095,4218.846,4091.41,4222.179,4163.333,4322.949,4127.949,4073.718,4163.462,4249.231,4193.333,4537.564,4286.026,4368.205,4499.744
1970-01-14 10:05:41.986134,4220.128,4094.615,4221.41,4159.872,4327.436,4130.641,4072.692,4166.026,4252.692,4206.795,4537.821,4284.744,4370.641,4500.256
1970-01-14 10:05:41.986173,4218.974,4094.487,4222.051,4159.872,4279.744,4129.103,4072.564,4166.154,4253.59,4189.231,4540.769,4282.692,4371.667,4500.897
1970-01-14 10:05:41.986199,4216.795,4092.436,4224.103,4163.462,4209.359,4125.769,4073.59,4164.615,4249.359,4155.0,4543.462,4280.385,4371.154,4503.205
1970-01-14 10:05:42.003353,4215.769,4090.513,4225.897,4167.821,4158.205,4123.974,4074.359,4162.308,4240.513,4127.949,4542.949,4277.436,4369.487,4506.538
1970-01-14 10:05:42.003403,4216.538,4088.718,4225.641,4168.333,4149.615,4124.231,4072.436,4159.103,4231.026,4124.359,4537.436,4273.205,4366.026,4508.077
1970-01-14 10:05:42.003427,4216.923,4086.026,4222.051,4162.436,4174.487,4124.231,4067.179,4154.615,4225.385,4142.179,4528.077,4267.051,4360.513,4505.385
1970-01-14 10:05:42.003454,4214.487,4081.41,4215.897,4152.564,4205.256,4121.41,4060.0,4148.974,4225.0,4164.231,4518.846,4258.59,4353.846,4498.59
1970-01-14 10:05:42.003481,4209.744,4075.897,4209.744,4143.59,4221.538,4115.897,4053.846,4143.205,4226.538,4173.846,4514.231,4249.103,4348.846,4490.769
1970-01-14 10:05:42.016203,4206.41,4071.923,4206.282,4138.974,4226.923,4110.256,4051.538,4138.974,4226.026,4168.205,4515.769,4241.795,4347.949,4485.769
1970-01-14 10:05:42.016254,4207.179,4071.538,4206.282,4138.718,4240.385,4108.333,4052.436,4136.923,4222.179,4158.974,4521.026,4238.846,4351.282,4485.385
1970-01-14 10:05:42.016281,4211.282,4074.231,4208.077,4139.872,4272.692,4112.051,4053.974,4136.667,4216.923,4157.179,4524.872,4239.231,4356.538,4488.846
1970-01-14 10:05:42.016308,4214.744,4077.564,4209.231,4139.872,4306.282,4118.462,4052.949,4136.923,4213.462,4160.385,4523.974,4239.615,4360.256,4492.179
1970-01-14 10:05:42.031257,4214.103,4078.974,4208.846,4138.718,4302.821,4120.385,4048.846,4137.179,4213.077,4155.128,4518.205,4236.41,4360.641,4491.923
1970-01-14 10:05:42.031301,4209.744,4078.462,4208.59,4139.103,4235.256,4111.667,4043.333,4137.051,4214.872,4133.846,4511.154,4229.615,4358.462,4488.974
1970-01-14 10:05:42.031328,4205.128,4077.949,4210.0,4143.205,4119.359,4093.59,4039.103,4137.308,4216.667,4105.641,4507.436,4221.795,4355.769,4487.436
1970-01-14 10:05:42.031354,4204.615,4079.487,4213.333,4150.128,4016.667,4076.41,4038.59,4138.205,4216.923,4089.872,4509.487,4215.385,4355.0,4490.256
1970-01-14 10:05:42.046163,4209.487,4084.103,4217.051,4156.154,3999.615,4072.564,4042.949,4139.744,4215.385,4098.718,4516.282,4211.41,4357.179,4497.051
1970-01-14 10:05:42.046201,4216.923,4090.513,4218.846,4156.41,4099.487,4087.179,4050.641,4142.051,4213.077,4126.026,4523.59,4209.359,4361.667,4503.974
1970-01-14 10:05:42.046227,4221.667,4095.513,4216.538,4149.359,4273.974,4112.821,4057.436,4144.487,4211.41,4153.333,4527.179,4206.923,4366.41,4506.026
1970-01-14 10:05:42.063318,4220.128,4096.282,4209.359,4137.564,4430.641,4134.487,4058.333,4145.769,4211.282,4165.0,4524.744,4201.154,4368.462,4501.282
1970-01-14 10:05:42.063367,4212.308,4092.564,4200.128,4125.385,4493.205,4140.897,4051.154,4144.359,4213.462,4158.59,4517.436,4191.282,4366.154,4492.436
1970-01-14 10:05:42.063394,4202.949,4087.821,4193.205,4117.179,4456.026,4132.821,4040.128,4140.769,4218.077,4142.692,4508.974,4180.385,4360.897,4485.513
1970-01-14 10:05:42.063421,4197.308,4086.667,4192.564,4116.026,4372.821,4120.128,4032.308,4136.923,4225.513,4128.974,4503.59,4172.564,4356.154,4485.256
1970-01-14 10:05:42.076345,4197.308,4089.872,4197.564,4122.308,4299.744,4111.282,4032.821,4135.0,4234.103,4124.744,4503.333,4169.487,4354.487,4491.154
1970-01-14 10:05:42.076394,4200.641,4095.0,4204.231,4133.974,4250.641,4107.564,4040.385,4135.769,4241.154,4130.897,4506.923,4168.59,4355.769,4499.103
1970-01-14 10:05:42.076423,4203.077,4097.436,4208.205,4146.026,4205.385,4104.872,4048.333,4137.692,4244.103,4141.795,4510.128,4166.795,4357.949,4503.718
1970-01-14 10:05:42.076449,4202.051,4095.128,4207.179,4153.333,4150.0,4099.872,4050.128,4137.821,4241.538,4149.872,4509.487,4162.436,4358.718,4503.077
1970-01-14 10:05:42.091279,4198.59,4090.641,4202.179,4153.718,4103.462,4093.718,4044.103,4135.0,4235.128,4151.667,4505.641,4156.667,4357.949,4499.487
1970-01-14 10:05:42.091319,4195.769,4089.231,4196.795,4148.462,4104.615,4091.795,4035.0,4130.769,4228.333,4150.0,4501.795,4151.41,4357.692,4496.667
1970-01-14 10:05:42.091345,4195.897,4094.231,4194.487,4140.897,4173.718,4098.59,4029.615,4127.949,4224.744,4148.718,4501.282,4148.462,4359.487,4497.436
1970-01-14 10:05:42.091371,4198.59,4103.718,4197.051,4135.256,4284.487,4113.462,4031.795,4129.231,4225.641,4147.821,4505.128,4147.949,4363.462,4501.795
1970-01-14 10:05:42.106231,4201.026,4111.795,4202.564,4134.359,4374.359,4128.718,4039.231,4133.846,4229.872,4142.308,4511.538,4148.462,4367.564,4508.077
1970-01-14 10:05:42.106266,4200.513,4113.333,4206.795,4137.949,4390.513,4135.0,4045.897,4139.103,4233.462,4129.231,4516.923,4146.923,4369.872,4513.333
1970-01-14 10:05:42.106290,4196.154,4108.077,4207.051,4142.436,4331.026,4128.846,4046.41,4140.897,4232.949,4112.692,4517.821,4142.179,4369.103,4515.641
1970-01-14 10:05:42.106317,4189.872,4099.744,4203.077,4143.59,4244.103,4115.128,4040.513,4137.821,4227.821,4101.795,4513.333,4135.513,4365.128,4514.103
1970-01-14 10:05:42.124388,4184.231,4092.949,4197.308,4140.128,4185.0,4102.308,4031.923,4131.667,4221.026,4101.795,4505.897,4129.231,4359.359,4509.359
1970-01-14 10:05:42.124443,4180.897,4090.128,4192.179,4134.744,4173.333,4095.641,4025.513,4125.513,4216.154,4110.0,4498.846,4123.974,4353.462,4502.692
1970-01-14 10:05:42.124475,4178.974,4090.0,4188.205,4131.41,4188.846,4093.718,4023.077,4121.41,4215.0,4120.0,4493.974,4118.974,4348.462,4496.026
1970-01-14 10:05:42.136398,4176.282,4089.103,4184.872,4131.538,4201.026,4092.564,4023.077,4119.744,4216.667,4126.667,4491.154,4113.462,4344.615,4490.769
1970-01-14 10:05:42.136463,4172.051,4085.769,4181.923,4133.59,4200.769,4090.385,4022.949,4119.872,4218.59,4128.846,4489.615,4108.077,4342.436,4488.59
1970-01-14 10:05:42.136493,4168.205,4082.051,4180.128,4135.0,4201.154,4088.077,4022.436,4120.641,4218.59,4125.897,4489.103,4103.462,4343.077,4490.256
1970-01-14 10:05:42.136521,4167.821,4081.538,4180.769,4134.872,4214.103,4088.205,4023.333,4121.538,4216.41,4118.846,4489.872,4099.744,4346.923,4495.0
1970-01-14 10:05:42.151449,4173.333,4086.667,4184.615,4136.026,4228.974,4091.41,4027.308,4122.949,4214.615,4112.692,4491.667,4097.436,4353.333,4500.769
1970-01-14 10:05:42.151501,4183.718,4096.282,4191.154,4141.538,4222.051,4096.41,4033.59,4125.256,4215.385,4114.615,4493.462,4096.923,4360.0,4506.026
1970-01-14 10:05:42.151530,4194.872,4106.795,4197.564,4150.897,4186.538,4100.897,4039.231,4128.077,4219.359,4126.667,4494.359,4097.179,4364.872,4509.872
1970-01-14 10:05:42.151557,4201.026,4113.718,4200.256,4158.718,4146.026,4102.692,4040.897,4129.231,4223.718,4139.744,4494.103,4096.154,4366.026,4512.051
1970-01-14 10:05:42.166400,4198.205,4113.205,4196.538,4158.205,4137.821,4101.026,4036.667,4126.795,4225.0,4139.487,4492.949,4091.795,4363.333,4511.923
1970-01-14 10:05:42.166439,4187.949,4104.872,4187.692,4146.795,4179.615,4096.026,4027.308,4121.282,4220.641,4119.103,4491.538,4085.128,4357.949,4509.359
1970-01-14 10:05:42.166465,4175.769,4092.308,4178.205,4129.103,4254.872,4090.256,4016.923,4116.026,4211.795,4088.974,4489.744,4079.103,4352.436,4505.641
1970-01-14 10:05:42.166493,4168.59,4081.795,4172.692,4113.333,4326.026,4087.179,4010.513,4114.231,4203.205,4070.0,4486.667,4075.385,4349.231,4503.077
1970-01-14 10:05:42.181861,4169.103,4078.077,4172.692,4106.795,4360.641,4088.462,4010.641,4116.538,4200.769,4075.897,4482.436,4073.333,4349.872,4502.692
1970-01-14 10:05:42.184287,4176.026,4081.282,4175.897,4110.513,4352.308,4092.308,4015.641,4120.897,4207.051,4101.923,4478.59,4071.538,4353.077,4504.103
1970-01-14 10:05:42.184327,4183.974,4087.821,4178.846,4119.359,4320.897,4095.513,4020.513,4123.846,4218.205,4129.359,4477.308,4069.359,4356.667,4505.769
1970-01-14 10:05:42.184351,4188.333,4093.077,4178.974,4125.641,4294.231,4095.641,4021.538,4123.846,4225.256,4141.026,4479.744,4067.692,4358.846,4507.051
1970-01-14 10:05:42.198662,4187.436,4094.231,4176.41,4125.769,4283.333,4092.949,4018.846,4122.179,4219.487,4133.59,4485.0,4067.692,4359.615,4508.077
1970-01-14 10:05:42.198712,4183.974,4092.179,4173.59,4121.795,4273.718,4088.333,4015.256,4121.154,4197.308,4117.179,4490.641,4069.487,4359.872,4508.846
1970-01-14 10:05:42.198740,4181.41,4089.872,4172.821,4118.333,4243.205,4082.436,4013.205,4121.795,4163.59,4105.641,4493.205,4071.538,4359.872,4507.949
1970-01-14 10:05:42.198767,4181.667,4089.872,4174.231,4118.59,4188.718,4075.897,4013.205,4122.308,4129.103,4105.513,4491.026,4070.769,4358.846,4504.231
1970-01-14 10:05:42.211536,4183.59,4092.564,4175.513,4121.795,4134.103,4070.385,4014.103,4120.385,4105.256,4112.564,4484.615,4064.744,4356.282,4498.462
1970-01-14 10:05:42.211584,4184.487,4095.513,4174.487,4124.487,4113.846,4067.821,4014.872,4115.128,4097.179,4117.949,4476.923,4054.615,4352.949,4493.333
1970-01-14 10:05:42.211611,4182.051,4095.897,4170.641,4123.205,4147.436,4069.359,4014.231,4108.333,4101.282,4118.718,4470.641,4044.231,4350.385,4490.769
1970-01-14 10:05:42.211648,4176.282,4092.692,4165.128,4117.051,4223.846,4073.974,4011.795,4102.564,4108.333,4121.154,4466.41,4037.692,4348.718,4490.769
1970-01-14 10:05:42.226504,4170.0,4087.821,4160.513,4108.333,4304.744,4079.103,4007.308,4100.0,4110.769,4131.538,4462.949,4035.897,4347.051,4492.308
1970-01-14 10:05:42.226550,4166.795,4084.103,4159.103,4101.923,4344.615,4081.795,4001.923,4100.769,4108.205,4144.744,4459.872,4036.41,4345.256,4494.487
1970-01-14 10:05:42.226573,4168.59,4083.846,4161.795,4101.923,4318.718,4079.872,3997.821,4103.462,4105.256,4144.872,4458.462,4036.154,4343.846,4497.051
1970-01-14 10:05:42.226597,4174.231,4086.538,4166.923,4108.333,4240.641,4073.59,3996.026,4106.538,4106.795,4120.513,4459.615,4033.59,4343.333,4499.744
1970-01-14 10:05:42.241551,4180.769,4090.641,4171.282,4117.564,4153.846,4065.256,3997.051,4108.333,4112.821,4080.641,4462.308,4028.205,4343.333,4501.538
1970-01-14 10:05:42.244071,4184.615,4093.333,4172.179,4124.231,4102.179,4058.333,4000.128,4107.949,4119.103,4050.513,4463.333,4021.282,4343.077,4501.154
1970-01-14 10:05:42.244109,4184.359,4093.205,4170.128,4125.128,4100.897,4055.256,4003.846,4105.513,4121.667,4052.564,4460.641,4014.359,4341.667,4498.333
1970-01-14 10:05:42.259545,4181.154,4090.641,4167.692,4120.513,4132.692,4056.282,4006.41,4101.795,4119.615,4088.333,4454.872,4009.103,4339.359,4495.0
1970-01-14 10:05:42.259594,4178.333,4088.077,4167.564,4113.59,4169.103,4060.385,4006.41,4098.718,4115.897,4138.462,4448.846,4005.641,4337.051,4493.462
1970-01-14 10:05:42.259621,4178.974,4087.564,4170.513,4108.462,4198.333,4065.256,4004.615,4097.949,4113.718,4177.949,4446.41,4004.103,4336.538,4496.026
1970-01-14 10:05:42.259647,4184.103,4089.487,4174.615,4107.051,4232.051,4070.256,4003.974,4101.026,4115.0,4192.308,4450.0,4003.974,4339.231,4502.308
1970-01-14 10:05:42.271654,4190.385,4092.179,4176.923,4108.333,4284.487,4075.513,4006.795,4106.538,4118.59,4182.051,4458.333,4004.487,4344.615,4509.615
1970-01-14 10:05:42.271702,4192.308,4093.462,4174.744,4109.359,4344.615,4079.359,4011.538,4110.385,4120.769,4157.051,4466.154,4003.59,4349.744,4513.59
1970-01-14 10:05:42.271730,4186.795,4092.051,4167.564,4107.821,4374.103,4078.205,4012.949,4107.949,4117.564,4129.872,4467.692,3998.462,4350.128,4511.667
1970-01-14 10:05:42.271755,4175.641,4088.205,4158.59,4104.231,4336.026,4069.487,4007.179,4098.718,4108.462,4111.154,4460.128,3988.718,4343.974,4505.128
1970-01-14 10:05:42.285506,4165.641,4084.487,4152.821,4101.923,4231.923,4054.487,3995.769,4087.436,4097.692,4106.282,4447.308,3978.462,4334.359,4498.333
1970-01-14 10:05:42.285544,4163.846,4083.59,4154.359,4104.359,4111.923,4039.744,3985.641,4081.538,4091.795,4112.179,4437.949,3973.077,4328.205,4496.282
1970-01-14 10:05:42.285569,4172.692,4087.436,4162.436,4112.051,4046.795,4033.333,3983.333,4085.0,4094.103,4120.0,4439.359,3974.872,4330.769,4501.667
1970-01-14 10:05:42.285594,4187.821,4094.744,4172.308,4121.41,4080.641,4039.872,3990.256,4095.641,4102.821,4122.949,4452.564,3981.667,4342.179,4512.692
1970-01-14 10:05:42.301075,4201.41,4103.077,4179.231,4127.308,4197.949,4056.538,4001.026,4106.795,4111.795,4121.026,4470.256,3988.205,4356.538,4523.974
1970-01-14 10:05:42.301118,4207.692,4109.615,4180.769,4126.282,4329.744,4074.744,4007.949,4112.308,4115.128,4119.487,4482.436,3989.744,4366.41,4530.256
1970-01-14 10:05:42.303603,4206.026,4112.308,4177.179,4119.103,4400.641,4084.744,4006.923,4110.0,4110.897,4122.179,4483.205,3984.872,4367.564,4528.974
1970-01-14 10:05:42.319950,4200.385,4111.41,4171.538,4109.872,4383.59,4083.077,4000.128,4103.974,4102.179,4128.077,4473.974,3976.282,4361.154,4521.538
1970-01-14 10:05:42.320000,4195.897,4108.462,4166.538,4103.718,4316.026,4073.846,3994.103,4099.615,4095.0,4133.718,4462.179,3969.359,4352.692,4512.436
1970-01-14 10:05:42.320028,4195.641,4105.641,4164.359,4103.077,4260.641,4065.513,3994.231,4099.615,4092.564,4135.769,4454.872,3967.436,4347.692,4507.051
1970-01-14 10:05:42.320054,4198.59,4104.872,4164.359,4107.179,4246.667,4063.077,3999.487,4102.308,4093.462,4132.436,4454.872,3969.231,4348.333,4508.59
1970-01-14 10:05:42.330702,4202.051,4106.923,4165.256,4113.846,4249.231,4064.872,4004.103,4103.59,4095.0,4125.256,4459.744,3970.769,4352.564,4515.385
1970-01-14 10:05:42.330750,4203.846,4111.282,4166.282,4121.026,4220.897,4064.744,4002.949,4101.667,4097.436,4119.744,4463.974,3970.0,4356.923,4523.077
1970-01-14 10:05:42.330779,4203.974,4116.923,4167.949,4127.949,4145.641,4058.077,3996.282,4098.077,4101.026,4122.692,4464.359,3968.205,4359.359,4527.308
1970-01-14 10:05:42.330806,4203.59,4121.795,4170.256,4133.974,4062.179,4047.692,3989.359,4096.667,4103.077,4135.256,4461.795,3967.564,4360.513,4527.308
1970-01-14 10:05:42.330831,4203.846,4124.231,4171.538,4137.051,4036.41,4041.795,3987.821,4099.359,4098.846,4149.103,4460.256,3968.718,4362.692,4525.385
1970-01-14 10:05:42.345683,4204.231,4123.59,4170.0,4134.359,4105.513,4047.179,3992.051,4103.974,4089.487,4151.923,4461.923,3969.359,4366.538,4524.615
1970-01-14 10:05:42.345726,4203.59,4120.256,4165.128,4125.0,4241.667,4062.179,3997.179,4106.154,4085.0,4138.077,4464.231,3966.795,4369.615,4525.0
1970-01-14 10:05:42.345754,4201.41,4115.385,4158.462,4112.436,4366.795,4076.923,3996.923,4102.692,4099.231,4116.026,4463.333,3960.385,4368.846,4524.103
1970-01-14 10:05:42.360790,4198.333,4110.641,4153.077,4103.718,4407.308,4081.923,3989.487,4094.744,4139.231,4102.051,4457.564,3952.436,4363.462,4519.744
1970-01-14 10:05:42.360838,4195.769,4107.821,4151.538,4104.487,4344.615,4074.615,3979.231,4087.179,4197.821,4106.154,4450.128,3946.41,4356.538,4512.692
1970-01-14 10:05:42.360863,4195.641,4107.821,4154.359,4114.487,4227.051,4060.513,3973.333,4084.615,4256.026,4124.103,4445.256,3944.744,4352.308,4506.41
1970-01-14 10:05:42.363204,4198.077,4110.641,4159.487,4127.179,4134.872,4049.103,3975.513,4087.821,4293.718,4142.436,4445.513,3947.179,4352.564,4504.103
1970-01-14 10:05:42.377204,4201.41,4115.256,4163.077,4135.0,4125.513,4047.051,3983.974,4093.974,4301.667,4149.872,4449.487,3950.385,4356.154,4506.795
1970-01-14 10:05:42.377252,4203.462,4120.0,4162.692,4133.974,4195.256,4054.615,3993.205,4098.59,4286.795,4143.333,4453.59,3951.667,4359.744,4512.179
1970-01-14 10:05:42.377278,4202.564,4122.949,4158.205,4126.282,4287.179,4065.256,3998.077,4098.59,4265.385,4127.564,4454.615,3949.872,4359.872,4516.538
1970-01-14 10:05:42.377330,4198.205,4122.051,4152.179,4116.667,4336.026,4069.872,3996.026,4093.718,4251.538,4109.872,4450.641,3945.897,4355.256,4516.538
1970-01-14 10:05:42.390901,4191.282,4116.41,4146.41,4108.718,4315.769,4062.949,3987.949,4085.897,4248.59,4095.641,4442.692,3939.744,4346.923,4511.667
1970-01-14 10:05:42.390950,4183.846,4107.692,4141.667,4103.462,4250.769,4046.923,3977.308,4077.821,4250.385,4087.821,4433.333,3931.282,4337.949,4504.231
1970-01-14 10:05:42.390977,4178.974,4100.256,4138.205,4101.538,4185.769,4031.282,3969.359,4072.692,4250.513,4087.179,4426.026,3922.949,4331.667,4497.949
1970-01-14 10:05:42.391001,4179.872,4098.077,4137.436,4104.103,4151.026,4025.385,3968.59,4072.949,4248.205,4094.103,4424.359,3919.487,4331.026,4496.282
1970-01-14 10:05:42.405705,4186.538,4102.179,4139.872,4110.641,4151.667,4032.564,3975.0,4078.974,4247.179,4106.538,4429.487,3923.974,4336.538,4499.872
1970-01-14 10:05:42.405741,4195.385,4109.103,4144.231,4117.821,4180.256,4047.692,3983.462,4087.179,4249.487,4119.487,4438.846,3933.846,4345.897,4505.513
1970-01-14 10:05:42.405766,4201.538,4113.846,4147.308,4120.256,4227.692,4061.154,3987.564,4092.821,4251.41,4125.897,4447.564,3942.179,4353.974,4509.231
1970-01-14 10:05:42.405791,4202.821,4113.974,4146.923,4115.769,4277.821,4065.256,3985.0,4093.333,4248.974,4121.795,4451.282,3944.231,4356.795,4509.231
1970-01-14 10:05:42.420718,4201.41,4111.282,4144.359,4108.333,4303.462,4058.333,3978.846,4089.744,4242.821,4111.41,4449.487,3940.769,4354.487,4506.795
1970-01-14 10:05:42.420752,4201.41,4110.641,4142.692,4105.897,4278.718,4044.744,3974.487,4086.154,4238.846,4105.769,4446.154,3937.179,4350.897,4505.385
1970-01-14 10:05:42.420778,4204.744,4114.744,4143.846,4112.436,4204.359,4031.923,3974.359,4086.026,4241.154,4114.231,4445.769,3938.077,4350.128,4506.667
1970-01-14 10:05:42.439254,4209.487,4121.538,4146.667,4124.487,4118.333,4026.41,3977.308,4089.359,4248.462,4134.231,4449.487,3942.949,4353.333,4509.487
1970-01-14 10:05:42.439303,4211.923,4126.154,4148.462,4133.59,4075.513,4030.513,3980.128,4093.333,4254.615,4150.641,4454.615,3947.179,4357.821,4511.538
1970-01-14 10:05:42.439330,4210.385,4125.385,4146.923,4133.077,4109.487,4041.026,3980.256,4094.744,4255.128,4146.667,4457.051,3945.769,4359.744,4511.154
1970-01-14 10:05:42.450909,4206.026,4119.872,4142.051,4123.59,4204.744,4051.538,3977.949,4092.564,4250.128,4120.256,4453.59,3938.59,4356.923,4508.59
1970-01-14 10:05:42.450957,4201.538,4112.564,4135.641,4111.154,4304.103,4056.795,3974.744,4088.205,4242.949,4087.436,4444.744,3930.128,4350.256,4505.256
1970-01-14 10:05:42.450984,4198.333,4106.795,4130.897,4102.436,4347.179,4056.026,3972.308,4083.59,4237.051,4066.923,4434.231,3925.897,4342.564,4502.692
1970-01-14 10:05:42.451011,4196.795,4103.718,4129.744,4100.0,4316.795,4052.821,3970.897,4080.513,4233.205,4063.333,4427.308,3928.205,4337.564,4501.026
1970-01-14 10:05:42.465942,4196.538,4103.333,4131.795,4102.564,4252.179,4052.692,3970.385,4079.615,4230.897,4067.436,4428.333,3934.359,4337.564,4500.256
1970-01-14 10:05:42.465989,4198.333,4105.513,4135.641,4107.564,4215.513,4059.231,3971.282,4081.923,4230.0,4071.282,4436.923,3940.769,4343.077,4500.897
1970-01-14 10:05:42.466016,4202.821,4110.897,4140.0,4114.231,4236.538,4071.026,3975.0,4087.692,4230.641,4079.231,4448.974,3945.769,4352.051,4503.59
1970-01-14 10:05:42.466040,4209.872,4118.974,4144.103,4122.949,4282.179,4081.282,3981.538,4095.641,4232.821,4100.897,4457.821,3949.487,4360.128,4508.205
1970-01-14 10:05:42.466065,4217.308,4126.923,4146.795,4132.564,4288.205,4082.308,3988.333,4101.923,4235.256,4133.077,4458.462,3952.308,4362.692,4512.179
1970-01-14 10:05:42.480819,4221.154,4130.513,4146.538,4139.103,4226.282,4072.436,3990.897,4102.436,4235.128,4154.103,4450.0,3952.949,4357.692,4511.923
1970-01-14 10:05:42.480858,4218.462,4126.667,4142.179,4137.436,4140.513,4058.718,3986.795,4095.256,4230.769,4139.615,4437.179,3950.0,4347.179,4506.282
1970-01-14 10:05:42.480883,4209.615,4116.667,4134.487,4126.667,4107.821,4052.051,3978.077,4083.333,4222.564,4086.923,4426.026,3943.333,4335.513,4497.179
1970-01-14 10:05:42.480909,4198.974,4105.256,4126.282,4112.051,4159.103,4056.795,3969.872,4072.821,4213.333,4024.231,4420.641,3935.385,4327.821,4488.974
1970-01-14 10:05:42.498825,4193.077,4098.718,4121.538,4102.692,4244.231,4066.923,3967.179,4069.615,4207.821,3990.897,4420.769,3930.0,4327.308,4485.256
1970-01-14 10:05:42.498875,4195.769,4100.513,4123.333,4105.0,4277.692,4072.179,3970.897,4074.359,4208.718,4008.718,4423.59,3930.769,4333.718,4486.538
1970-01-14 10:05:42.498903,4205.385,4109.744,4131.41,4117.821,4220.641,4067.179,3978.077,4083.205,4214.487,4066.41,4426.41,3938.718,4342.949,4491.282
1970-01-14 10:05:42.498929,4216.923,4121.923,4141.667,4132.821,4118.462,4056.923,3985.0,4090.769,4221.282,4129.231,4428.718,3950.256,4350.385,4496.795
1970-01-14 10:05:42.510931,4225.256,4131.795,4148.462,4141.282,4064.744,4052.308,3989.359,4094.487,4225.513,4163.077,4432.051,3959.872,4353.077,4501.41
1970-01-14 10:05:42.510975,4228.077,4136.154,4148.59,4138.718,4122.179,4061.026,3990.513,4095.641,4226.538,4156.282,4436.795,3963.205,4351.923,4504.615
1970-01-14 10:05:42.511004,4226.154,4134.231,4143.077,4128.077,4268.974,4080.256,3988.59,4096.667,4226.154,4124.744,4440.897,3960.0,4349.487,4505.897
1970-01-14 10:05:42.525954,4221.41,4127.436,4135.769,4116.026,4411.282,4097.949,3983.974,4098.077,4225.256,4097.308,4440.641,3953.205,4347.564,4504.615
1970-01-14 10:05:42.525997,4216.282,4118.846,4130.0,4109.231,4452.692,4101.667,3978.077,4097.692,4223.462,4092.949,4435.0,3946.154,4346.026,4500.385
1970-01-14 10:05:42.526024,4212.564,4111.923,4127.564,4110.128,4366.026,4088.462,3973.333,4093.846,4219.231,4107.308,4427.179,3941.795,4343.59,4494.487
1970-01-14 10:05:42.526049,4211.538,4109.359,4128.077,4116.154,4211.667,4067.436,3972.179,4088.333,4213.333,4121.667,4423.462,3942.436,4340.513,4489.487
1970-01-14 10:05:42.540951,4212.949,4111.538,4130.385,4122.821,4090.513,4052.436,3975.769,4085.641,4208.974,4123.333,4427.308,3947.949,4338.59,4488.205
1970-01-14 10:05:42.541007,4216.026,4117.436,4133.974,4126.41,4071.538,4052.436,3982.949,4089.231,4209.359,4115.641,4436.538,3956.154,4339.744,4491.026
1970-01-14 10:05:42.541035,4219.359,4124.359,4138.077,4126.667,4148.077,4065.256,3990.897,4098.205,4214.615,4108.846,4445.769,3963.59,4344.231,4496.154
1970-01-14 10:05:42.541061,4221.538,4128.59,4141.667,4125.256,4252.051,4080.0,3996.282,4107.564,4221.538,4107.179,4450.128,3968.333,4349.615,4499.487
1970-01-14 10:05:42.556463,4221.026,4127.308,4142.949,4123.333,4310.897,4085.897,3996.538,4111.538,4225.256,4105.897,4448.205,3969.487,4351.795,4498.333
1970-01-14 10:05:42.558954,4217.564,4121.282,4140.385,4121.41,4301.154,4080.769,3992.692,4108.077,4223.59,4102.051,4442.436,3967.692,4349.615,4492.821
1970-01-14 10:05:42.558988,4213.333,4115.0,4134.872,4120.0,4258.205,4072.308,3988.846,4102.051,4219.103,4101.154,4437.821,3965.513,4345.641,4487.051
1970-01-14 10:05:42.559014,4212.051,4113.462,4130.0,4119.615,4232.692,4071.154,3989.744,4100.385,4216.41,4112.051,4438.077,3966.41,4345.128,4485.385
1970-01-14 10:05:42.575271,4214.872,4118.205,4129.359,4121.667,4240.128,4079.487,3996.154,4106.026,4218.462,4134.359,4443.077,3972.308,4350.256,4489.231
1970-01-14 10:05:42.575319,4219.487,4125.897,4133.333,4126.41,4250.385,4089.872,4004.359,4114.872,4222.949,4156.026,4449.231,3980.256,4358.205,4494.615
1970-01-14 10:05:42.575348,4220.897,4130.513,4138.077,4132.179,4221.282,4090.513,4008.718,4119.872,4224.103,4163.205,4451.667,3983.974,4362.564,4496.154
1970-01-14 10:05:42.586078,4216.41,4128.59,4139.231,4136.026,4145.385,4077.179,4006.282,4116.795,4218.077,4149.872,4448.333,3979.231,4359.487,4491.282
1970-01-14 10:05:42.586124,4208.205,4121.795,4135.385,4135.641,4068.077,4057.564,3999.359,4108.077,4206.154,4121.41,4441.154,3967.564,4350.769,4483.462
1970-01-14 10:05:42.586152,4201.795,4115.385,4128.846,4131.026,4058.205,4046.923,3993.462,4098.974,4194.359,4090.0,4434.615,3955.0,4342.179,4478.205
1970-01-14 10:05:42.601041,4201.667,4114.231,4123.205,4124.359,4147.821,4055.385,3993.205,4094.231,4188.462,4067.821,4433.077,3948.077,4339.487,4478.974
1970-01-14 10:05:42.601088,4207.821,4119.231,4121.282,4118.718,4291.282,4077.949,3998.59,4095.0,4189.231,4062.179,4437.051,3949.103,4344.103,4483.846
1970-01-14 10:05:42.601115,4215.385,4126.795,4122.821,4116.282,4391.667,4098.077,4005.641,4098.205,4193.077,4072.436,4443.077,3956.282,4351.667,4487.564
1970-01-14 10:05:42.601140,4219.744,4132.564,4125.513,4117.564,4377.692,4101.154,4009.359,4100.0,4194.231,4090.256,4447.051,3964.103,4356.154,4486.41
1970-01-14 10:05:42.601166,4219.359,4133.974,4126.538,4121.282,4265.769,4086.667,4007.692,4098.974,4190.256,4105.256,4446.667,3967.949,4355.128,4481.41
1970-01-14 10:05:42.616048,4216.795,4132.436,4125.897,4125.769,4146.154,4068.333,4003.077,4096.795,4183.718,4113.462,4443.974,3967.564,4350.897,4477.179
1970-01-14 10:05:42.616085,4216.538,4131.282,4125.769,4129.615,4108.077,4061.667,4000.128,4096.667,4180.513,4118.846,4443.205,3967.308,4349.231,4477.692
1970-01-14 10:05:42.618468,4221.282,4133.077,4128.718,4132.821,4167.692,4071.41,4002.308,4100.769,4183.846,4127.949,4447.179,3972.051,4353.462,4483.59
1970-01-14 10:05:42.618503,4228.846,4136.923,4134.103,4135.641,4262.949,4088.205,4008.462,4107.564,4191.538,4140.513,4454.487,3982.308,4361.923,4491.41
1970-01-14 10:05:42.633116,4234.744,4140.385,4139.103,4137.821,4312.051,4098.077,4015.769,4113.718,4197.308,4150.256,4460.769,3993.077,4369.487,4496.795
1970-01-14 10:05:42.633166,4236.026,4142.051,4140.769,4138.846,4285.513,4095.128,4021.538,4116.795,4197.308,4152.179,4463.59,3999.615,4372.179,4497.821
1970-01-14 10:05:42.633194,4233.462,4142.436,4139.103,4138.205,4226.795,4085.769,4025.513,4117.179,4192.692,4148.846,4463.205,4000.769,4370.0,4495.897
1970-01-14 10:05:42.633220,4229.103,4141.538,4134.872,4135.256,4202.436,4081.154,4027.949,4116.154,4187.308,4146.154,4461.795,3998.333,4366.41,4493.077
1970-01-14 10:05:42.646198,4223.974,4138.205,4128.718,4130.385,4234.359,4084.872,4027.436,4113.59,4183.974,4143.846,4460.128,3994.103,4363.205,4489.103
1970-01-14 10:05:42.646249,4217.308,4132.051,4121.154,4125.256,4282.051,4090.641,4023.077,4109.359,4182.564,4134.744,4457.436,3989.615,4360.0,4482.949
1970-01-14 10:05:42.646278,4209.359,4124.872,4114.231,4122.564,4289.872,4089.744,4015.897,4104.744,4181.282,4112.821,4453.205,3985.769,4356.026,4475.385
1970-01-14 10:05:42.646305,4202.821,4120.0,4110.128,4123.974,4244.359,4080.897,4010.0,4102.821,4178.077,4082.308,4448.59,3984.103,4352.179,4470.128
1970-01-14 10:05:42.661168,4201.154,4120.256,4110.641,4128.846,4182.692,4071.282,4009.872,4105.513,4172.949,4057.692,4446.795,3985.385,4350.385,4470.897
1970-01-14 10:05:42.661212,4205.769,4126.154,4115.256,4135.0,4154.359,4069.872,4017.051,4111.923,4168.462,4056.41,4449.872,3990.0,4352.564,4477.436
1970-01-14 10:05:42.661239,4214.615,4135.385,4121.795,4140.385,4176.795,4079.231,4028.718,4119.744,4168.205,4086.538,4457.564,3997.564,4358.462,4485.641
1970-01-14 10:05:42.661266,4223.333,4143.974,4127.179,4143.846,4223.974,4092.821,4039.231,4126.026,4173.462,4137.692,4466.282,4006.154,4365.897,4489.615
1970-01-14 10:05:42.676648,4226.538,4147.564,4128.077,4144.487,4254.231,4100.256,4043.077,4128.333,4180.128,4183.205,4470.769,4011.538,4370.897,4486.282
1970-01-14 10:05:42.676691,4222.179,4143.974,4123.077,4141.795,4248.205,4096.795,4038.59,4125.513,4182.179,4195.769,4468.333,4010.769,4370.385,4477.308
1970-01-14 10:05:42.679200,4212.692,4134.744,4114.615,4135.513,4222.436,4086.154,4028.718,4118.974,4176.154,4167.564,4460.641,4004.103,4364.103,4467.564
1970-01-14 10:05:42.679231,4202.821,4124.103,4107.821,4127.564,4208.846,4077.179,4019.231,4113.205,4165.513,4117.308,4452.692,3996.282,4356.026,4461.154
1970-01-14 10:05:42.693952,4197.436,4116.923,4106.538,4121.154,4220.641,4076.154,4015.641,4111.538,4156.41,4077.436,4449.359,3992.179,4350.513,4459.359
1970-01-14 10:05:42.694001,4197.436,4115.641,4110.513,4119.615,4240.128,4081.795,4019.487,4114.359,4153.333,4070.256,4451.026,3992.821,4349.744,4460.128
1970-01-14 10:05:42.694028,4200.385,4118.974,4115.385,4123.205,4238.974,4086.795,4027.821,4117.821,4155.128,4091.795,4453.59,3995.385,4351.026,4460.0
1970-01-14 10:05:42.694054,4202.179,4122.308,4116.41,4127.692,4207.179,4084.872,4035.385,4117.692,4156.923,4116.538,4452.051,3995.513,4350.0,4456.154
1970-01-14 10:05:42.707300,4200.385,4121.538,4111.026,4128.205,4164.744,4077.051,4037.692,4112.179,4154.872,4120.513,4444.744,3991.41,4344.359,4448.846
1970-01-14 10:05:42.707347,4196.154,4117.051,4101.667,4123.974,4145.641,4070.385,4035.513,4104.615,4150.128,4102.051,4436.41,3985.256,4337.308,4441.795
1970-01-14 10:05:42.707371,4193.205,4113.974,4094.103,4118.974,4171.538,4073.462,4033.462,4100.769,4147.692,4080.897,4434.231,3983.205,4335.128,4439.487
1970-01-14 10:05:42.707392,4194.487,4116.923,4092.949,4118.718,4234.487,4087.949,4035.897,4103.846,4150.513,4078.59,4441.538,3989.231,4341.667,4444.231
1970-01-14 10:05:42.721259,4199.359,4125.897,4098.462,4124.872,4301.154,4106.154,4042.692,4111.41,4156.282,4099.359,4454.359,4000.769,4354.231,4452.692
1970-01-14 10:05:42.721306,4203.718,4135.385,4105.769,4133.333,4333.462,4116.923,4049.487,4117.436,4159.103,4128.974,4463.974,4009.744,4364.359,4458.59
1970-01-14 10:05:42.721334,4204.103,4138.974,4109.487,4138.462,4311.282,4113.59,4051.154,4116.41,4154.487,4147.949,4463.59,4009.872,4365.0,4456.923
1970-01-14 10:05:42.736377,4199.872,4134.872,4107.949,4138.205,4244.615,4099.103,4046.667,4108.077,4143.205,4146.795,4453.333,4001.795,4355.769,4447.821
1970-01-14 10:05:42.736422,4195.513,4127.949,4104.744,4136.538,4168.333,4084.103,4040.0,4098.333,4132.436,4131.923,4441.282,3993.59,4344.103,4437.949
1970-01-14 10:05:42.736447,4196.795,4125.897,4105.256,4139.359,4124.744,4079.359,4038.205,4095.0,4129.872,4119.487,4437.949,3993.333,4339.359,4435.385
1970-01-14 10:05:42.738817,4205.385,4131.923,4112.051,4148.077,4139.359,4088.718,4045.256,4101.795,4138.333,4121.41,4446.923,4003.462,4345.385,4443.205
1970-01-14 10:05:42.754114,4216.026,4141.667,4121.41,4157.308,4203.205,4105.641,4058.205,4113.974,4151.923,4134.103,4461.923,4018.333,4357.179,4456.667
1970-01-14 10:05:42.754164,4220.897,4147.179,4126.923,4158.974,4275.0,4118.846,4069.359,4122.051,4160.513,4141.923,4471.667,4028.59,4364.615,4466.026
1970-01-14 10:05:42.754190,4216.026,4144.231,4124.103,4151.154,4307.051,4120.128,4071.41,4119.615,4157.179,4133.205,4469.231,4028.846,4361.154,4464.872
1970-01-14 10:05:42.754216,4205.256,4135.641,4115.385,4139.744,4277.179,4110.641,4064.615,4109.103,4144.103,4111.41,4457.051,4020.769,4348.974,4454.615
1970-01-14 10:05:42.766405,4197.692,4129.359,4108.205,4134.872,4202.436,4098.333,4055.385,4099.872,4130.513,4090.769,4444.872,4012.051,4337.436,4442.692
1970-01-14 10:05:42.766452,4199.615,4130.513,4108.718,4141.026,4125.897,4090.897,4051.154,4099.359,4124.487,4081.538,4441.538,4010.385,4334.872,4437.179
1970-01-14 10:05:42.766479,4210.0,4137.821,4116.667,4153.846,4092.436,4091.154,4053.974,4107.564,4127.051,4082.821,4448.333,4016.667,4342.308,4439.744
1970-01-14 10:05:42.781346,4220.256,4145.256,4125.256,4163.205,4125.256,4097.179,4060.0,4116.923,4132.692,4086.795,4458.846,4025.128,4352.949,4446.154
1970-01-14 10:05:42.781392,4222.308,4146.538,4127.179,4161.41,4212.692,4104.744,4064.359,4119.872,4134.872,4087.051,4465.128,4029.487,4358.333,4450.0
1970-01-14 10:05:42.781417,4214.487,4140.385,4120.513,4149.615,4309.744,4109.872,4065.128,4115.641,4131.923,4083.333,4463.718,4028.205,4355.385,4448.974
1970-01-14 10:05:42.781442,4203.077,4131.154,4110.897,4136.795,4364.487,4110.385,4064.615,4109.615,4126.923,4080.769,4457.179,4025.0,4347.821,4445.256
1970-01-14 10:05:42.781467,4196.026,4125.128,4105.385,4131.795,4353.077,4105.769,4065.385,4107.949,4123.718,4085.128,4451.026,4023.462,4342.179,4442.692
1970-01-14 10:05:42.796417,4195.769,4124.103,4106.026,4136.154,4293.846,4097.821,4068.205,4111.026,4123.974,4098.077,4447.692,4024.103,4341.667,4442.308
1970-01-14 10:05:42.796467,4197.821,4125.256,4108.846,4143.333,4226.026,4089.615,4071.026,4114.615,4126.026,4114.231,4445.897,4024.359,4342.949,4441.41
1970-01-14 10:05:42.796493,4196.41,4124.359,4108.718,4145.513,4175.769,4084.231,4071.923,4114.744,4127.051,4123.462,4443.59,4022.949,4341.282,4436.923
1970-01-14 10:05:42.798986,4190.641,4121.282,4104.103,4141.667,4143.077,4084.359,4070.641,4111.795,4125.385,4118.846,4441.282,4021.282,4335.256,4430.0
1970-01-14 10:05:42.813793,4184.744,4118.59,4098.974,4136.282,4119.231,4090.128,4069.359,4109.744,4121.923,4101.923,4441.538,4022.564,4328.333,4425.513
1970-01-14 10:05:42.813840,4184.103,4119.872,4098.59,4134.744,4107.564,4100.513,4070.769,4112.308,4119.231,4080.769,4446.154,4028.974,4325.769,4428.077
1970-01-14 10:05:42.813866,4190.513,4125.256,4104.103,4137.692,4124.744,4113.333,4076.154,4118.974,4119.231,4065.385,4453.718,4039.487,4329.615,4437.436
1970-01-14 10:05:42.813891,4200.256,4132.179,4111.538,4141.667,4180.897,4126.923,4083.718,4125.641,4120.897,4062.051,4459.103,4049.359,4337.308,4447.949
1970-01-14 10:05:42.826520,4207.692,4137.436,4115.128,4143.333,4259.487,4139.231,4090.0,4127.949,4121.667,4071.538,4458.462,4053.077,4343.59,4452.692
1970-01-14 10:05:42.826569,4209.103,4139.615,4112.436,4142.692,4320.641,4147.692,4093.205,4125.0,4119.744,4087.949,4451.923,4049.231,4344.615,4449.103
1970-01-14 10:05:42.826598,4204.487,4139.359,4106.41,4142.308,4326.795,4149.487,4093.59,4120.0,4115.641,4099.872,4444.231,4041.923,4340.385,4439.872
1970-01-14 10:05:42.841455,4196.923,4137.692,4101.154,4143.846,4273.974,4143.718,4092.821,4116.667,4110.513,4096.41,4439.744,4036.538,4333.846,4430.769
1970-01-14 10:05:42.841510,4189.744,4135.0,4098.846,4146.154,4199.744,4132.821,4091.026,4116.026,4105.256,4075.897,4439.103,4035.513,4327.692,4426.026
1970-01-14 10:05:42.841536,4185.128,4131.667,4098.462,4146.41,4158.462,4122.564,4088.59,4116.538,4101.282,4050.385,4439.744,4037.692,4324.103,4426.282
1970-01-14 10:05:42.841563,4183.846,4128.077,4098.205,4144.103,4178.333,4119.103,4086.41,4116.154,4100.385,4039.359,4439.231,4041.538,4323.077,4429.487
1970-01-14 10:05:42.856420,4184.872,4125.128,4097.308,4141.026,4238.462,4124.744,4085.641,4113.974,4103.59,4052.949,4436.795,4045.128,4322.821,4431.795
1970-01-14 10:05:42.856461,4185.256,4123.333,4095.128,4139.231,4286.923,4135.0,4086.538,4110.769,4109.231,4081.667,4432.949,4046.538,4320.769,4429.231
1970-01-14 10:05:42.856487,4182.436,4122.179,4091.282,4138.718,4285.128,4142.436,4087.564,4107.308,4114.487,4103.59,4427.949,4043.846,4315.0,4420.0
1970-01-14 10:05:42.856510,4175.513,4121.282,4086.667,4137.949,4236.026,4142.949,4086.795,4104.615,4117.179,4103.205,4422.179,4037.692,4306.154,4406.41
1970-01-14 10:05:42.874424,4167.436,4120.897,4083.333,4136.41,4174.744,4138.205,4084.487,4103.333,4117.692,4084.615,4417.436,4031.154,4298.077,4394.359
1970-01-14 10:05:42.874473,4163.59,4122.179,4083.974,4136.538,4134.103,4133.462,4083.462,4105.128,4118.462,4066.282,4415.769,4029.103,4295.641,4390.769
1970-01-14 10:05:42.874499,4167.692,4126.154,4089.359,4140.769,4121.538,4132.436,4086.154,4111.667,4121.667,4063.974,4419.872,4035.0,4300.641,4398.462
1970-01-14 10:05:42.874526,4177.436,4132.949,4097.051,4148.846,4125.0,4134.231,4092.949,4121.923,4127.051,4078.333,4429.615,4048.205,4309.744,4413.077
1970-01-14 10:05:42.886511,4185.513,4139.744,4103.205,4156.026,4135.128,4135.897,4100.769,4131.795,4131.41,4095.641,4441.41,4063.077,4316.026,4425.385
1970-01-14 10:05:42.886554,4184.615,4142.436,4103.718,4156.923,4155.0,4136.154,4105.513,4136.538,4131.282,4101.41,4448.718,4072.308,4314.744,4427.179
1970-01-14 10:05:42.886582,4173.59,4138.974,4098.59,4149.872,4190.256,4136.282,4105.0,4134.487,4126.667,4091.538,4447.949,4072.436,4306.538,4417.564
1970-01-14 10:05:42.901625,4159.615,4132.821,4092.308,4140.769,4234.231,4138.077,4101.282,4129.359,4121.282,4075.0,4441.154,4066.667,4297.436,4404.487
1970-01-14 10:05:42.901671,4152.179,4130.641,4090.897,4138.846,4264.872,4141.795,4098.59,4126.667,4119.872,4063.462,4435.769,4063.077,4294.231,4398.205
1970-01-14 10:05:42.901698,4155.641,4135.256,4096.282,4148.205,4258.718,4146.154,4099.744,4130.0,4123.718,4060.513,4437.949,4067.308,4299.872,4403.846
1970-01-14 10:05:42.916503,4165.385,4143.974,4104.615,4163.974,4212.949,4149.359,4103.974,4137.051,4129.231,4058.718,4447.308,4077.436,4310.256,4417.179
1970-01-14 10:05:42.916540,4173.077,4150.641,4109.231,4175.897,4159.103,4151.923,4107.692,4142.821,4131.667,4049.744,4457.949,4086.538,4318.205,4428.718
1970-01-14 10:05:42.916566,4172.308,4151.154,4106.41,4176.538,4145.385,4156.667,4107.821,4142.436,4128.718,4036.41,4462.564,4088.333,4318.462,4430.897
1970-01-14 10:05:42.916591,4163.59,4146.026,4098.077,4166.41,4196.795,4164.615,4104.744,4135.513,4121.538,4032.436,4458.333,4082.436,4311.923,4423.205
1970-01-14 10:05:42.916617,4152.436,4140.513,4089.872,4154.103,4282.308,4173.077,4101.282,4126.026,4114.103,4049.487,4448.59,4073.59,4304.359,4411.667
1970-01-14 10:05:42.933961,4145.513,4140.0,4087.308,4150.385,4328.59,4175.513,4100.513,4120.128,4109.487,4084.231,4440.385,4067.949,4301.154,4403.846
1970-01-14 10:05:42.936585,4145.897,4146.026,4092.179,4160.256,4277.051,4167.179,4102.821,4121.282,4108.846,4117.692,4438.462,4069.615,4303.205,4403.846
1970-01-14 10:05:42.936616,4151.538,4155.897,4101.41,4179.615,4140.897,4150.0,4106.282,4128.077,4110.897,4129.615,4442.692,4077.692,4307.564,4409.872
1970-01-14 10:05:42.936640,4157.564,4164.487,4109.744,4197.692,4005.897,4134.359,4108.077,4135.513,4113.205,4114.487,4449.231,4087.436,4310.897,4417.308
1970-01-14 10:05:42.951580,4160.385,4167.564,4112.821,4205.256,3967.692,4131.538,4107.051,4139.359,4114.359,4085.256,4454.359,4093.718,4311.795,4422.436
1970-01-14 10:05:42.951628,4160.128,4166.026,4110.769,4201.154,4058.718,4144.872,4104.744,4139.487,4114.872,4063.59,4457.051,4096.282,4311.41,4424.872
1970-01-14 10:05:42.951655,4159.231,4164.487,4108.077,4192.564,4225.897,4166.154,4104.615,4140.513,4115.897,4062.692,4458.974,4098.846,4312.179,4426.795
1970-01-14 10:05:42.951694,4160.769,4167.692,4109.103,4189.103,4371.154,4182.949,4108.718,4146.282,4118.846,4079.103,4462.692,4105.256,4316.026,4430.641
1970-01-14 10:05:42.960689,4165.0,4175.897,4114.359,4195.0,4417.179,4187.308,4116.282,4156.282,4122.692,4097.051,4469.231,4115.128,4322.564,4436.026
1970-01-14 10:05:42.960733,4170.0,4184.359,4120.128,4207.051,4352.564,4181.026,4123.462,4164.872,4125.769,4101.923,4476.154,4123.974,4328.974,4440.897
1970-01-14 10:05:42.960761,4172.949,4187.436,4122.308,4217.692,4233.974,4171.795,4126.923,4166.923,4125.769,4092.308,4479.744,4127.821,4332.051,4441.667
1970-01-14 10:05:42.960787,4172.564,4184.359,4119.615,4220.769,4141.795,4167.821,4125.641,4161.538,4122.821,4079.615,4478.205,4126.154,4330.385,4438.077
1970-01-14 10:05:42.975632,4169.872,4178.846,4114.487,4215.769,4122.308,4171.538,4121.667,4153.462,4118.462,4075.769,4473.846,4121.282,4325.897,4432.949
1970-01-14 10:05:42.975675,4167.179,4175.385,4110.769,4208.077,4158.077,4178.974,4119.103,4148.718,4115.385,4082.436,4470.769,4117.051,4322.821,4430.513
1970-01-14 10:05:42.975702,4167.051,4176.667,4111.282,4204.872,4192.564,4182.821,4120.769,4150.128,4115.641,4092.051,4471.282,4116.154,4323.462,4432.821
1970-01-14 10:05:42.975729,4170.385,4181.795,4115.513,4209.744,4184.615,4179.359,4126.795,4155.128,4118.333,4095.513,4474.359,4119.231,4326.538,4438.077
1970-01-14 10:05:42.990749,4176.026,4188.59,4119.872,4220.128,4143.462,4170.897,4134.103,4158.974,4120.769,4089.744,4477.308,4123.846,4328.462,4442.821
1970-01-14 10:05:42.993201,4181.154,4193.462,4121.154,4228.974,4113.462,4163.846,4138.974,4158.077,4119.615,4077.308,4477.564,4126.923,4327.179,4443.974
1970-01-14 10:05:42.993232,4183.59,4194.231,4118.846,4230.513,4130.128,4164.615,4139.872,4153.974,4114.872,4064.487,4475.641,4127.949,4324.487,4441.282
1970-01-14 10:05:42.993255,4183.333,4191.923,4116.026,4225.897,4192.692,4174.231,4137.949,4151.795,4110.128,4058.077,4474.615,4129.487,4323.846,4437.564
1970-01-14 10:05:43.008900,4183.077,4190.256,4116.41,4220.769,4269.744,4188.718,4137.179,4155.513,4110.513,4063.59,4477.949,4134.231,4328.462,4436.923
1970-01-14 10:05:43.008948,4185.256,4191.667,4120.385,4220.256,4323.205,4201.667,4140.513,4164.103,4118.077,4080.513,4485.769,4142.179,4336.923,4440.641
1970-01-14 10:05:43.008976,4189.359,4195.769,4125.513,4224.615,4326.923,4208.077,4147.821,4172.564,4129.744,4101.538,4494.103,4149.744,4344.744,4446.538
1970-01-14 10:05:43.020837,4192.949,4199.744,4128.718,4230.641,4277.564,4206.41,4155.513,4176.154,4138.462,4116.026,4497.821,4154.231,4347.308,4450.385
1970-01-14 10:05:43.020898,4193.462,4201.41,4128.846,4235.256,4197.821,4198.077,4159.231,4174.103,4136.923,4118.846,4495.128,4154.359,4342.821,4449.359
1970-01-14 10:05:43.020933,4190.385,4200.769,4126.538,4237.179,4128.077,4187.692,4156.667,4168.462,4123.462,4114.231,4488.462,4152.051,4335.256,4444.103
1970-01-14 10:05:43.020965,4186.026,4200.128,4123.846,4237.179,4102.436,4180.128,4149.872,4163.333,4103.462,4110.385,4483.205,4150.385,4330.513,4438.333
1970-01-14 10:05:43.035677,4184.103,4201.667,4123.462,4236.795,4124.103,4178.718,4143.974,4162.692,4087.436,4111.282,4483.974,4152.821,4333.077,4436.923
1970-01-14 10:05:43.035724,4186.923,4206.026,4126.538,4238.333,4165.256,4182.821,4143.462,4167.436,4083.462,4112.308,4491.41,4159.744,4342.179,4442.051
1970-01-14 10:05:43.035754,4193.718,4211.667,4132.436,4242.436,4195.128,4189.103,4149.359,4175.385,4091.795,4104.615,4502.051,4168.718,4352.949,4450.769
1970-01-14 10:05:43.035783,4201.026,4215.769,4138.333,4247.949,4210.128,4195.513,4158.846,4182.308,4104.103,4084.359,4510.641,4175.513,4360.256,4457.821
1970-01-14 10:05:43.051176,4205.385,4215.769,4141.41,4251.026,4230.769,4203.462,4167.692,4185.256,4111.41,4059.487,4513.846,4177.949,4361.667,4459.487
1970-01-14 10:05:43.051235,4205.513,4211.795,4140.385,4249.872,4269.231,4214.487,4172.949,4184.359,4110.385,4048.462,4511.667,4176.795,4358.974,4456.538
1970-01-14 10:05:43.054015,4202.692,4206.923,4136.538,4245.897,4308.333,4225.513,4173.846,4182.179,4104.744,4066.923,4507.308,4174.231,4355.641,4452.821
1970-01-14 10:05:43.068890,4199.615,4204.872,4132.821,4242.692,4314.615,4229.615,4172.308,4180.897,4100.641,4110.256,4503.974,4171.795,4354.744,4451.667
1970-01-14 10:05:43.068940,4197.436,4205.513,4131.667,4242.436,4273.59,4222.308,4170.385,4181.795,4101.41,4149.615,4503.59,4170.385,4356.154,4453.205
1970-01-14 10:05:43.068968,4195.513,4205.513,4132.949,4244.487,4206.667,4205.769,4169.231,4184.103,4105.385,4150.641,4505.256,4170.256,4357.564,4455.385
1970-01-14 10:05:43.068995,4192.436,4202.051,4133.846,4247.051,4156.41,4188.462,4168.462,4186.667,4107.949,4104.359,4506.538,4170.897,4356.282,4455.256
1970-01-14 10:05:43.080785,4188.718,4196.41,4131.667,4248.974,4154.615,4179.103,4167.436,4188.205,4105.769,4039.872,4505.256,4171.795,4351.667,4451.154
1970-01-14 10:05:43.080828,4185.897,4192.308,4126.667,4249.487,4200.385,4181.282,4166.41,4188.077,4100.385,4003.846,4501.795,4173.205,4346.026,4444.359
1970-01-14 10:05:43.080854,4184.744,4191.923,4121.41,4247.949,4261.667,4191.538,4166.923,4186.282,4095.641,4023.718,4498.333,4175.769,4342.308,4437.821
1970-01-14 10:05:43.080878,4184.744,4193.718,4117.949,4243.846,4296.667,4201.923,4169.231,4183.718,4095.0,4084.615,4496.538,4178.718,4342.051,4433.846
1970-01-14 10:05:43.095781,4184.615,4194.615,4116.667,4238.59,4282.179,4206.154,4173.205,4181.667,4098.59,4143.974,4496.667,4180.256,4344.615,4432.692
1970-01-14 10:05:43.095826,4184.487,4192.692,4116.795,4234.744,4229.744,4203.462,4178.205,4181.538,4103.846,4165.385,4498.846,4179.231,4348.205,4433.718
1970-01-14 10:05:43.095851,4185.385,4189.615,4118.077,4235.385,4174.487,4198.59,4184.231,4183.974,4108.462,4144.359,4503.077,4177.949,4352.051,4436.154
1970-01-14 10:05:43.095876,4188.205,4188.333,4120.513,4241.41,4145.641,4196.795,4190.385,4188.974,4111.41,4105.897,4508.974,4179.359,4355.385,4439.487
1970-01-14 10:05:43.110778,4192.821,4190.769,4123.974,4250.769,4145.128,4199.103,4195.385,4195.128,4113.333,4080.128,4514.487,4184.615,4357.821,4442.821
1970-01-14 10:05:43.110816,4197.564,4196.538,4128.077,4260.128,4154.487,4202.308,4197.821,4201.026,4115.385,4080.256,4517.436,4192.051,4358.974,4445.641
1970-01-14 10:05:43.110842,4201.154,4202.821,4131.923,4266.154,4159.231,4202.692,4197.564,4204.744,4117.692,4098.718,4517.051,4198.846,4359.231,4447.436
1970-01-14 10:05:43.113169,4202.821,4206.923,4134.487,4266.538,4163.718,4200.128,4195.0,4204.872,4118.974,4118.205,4514.231,4203.333,4358.59,4447.949
1970-01-14 10:05:43.128871,4202.821,4207.564,4134.615,4261.282,4183.462,4197.821,4191.282,4200.897,4118.077,4125.641,4510.897,4204.103,4357.436,4446.795
1970-01-14 10:05:43.128920,4201.795,4205.0,4131.538,4252.692,4222.692,4198.205,4187.051,4194.359,4115.0,4118.205,4508.974,4201.538,4356.41,4444.103
1970-01-14 10:05:43.128946,4200.513,4201.026,4126.282,4244.872,4264.103,4200.897,4183.718,4188.59,4111.667,4101.282,4508.974,4197.692,4355.897,4440.385
1970-01-14 10:05:43.128972,4199.231,4197.949,4121.41,4242.051,4281.538,4202.308,4182.692,4186.026,4110.641,4082.179,4510.0,4195.128,4356.154,4436.538
1970-01-14 10:05:43.141104,4198.205,4198.077,4119.103,4245.641,4260.897,4199.744,4184.615,4186.41,4112.949,4065.641,4510.897,4195.128,4356.41,4434.359
1970-01-14 10:05:43.141155,4197.564,4201.667,4119.872,4253.846,4208.462,4193.846,4189.103,4188.205,4117.051,4055.128,4510.256,4197.179,4356.154,4434.487
1970-01-14 10:05:43.141182,4197.564,4207.564,4122.821,4263.205,4142.436,4187.692,4194.615,4189.615,4120.641,4055.641,4508.077,4200.0,4355.256,4436.282
1970-01-14 10:05:43.141207,4198.59,4212.949,4127.179,4270.385,4084.103,4185.128,4199.615,4190.513,4122.564,4069.615,4505.641,4203.462,4354.744,4437.949
1970-01-14 10:05:43.155886,4200.897,4214.615,4132.051,4273.333,4056.795,4188.205,4202.949,4191.282,4123.077,4091.667,4504.872,4207.308,4355.513,4437.564
1970-01-14 10:05:43.155933,4203.718,4211.667,4135.128,4271.667,4082.949,4197.051,4204.487,4192.692,4122.949,4108.59,4506.667,4210.641,4357.692,4434.744
1970-01-14 10:05:43.155961,4205.256,4206.41,4134.615,4266.667,4165.769,4209.615,4204.359,4194.231,4123.205,4110.0,4510.0,4211.923,4359.615,4431.026
1970-01-14 10:05:43.155989,4203.205,4203.462,4130.641,4261.154,4271.282,4221.41,4203.077,4194.872,4124.103,4097.179,4511.41,4209.872,4359.487,4428.077
1970-01-14 10:05:43.170846,4197.308,4205.128,4125.385,4258.077,4339.744,4226.41,4201.154,4192.692,4125.256,4081.923,4509.231,4204.872,4356.282,4426.154
1970-01-14 10:05:43.170887,4189.231,4209.744,4121.154,4259.103,4325.513,4221.538,4198.974,4187.436,4124.872,4076.667,4504.231,4198.333,4351.026,4424.231
1970-01-14 10:05:43.170916,4182.821,4214.231,4120.0,4263.974,4234.487,4209.103,4197.308,4181.538,4123.077,4085.513,4500.385,4192.949,4346.923,4421.795
1970-01-14 10:05:43.189333,4182.179,4216.667,4122.436,4270.897,4125.769,4196.923,4197.308,4179.615,4121.795,4103.846,4500.769,4192.308,4347.949,4420.128
1970-01-14 10:05:43.189389,4188.718,4218.333,4128.333,4277.308,4075.385,4193.462,4200.641,4184.103,4123.59,4123.077,4506.282,4198.718,4355.256,4422.051
1970-01-14 10:05:43.189420,4200.256,4221.667,4135.641,4280.897,4123.59,4202.692,4207.564,4192.821,4128.462,4135.385,4515.128,4209.872,4365.385,4428.974
1970-01-14 10:05:43.189449,4211.667,4227.436,4141.41,4281.282,4243.974,4221.41,4215.641,4200.769,4134.103,4136.41,4523.846,4220.641,4373.462,4439.103
1970-01-14 10:05:43.201018,4218.333,4234.231,4143.462,4279.744,4358.077,4239.872,4221.154,4204.231,4137.051,4126.026,4528.974,4226.026,4375.385,4447.692
1970-01-14 10:05:43.201068,4218.974,4238.718,4142.179,4278.59,4390.256,4248.077,4221.923,4202.308,4135.641,4108.077,4528.333,4225.513,4371.154,4450.0
1970-01-14 10:05:43.201096,4215.769,4238.333,4139.359,4278.974,4324.487,4242.051,4218.462,4196.923,4130.897,4089.231,4522.949,4221.923,4363.718,4444.872
1970-01-14 10:05:43.201123,4212.308,4233.846,4136.923,4280.385,4215.256,4226.795,4213.974,4191.154,4125.385,4076.923,4516.282,4218.846,4357.692,4435.513
1970-01-14 10:05:43.216039,4211.41,4228.462,4135.385,4281.154,4142.564,4212.821,4212.308,4188.333,4122.051,4075.769,4512.308,4218.59,4355.641,4427.051
1970-01-14 10:05:43.216086,4213.59,4225.769,4135.0,4280.256,4147.179,4208.974,4215.641,4190.256,4122.949,4086.154,4512.564,4221.667,4357.308,4423.462
1970-01-14 10:05:43.216114,4216.538,4226.667,4135.897,4279.615,4201.538,4216.026,4222.692,4196.41,4127.051,4103.462,4515.897,4226.41,4360.385,4426.282
1970-01-14 10:05:43.231063,4218.205,4229.744,4138.077,4282.051,4242.179,4227.949,4229.872,4204.487,4132.051,4118.59,4519.487,4230.897,4362.821,4433.718
1970-01-14 10:05:43.231108,4218.846,4233.333,4140.897,4289.103,4231.538,4237.308,4234.487,4210.897,4135.256,4122.051,4522.436,4233.333,4364.487,4442.051
1970-01-14 10:05:43.231135,4219.487,4236.282,4143.205,4297.821,4188.462,4240.385,4236.026,4213.59,4135.128,4110.256,4524.872,4234.359,4366.282,4447.051
1970-01-14 10:05:43.231160,4221.026,4237.821,4144.487,4302.949,4161.282,4237.949,4235.513,4212.821,4132.179,4089.744,4527.564,4235.128,4369.359,4447.051
1970-01-14 10:05:43.231186,4222.949,4237.949,4145.0,4301.923,4176.667,4232.821,4234.744,4210.0,4128.333,4072.821,4530.641,4237.051,4373.333,4443.846
1970-01-14 10:05:43.249198,4225.256,4237.949,4145.513,4297.564,4217.692,4227.179,4234.744,4208.077,4126.41,4070.256,4533.718,4240.128,4377.436,4441.923
1970-01-14 10:05:43.249253,4228.462,4240.128,4147.949,4295.897,4248.846,4222.564,4235.769,4209.231,4128.974,4083.974,4536.923,4245.0,4380.641,4444.487
1970-01-14 10:05:43.249282,4233.205,4246.026,4153.205,4300.513,4252.821,4219.487,4237.821,4214.359,4136.154,4106.667,4541.026,4252.179,4383.205,4451.41
1970-01-14 10:05:43.249312,4238.59,4253.846,4159.872,4308.974,4240.256,4218.718,4239.744,4221.282,4145.0,4126.667,4545.385,4260.385,4385.128,4458.718
1970-01-14 10:05:43.261062,4242.308,4259.359,4163.718,4314.872,4231.923,4220.0,4239.872,4226.026,4150.641,4135.769,4548.462,4265.769,4385.769,4462.051
1970-01-14 10:05:43.261110,4242.051,4258.718,4161.41,4313.333,4238.205,4222.179,4237.564,4225.513,4149.359,4133.846,4548.205,4265.128,4383.846,4459.103
1970-01-14 10:05:43.261138,4237.949,4252.564,4153.59,4304.872,4253.974,4224.359,4233.846,4220.128,4142.308,4126.026,4544.615,4259.359,4379.615,4451.41
1970-01-14 10:05:43.261166,4232.436,4245.256,4145.128,4294.744,4266.538,4225.769,4230.641,4214.231,4134.744,4117.308,4540.256,4253.333,4375.513,4443.59
1970-01-14 10:05:43.276121,4228.59,4241.282,4140.641,4288.462,4266.538,4226.795,4229.615,4212.179,4131.538,4107.821,4537.564,4250.769,4373.718,4439.744
1970-01-14 10:05:43.276165,4227.821,4241.667,4140.897,4287.821,4251.154,4228.077,4231.026,4214.231,4133.59,4095.256,4537.564,4251.538,4373.846,4440.769
1970-01-14 10:05:43.276192,4229.359,4244.487,4143.462,4290.897,4221.667,4230.128,4233.462,4217.308,4137.821,4081.282,4538.846,4253.462,4373.59,4443.718
1970-01-14 10:05:43.291172,4231.282,4247.051,4145.641,4295.0,4182.051,4231.923,4235.897,4218.59,4140.256,4072.692,4539.744,4254.359,4371.538,4444.872
1970-01-14 10:05:43.291223,4231.795,4248.077,4146.795,4298.462,4141.923,4231.923,4238.333,4217.949,4139.487,4076.538,4538.974,4253.846,4368.077,4443.077
1970-01-14 10:05:43.291250,4230.769,4247.821,4147.692,4301.154,4119.615,4230.256,4242.051,4217.308,4136.538,4093.077,4537.051,4253.205,4365.0,4440.385
1970-01-14 10:05:43.291277,4229.615,4247.564,4150.256,4303.718,4136.41,4228.718,4247.179,4218.718,4135.0,4114.103,4536.154,4254.615,4364.487,4440.256
1970-01-14 10:05:43.306584,4230.385,4249.872,4155.128,4306.538,4199.872,4230.256,4252.436,4222.692,4137.436,4128.333,4538.462,4259.615,4367.692,4444.231
1970-01-14 10:05:43.308900,4234.615,4256.154,4160.897,4310.0,4287.051,4236.154,4256.282,4228.205,4143.462,4130.641,4545.0,4267.051,4374.359,4451.026
1970-01-14 10:05:43.308931,4242.051,4265.385,4165.513,4314.744,4352.179,4244.487,4258.077,4233.205,4149.744,4125.256,4553.846,4274.231,4382.564,4458.333
1970-01-14 10:05:43.308954,4250.128,4274.103,4167.692,4321.154,4360.897,4252.051,4258.205,4235.513,4152.949,4120.897,4561.795,4278.59,4389.231,4463.846
1970-01-14 10:05:43.324291,4255.385,4279.231,4167.564,4327.436,4321.538,4256.667,4258.333,4234.615,4151.538,4122.308,4565.641,4279.615,4391.923,4466.41
1970-01-14 10:05:43.324342,4255.256,4279.103,4165.513,4330.769,4274.872,4256.667,4258.718,4231.026,4146.026,4126.41,4564.231,4277.692,4389.744,4465.0
1970-01-14 10:05:43.324370,4249.615,4274.103,4161.667,4329.615,4251.154,4251.154,4257.949,4226.026,4138.846,4125.769,4558.205,4272.564,4383.59,4458.974
1970-01-14 10:05:43.324397,4240.513,4266.795,4157.051,4325.256,4240.513,4240.769,4254.359,4220.641,4133.462,4115.128,4550.256,4265.256,4375.513,4450.128
1970-01-14 10:05:43.336237,4232.436,4261.154,4153.846,4321.667,4211.538,4228.59,4248.462,4216.41,4133.205,4096.026,4544.487,4259.744,4368.59,4442.692
1970-01-14 10:05:43.336283,4230.385,4261.026,4155.0,4323.333,4152.179,4219.359,4243.846,4215.769,4138.974,4076.795,4544.872,4260.256,4365.897,4441.154
1970-01-14 10:05:43.336310,4236.282,4267.564,4161.667,4330.513,4089.615,4216.667,4244.615,4220.0,4148.846,4067.308,4552.821,4268.462,4369.231,4447.179
1970-01-14 10:05:43.336335,4246.154,4276.795,4171.154,4338.59,4071.026,4220.897,4251.538,4227.692,4158.974,4071.923,4564.615,4280.641,4377.051,4457.821
1970-01-14 10:05:43.351164,4252.821,4281.923,4178.846,4341.026,4123.846,4228.718,4260.641,4235.0,4164.872,4087.051,4573.718,4290.256,4385.0,4466.538
1970-01-14 10:05:43.351211,4251.41,4279.103,4180.385,4335.0,4228.59,4236.667,4266.026,4238.205,4164.872,4106.923,4575.0,4292.564,4389.231,4467.564
1970-01-14 10:05:43.366401,4243.205,4270.769,4175.641,4324.359,4325.128,4241.538,4265.385,4236.026,4161.154,4125.897,4568.077,4287.564,4388.462,4460.128
1970-01-14 10:05:43.366449,4234.359,4263.718,4168.333,4316.923,4353.462,4241.026,4260.641,4231.667,4158.205,4138.59,4557.949,4279.487,4384.359,4449.744
1970-01-14 10:05:43.366476,4231.026,4263.077,4163.59,4318.077,4298.462,4235.128,4256.923,4229.359,4159.103,4138.077,4551.026,4273.974,4380.128,4443.462
1970-01-14 10:05:43.368829,4234.615,4268.59,4163.974,4326.538,4204.487,4227.308,4257.564,4231.026,4162.564,4121.538,4550.128,4273.974,4377.692,4445.128
1970-01-14 10:05:43.368860,4242.051,4275.897,4168.333,4335.0,4144.615,4223.846,4261.667,4235.128,4165.128,4096.667,4553.205,4278.462,4377.179,4452.179
1970-01-14 10:05:43.383369,4248.333,4281.026,4172.949,4338.077,4164.872,4228.077,4265.256,4238.59,4164.872,4079.103,4556.41,4283.846,4377.821,4458.333
1970-01-14 10:05:43.383417,4250.513,4282.692,4175.256,4335.128,4248.462,4238.077,4266.154,4239.231,4163.59,4080.513,4557.949,4287.051,4379.103,4458.846
1970-01-14 10:05:43.383444,4248.462,4280.769,4175.385,4330.769,4330.0,4246.795,4264.872,4237.821,4163.846,4098.205,4557.949,4287.692,4380.513,4453.974
1970-01-14 10:05:43.383471,4245.256,4276.41,4174.615,4329.487,4349.615,4247.949,4263.718,4235.513,4165.641,4117.051,4558.077,4287.179,4381.154,4447.949
1970-01-14 10:05:43.396350,4243.462,4271.667,4174.744,4333.077,4302.949,4241.667,4265.256,4233.462,4166.41,4123.462,4559.359,4287.308,4380.385,4445.641
1970-01-14 10:05:43.396397,4244.872,4269.744,4176.795,4338.846,4240.769,4235.0,4270.513,4232.564,4164.487,4116.538,4562.692,4290.0,4379.231,4448.846
1970-01-14 10:05:43.396425,4249.231,4272.308,4181.538,4342.949,4218.077,4236.026,4277.949,4234.103,4161.41,4107.949,4568.333,4297.051,4379.615,4456.026
1970-01-14 10:05:43.396452,4255.769,4279.231,4188.59,4344.103,4242.051,4246.667,4284.744,4238.718,4160.513,4109.744,4575.385,4308.077,4382.179,4463.333
1970-01-14 10:05:43.411287,4262.179,4287.436,4196.41,4344.103,4271.026,4260.641,4287.949,4244.615,4163.462,4123.333,4581.538,4319.231,4385.385,4467.692
1970-01-14 10:05:43.411331,4266.41,4292.949,4202.051,4345.641,4260.0,4268.205,4286.538,4247.949,4168.077,4138.077,4583.846,4325.513,4385.641,4467.051
1970-01-14 10:05:43.411357,4267.179,4292.051,4203.333,4349.487,4200.256,4263.718,4281.667,4246.538,4169.872,4140.128,4580.769,4324.231,4381.154,4462.051
1970-01-14 10:05:43.411383,4264.744,4285.256,4200.769,4353.718,4123.974,4249.872,4275.385,4241.41,4166.667,4123.59,4574.487,4318.077,4373.205,4455.513
1970-01-14 10:05:43.429696,4261.154,4276.923,4196.538,4355.897,4078.718,4235.769,4270.385,4236.667,4160.128,4096.667,4569.872,4312.949,4366.667,4452.051
1970-01-14 10:05:43.429743,4259.103,4273.077,4193.718,4354.744,4097.051,4230.256,4268.846,4236.538,4154.615,4076.538,4571.41,4313.462,4366.026,4453.846
1970-01-14 10:05:43.432224,4259.872,4275.641,4193.205,4350.256,4176.667,4236.026,4271.026,4241.795,4153.974,4076.667,4578.974,4320.256,4371.795,4458.974
1970-01-14 10:05:43.432256,4262.051,4280.385,4193.974,4343.59,4278.077,4248.462,4274.487,4249.103,4157.949,4095.385,4587.179,4329.103,4379.615,4463.205
1970-01-14 10:05:43.447204,4262.692,4281.41,4194.103,4337.179,4345.769,4258.846,4276.795,4253.333,4162.436,4116.41,4589.615,4333.974,4383.718,4463.333
1970-01-14 10:05:43.447254,4260.641,4275.641,4192.051,4333.205,4342.949,4260.897,4276.154,4251.667,4162.436,4123.205,4584.872,4331.538,4381.026,4459.359
1970-01-14 10:05:43.447282,4257.308,4266.923,4188.59,4333.846,4275.256,4254.103,4273.205,4245.385,4156.41,4112.692,4576.795,4323.718,4374.103,4454.359
1970-01-14 10:05:43.447309,4256.026,4261.923,4186.282,4339.231,4183.974,4243.59,4270.385,4238.59,4147.949,4097.564,4571.923,4317.051,4368.333,4452.308
1970-01-14 10:05:43.456477,4258.333,4264.872,4186.923,4347.308,4118.59,4235.513,4269.872,4235.641,4142.564,4093.205,4573.718,4316.795,4368.205,4454.744
1970-01-14 10:05:43.456526,4262.308,4273.333,4190.641,4353.718,4109.487,4234.615,4272.692,4237.564,4143.462,4103.205,4581.026,4323.462,4374.103,4459.744
1970-01-14 10:05:43.456554,4264.615,4281.282,4195.385,4354.744,4159.615,4242.821,4277.564,4242.692,4148.974,4116.923,4589.487,4332.692,4382.308,4463.205
1970-01-14 10:05:43.456580,4264.615,4284.231,4199.744,4349.744,4248.077,4258.718,4283.205,4248.59,4155.641,4120.256,4595.769,4340.513,4389.103,4464.231
1970-01-14 10:05:43.471325,4264.487,4282.821,4203.205,4342.308,4340.513,4277.564,4288.333,4253.718,4161.026,4109.487,4600.385,4345.385,4393.974,4465.256
1970-01-14 10:05:43.471365,4267.051,4281.282,4206.795,4337.821,4400.769,4292.308,4292.436,4258.077,4164.359,4095.641,4604.615,4347.436,4398.333,4470.0
1970-01-14 10:05:43.471391,4272.051,4282.564,4210.256,4339.359,4405.641,4296.026,4295.513,4261.923,4166.154,4095.256,4608.205,4347.692,4402.949,4478.462
1970-01-14 10:05:43.471417,4276.923,4287.308,4213.077,4346.026,4355.256,4287.179,4297.179,4265.641,4167.692,4116.282,4609.231,4347.051,4406.41,4487.051
1970-01-14 10:05:43.486386,4278.974,4292.692,4214.615,4353.718,4272.692,4270.897,4297.179,4268.077,4169.615,4149.487,4606.538,4346.667,4406.923,4490.513
1970-01-14 10:05:43.486421,4277.564,4295.641,4214.359,4357.692,4191.282,4255.513,4295.385,4267.308,4171.795,4174.231,4600.769,4346.667,4403.462,4486.154
1970-01-14 10:05:43.488902,4272.949,4293.205,4211.41,4354.744,4137.436,4247.179,4291.41,4261.667,4171.923,4172.564,4593.718,4345.128,4397.051,4474.487
1970-01-14 10:05:43.503382,4266.154,4285.0,4205.128,4345.0,4122.949,4247.051,4286.026,4251.667,4167.949,4142.821,4586.795,4340.897,4388.846,4459.872
1970-01-14 10:05:43.503431,4258.205,4273.718,4196.667,4332.179,4148.462,4252.821,4281.026,4240.769,4160.513,4101.795,4581.282,4335.513,4380.897,4447.821
1970-01-14 10:05:43.503458,4251.41,4264.359,4189.487,4321.795,4206.41,4261.282,4279.615,4234.615,4154.103,4075.256,4579.231,4332.949,4376.282,4442.692
1970-01-14 10:05:43.503485,4248.462,4261.538,4187.308,4318.59,4276.154,4269.615,4283.718,4237.051,4153.846,4079.359,4582.051,4336.154,4377.692,4445.769
1970-01-14 10:05:43.516533,4250.897,4266.667,4191.538,4323.846,4326.154,4275.0,4292.051,4246.667,4161.667,4108.333,4589.231,4345.0,4384.615,4455.0
1970-01-14 10:05:43.516579,4257.179,4276.282,4200.385,4333.974,4331.795,4275.128,4300.769,4257.436,4173.974,4139.744,4598.333,4355.256,4393.077,4464.744
1970-01-14 10:05:43.516606,4263.205,4283.718,4208.462,4342.821,4296.41,4269.872,4305.641,4262.564,4184.103,4152.949,4604.744,4361.026,4397.564,4468.846
1970-01-14 10:05:43.516632,4264.231,4283.59,4210.897,4344.231,4247.692,4262.308,4304.359,4258.974,4187.308,4144.231,4604.103,4358.462,4393.974,4463.974
1970-01-14 10:05:43.531486,4258.718,4275.385,4205.769,4337.436,4213.077,4256.41,4298.462,4250.128,4183.974,4126.41,4595.769,4348.846,4383.333,4452.564
1970-01-14 10:05:43.531531,4249.744,4264.615,4196.538,4326.538,4203.333,4254.487,4293.205,4242.564,4178.974,4115.385,4583.974,4338.718,4371.282,4441.41
1970-01-14 10:05:43.531558,4243.077,4258.462,4189.615,4318.205,4216.41,4256.667,4293.077,4241.282,4177.179,4116.795,4576.282,4335.897,4364.231,4437.051
1970-01-14 10:05:43.546492,4243.974,4261.282,4190.256,4317.179,4244.103,4261.282,4298.718,4246.41,4180.385,4124.872,4578.846,4342.949,4365.897,4442.179
1970-01-14 10:05:43.546530,4253.205,4272.051,4199.103,4324.872,4268.974,4266.154,4307.179,4255.0,4186.282,4130.385,4592.308,4356.41,4375.385,4455.513
1970-01-14 10:05:43.546556,4266.923,4285.641,4212.308,4338.846,4264.487,4268.846,4313.846,4263.718,4192.308,4129.872,4611.538,4370.513,4388.333,4471.795
1970-01-14 10:05:43.546582,4278.974,4296.795,4224.615,4354.872,4214.615,4268.077,4316.282,4270.0,4197.051,4127.949,4628.205,4380.769,4400.0,4485.128
1970-01-14 10:05:43.564710,4284.615,4301.923,4231.667,4367.436,4139.744,4265.256,4315.0,4273.59,4200.513,4130.256,4636.026,4385.513,4406.923,4491.282
1970-01-14 10:05:43.564760,4283.59,4301.41,4231.923,4371.795,4091.795,4263.846,4313.077,4274.744,4203.333,4137.308,4634.231,4386.026,4408.974,4490.385
1970-01-14 10:05:43.564787,4279.231,4298.205,4227.564,4366.795,4113.333,4265.769,4313.846,4273.718,4205.385,4144.103,4626.923,4384.103,4408.077,4485.513
1970-01-14 10:05:43.564813,4274.872,4295.256,4222.821,4355.769,4195.769,4268.462,4318.077,4271.667,4206.538,4145.128,4619.744,4382.051,4406.282,4480.256
1970-01-14 10:05:43.564839,4272.949,4294.615,4221.154,4345.513,4285.128,4268.462,4323.333,4270.0,4205.897,4140.769,4617.051,4381.154,4404.872,4477.564
1970-01-14 10:05:43.576605,4274.103,4296.154,4223.59,4342.051,4328.205,4265.769,4326.667,4270.641,4203.846,4137.949,4619.744,4381.41,4404.744,4478.077
1970-01-14 10:05:43.576655,4276.923,4298.205,4228.205,4346.282,4315.641,4264.615,4326.667,4273.462,4200.769,4143.462,4625.256,4381.795,4406.026,4480.513
1970-01-14 10:05:43.576683,4277.949,4297.308,4231.923,4352.692,4278.718,4267.564,4323.59,4275.256,4197.436,4156.282,4628.205,4381.026,4407.051,4481.667
1970-01-14 10:05:43.590602,4273.333,4291.026,4231.795,4353.718,4250.513,4271.154,4318.077,4272.051,4193.462,4165.513,4624.231,4377.436,4404.487,4477.949
1970-01-14 10:05:43.590642,4262.949,4281.026,4226.667,4346.667,4235.256,4268.333,4310.385,4262.179,4188.205,4157.949,4613.205,4370.513,4396.923,4467.949
1970-01-14 10:05:43.590667,4251.41,4273.205,4219.359,4336.667,4212.564,4255.128,4301.667,4249.744,4182.949,4130.897,4600.897,4361.923,4387.821,4456.282
1970-01-14 10:05:43.590691,4245.769,4273.205,4215.256,4332.308,4172.051,4236.41,4295.769,4241.795,4180.641,4098.846,4595.513,4356.923,4383.333,4450.513
1970-01-14 10:05:43.605509,4250.256,4281.282,4217.949,4337.821,4136.154,4222.179,4295.513,4243.462,4183.462,4083.077,4600.641,4359.872,4387.949,4455.897
1970-01-14 10:05:43.605546,4261.667,4291.41,4225.769,4348.333,4147.821,4220.385,4300.769,4253.333,4190.128,4095.256,4613.077,4369.872,4399.744,4470.385
1970-01-14 10:05:43.605573,4273.077,4296.282,4233.205,4355.0,4228.718,4230.769,4307.949,4264.359,4196.282,4127.692,4625.128,4380.641,4411.923,4485.513
1970-01-14 10:05:43.605598,4278.974,4292.949,4236.923,4352.821,4343.974,4245.513,4312.821,4270.385,4198.333,4159.487,4630.513,4386.282,4418.462,4493.462
1970-01-14 10:05:43.622506,4279.231,4286.154,4237.949,4344.872,4415.0,4254.615,4313.462,4270.128,4196.282,4171.41,4628.333,4385.641,4417.436,4491.667
1970-01-14 10:05:43.622555,4277.692,4282.821,4239.487,4339.231,4383.59,4252.692,4310.769,4267.308,4193.077,4158.205,4622.564,4382.436,4412.308,4484.487
1970-01-14 10:05:43.622582,4277.692,4286.026,4242.949,4340.769,4272.436,4243.974,4307.949,4266.026,4191.795,4131.026,4618.077,4381.154,4408.462,4477.692
1970-01-14 10:05:43.622609,4279.487,4291.923,4246.538,4347.308,4172.821,4238.59,4308.077,4267.308,4193.333,4108.718,4617.308,4383.718,4408.462,4474.487
1970-01-14 10:05:43.635673,4280.385,4293.59,4247.179,4352.308,4162.436,4243.59,4311.795,4269.872,4196.667,4105.0,4619.359,4388.974,4410.641,4474.744
1970-01-14 10:05:43.635718,4277.308,4287.308,4244.103,4351.667,4233.205,4255.256,4316.795,4271.154,4199.231,4120.513,4621.41,4393.718,4411.41,4476.154
1970-01-14 10:05:43.635745,4271.026,4276.154,4239.744,4346.923,4301.41,4261.41,4319.359,4269.359,4199.231,4144.359,4620.897,4394.744,4409.231,4476.923
1970-01-14 10:05:43.635771,4264.744,4267.564,4238.077,4343.077,4290.897,4254.231,4318.333,4265.0,4196.667,4162.949,4617.051,4391.282,4405.256,4476.154
1970-01-14 10:05:43.650748,4262.949,4265.897,4240.897,4342.821,4204.744,4238.077,4315.641,4261.026,4193.205,4166.795,4612.308,4386.41,4402.308,4474.359
1970-01-14 10:05:43.650797,4266.538,4270.256,4246.154,4344.615,4120.385,4225.897,4314.359,4259.744,4191.026,4155.385,4610.128,4384.231,4402.051,4472.564
1970-01-14 10:05:43.650824,4272.949,4275.769,4249.359,4344.487,4117.179,4228.462,4315.641,4261.923,4191.538,4136.154,4612.564,4387.179,4404.359,4471.923
1970-01-14 10:05:43.665685,4277.949,4279.103,4247.436,4340.385,4207.692,4245.256,4317.949,4266.282,4195.513,4121.154,4619.231,4394.615,4408.462,4473.077
1970-01-14 10:05:43.665729,4280.128,4280.0,4241.667,4334.744,4331.282,4266.667,4320.128,4271.41,4201.795,4120.897,4628.205,4404.231,4413.718,4477.051
1970-01-14 10:05:43.665755,4281.026,4281.538,4237.564,4332.949,4405.256,4281.026,4322.051,4276.538,4208.846,4139.359,4637.051,4413.718,4419.231,4483.974
1970-01-14 10:05:43.665782,4282.179,4285.256,4239.872,4337.692,4386.41,4281.41,4323.718,4280.641,4214.615,4169.872,4643.205,4420.513,4423.718,4491.667
1970-01-14 10:05:43.681267,4283.077,4289.103,4247.949,4346.795,4298.59,4269.615,4324.487,4281.923,4217.179,4196.538,4644.487,4422.436,4425.769,4495.513
1970-01-14 10:05:43.683629,4281.795,4289.359,4255.897,4353.59,4211.282,4254.103,4322.821,4279.103,4215.641,4202.692,4640.0,4419.103,4423.974,4491.538
1970-01-14 10:05:43.683659,4277.564,4284.231,4258.077,4352.308,4185.256,4244.487,4318.333,4272.564,4210.897,4182.179,4631.41,4412.436,4418.333,4480.256
1970-01-14 10:05:43.683682,4271.154,4276.667,4253.333,4342.821,4224.359,4244.744,4312.436,4264.744,4204.744,4146.538,4622.308,4405.513,4410.513,4467.436
1970-01-14 10:05:43.699535,4265.641,4271.41,4245.641,4331.026,4273.846,4250.0,4307.692,4259.103,4199.231,4117.179,4616.154,4400.256,4403.205,4459.872
1970-01-14 10:05:43.699585,4262.949,4271.795,4240.513,4324.487,4269.872,4251.795,4305.513,4257.051,4195.385,4108.846,4614.103,4397.821,4398.718,4460.641
1970-01-14 10:05:43.699612,4263.333,4276.923,4241.282,4327.179,4198.333,4246.538,4306.154,4257.692,4193.333,4119.744,4615.128,4398.333,4397.949,4467.692
1970-01-14 10:05:43.699639,4265.641,4283.718,4247.051,4336.667,4109.359,4239.615,4309.487,4259.487,4193.462,4134.744,4617.821,4401.41,4400.897,4475.641
1970-01-14 10:05:43.710808,4268.205,4289.103,4254.231,4345.897,4072.051,4240.0,4314.872,4261.795,4195.513,4138.205,4621.538,4405.513,4406.282,4480.128
1970-01-14 10:05:43.710857,4269.487,4291.41,4258.59,4348.718,4115.769,4250.513,4319.744,4264.872,4198.846,4126.282,4625.769,4408.462,4412.051,4479.872
1970-01-14 10:05:43.710883,4268.59,4291.026,4258.205,4343.718,4213.077,4265.0,4321.923,4268.462,4202.692,4109.231,4629.103,4408.846,4415.513,4476.923
1970-01-14 10:05:43.710908,4266.154,4289.744,4254.359,4334.615,4310.128,4274.103,4321.154,4271.538,4206.026,4103.205,4630.769,4407.692,4415.128,4474.103
1970-01-14 10:05:43.725798,4263.846,4289.872,4250.897,4327.436,4365.897,4274.103,4320.0,4273.718,4208.205,4118.59,4630.769,4406.923,4412.179,4474.103
1970-01-14 10:05:43.725844,4263.205,4292.308,4251.667,4326.923,4369.359,4269.359,4322.179,4275.897,4210.256,4151.795,4631.41,4408.333,4410.256,4478.333
1970-01-14 10:05:43.725870,4264.744,4297.179,4258.205,4334.103,4331.923,4266.41,4329.487,4280.256,4213.974,4186.154,4635.256,4413.077,4412.692,4485.769
1970-01-14 10:05:43.725897,4268.077,4304.103,4268.462,4345.897,4272.821,4268.718,4340.0,4286.795,4219.744,4203.077,4642.436,4421.026,4420.385,4493.59
1970-01-14 10:05:43.740839,4271.154,4310.769,4277.051,4356.538,4211.923,4273.333,4348.846,4293.333,4224.744,4195.641,4649.744,4429.103,4429.615,4498.462
1970-01-14 10:05:43.743308,4271.667,4314.615,4278.846,4360.641,4171.923,4275.385,4351.282,4295.769,4225.513,4172.821,4653.077,4432.949,4435.128,4498.462
1970-01-14 10:05:43.743338,4267.949,4313.846,4273.077,4356.282,4174.231,4273.205,4346.154,4292.564,4220.513,4151.795,4650.641,4430.641,4433.846,4495.0
1970-01-14 10:05:43.757850,4260.513,4309.359,4264.744,4346.667,4220.385,4269.872,4336.923,4285.897,4212.692,4145.769,4644.872,4424.487,4427.564,4491.282
1970-01-14 10:05:43.757898,4252.308,4304.231,4259.359,4337.564,4276.282,4268.846,4328.718,4279.103,4206.154,4155.0,4639.744,4418.59,4420.897,4489.359
1970-01-14 10:05:43.757925,4246.538,4300.769,4258.974,4334.487,4284.872,4268.974,4324.615,4274.487,4203.462,4169.359,4637.179,4415.128,4416.667,4488.846
1970-01-14 10:05:43.757952,4244.359,4299.872,4261.923,4339.487,4210.385,4265.0,4323.718,4271.538,4204.103,4178.077,4636.282,4413.333,4414.744,4487.436
1970-01-14 10:05:43.770921,4244.487,4300.641,4264.744,4349.231,4080.256,4254.615,4323.462,4268.718,4205.513,4177.564,4635.256,4412.179,4413.077,4483.718
1970-01-14 10:05:43.770973,4245.0,4302.692,4265.897,4357.308,3981.026,4243.333,4322.564,4265.897,4205.641,4170.897,4633.718,4411.795,4411.667,4479.359
1970-01-14 10:05:43.771003,4245.256,4306.538,4265.769,4358.974,3999.872,4242.179,4322.436,4264.103,4205.0,4164.615,4633.718,4413.974,4411.923,4477.308
1970-01-14 10:05:43.771030,4245.897,4312.949,4266.282,4354.744,4151.026,4258.59,4326.026,4265.897,4206.282,4162.564,4637.949,4420.128,4415.897,4480.0
1970-01-14 10:05:43.785806,4247.949,4321.795,4268.974,4349.872,4355.0,4287.564,4334.231,4272.308,4212.051,4164.487,4646.923,4430.256,4423.333,4486.667
1970-01-14 10:05:43.785852,4251.026,4330.513,4273.333,4350.0,4494.487,4313.462,4343.205,4281.538,4220.897,4166.41,4657.051,4440.897,4431.026,4493.718
1970-01-14 10:05:43.785883,4252.949,4335.0,4276.282,4355.769,4505.0,4322.051,4347.692,4289.103,4227.949,4164.103,4663.333,4446.923,4435.128,4497.308
1970-01-14 10:05:43.785912,4252.179,4333.333,4275.256,4362.949,4417.692,4311.41,4345.256,4291.538,4230.0,4157.179,4663.333,4445.0,4433.974,4496.154
1970-01-14 10:05:43.801390,4249.615,4328.462,4271.282,4366.538,4317.949,4292.051,4339.487,4288.846,4227.692,4150.0,4658.974,4437.308,4430.0,4492.436
1970-01-14 10:05:43.801432,4247.949,4325.128,4268.077,4365.128,4264.359,4277.051,4335.769,4284.359,4224.615,4148.462,4653.974,4429.615,4426.795,4489.487
1970-01-14 10:05:43.803732,4248.59,4325.897,4268.205,4361.795,4248.205,4272.051,4336.41,4280.641,4222.949,4157.564,4650.0,4426.026,4425.769,4488.462
1970-01-14 10:05:43.819089,4250.256,4327.949,4270.513,4360.513,4224.487,4273.462,4338.846,4277.436,4221.795,4177.308,4646.026,4425.513,4425.0,4488.205
1970-01-14 10:05:43.819138,4250.897,4327.436,4272.436,4362.436,4175.385,4274.615,4339.103,4273.462,4218.846,4200.769,4640.256,4425.128,4421.154,4487.308
1970-01-14 10:05:43.819165,4249.744,4323.205,4272.436,4365.128,4135.256,4272.949,4335.769,4269.231,4214.615,4215.513,4633.718,4423.846,4415.0,4486.026
1970-01-14 10:05:43.819192,4248.846,4317.821,4272.436,4365.128,4152.051,4271.282,4331.282,4267.692,4212.692,4210.0,4630.385,4423.462,4410.641,4486.538
1970-01-14 10:05:43.831082,4250.256,4314.872,4274.487,4361.282,4230.769,4273.718,4328.974,4270.385,4215.641,4181.795,4633.59,4426.282,4412.179,4489.103
1970-01-14 10:05:43.831127,4254.359,4315.128,4278.59,4355.641,4318.846,4279.487,4330.128,4275.513,4222.564,4142.692,4641.282,4431.923,4418.974,4492.051
1970-01-14 10:05:43.831154,4258.59,4316.026,4282.821,4352.179,4351.667,4283.205,4332.692,4279.487,4228.974,4114.744,4647.949,4437.564,4426.026,4492.821
1970-01-14 10:05:43.831181,4260.897,4315.256,4285.385,4353.462,4310.897,4280.769,4334.103,4280.385,4230.513,4117.179,4649.487,4440.641,4429.103,4491.282
1970-01-14 10:05:43.845913,4261.41,4313.462,4287.179,4360.128,4237.308,4274.744,4334.231,4279.359,4227.821,4153.333,4648.077,4441.41,4428.462,4490.641
1970-01-14 10:05:43.845955,4262.436,4314.615,4290.128,4370.256,4187.949,4272.564,4335.769,4279.615,4225.897,4206.026,4650.0,4443.077,4428.974,4494.487
1970-01-14 10:05:43.845981,4265.385,4321.026,4295.769,4380.0,4185.513,4278.077,4340.256,4283.205,4229.615,4246.154,4658.718,4448.846,4434.615,4503.333
1970-01-14 10:05:43.846007,4269.615,4330.256,4301.923,4385.128,4206.538,4287.821,4346.538,4287.692,4238.59,4252.051,4670.513,4457.308,4444.103,4512.436
1970-01-14 10:05:43.861026,4272.051,4336.41,4305.256,4383.462,4215.769,4292.949,4350.769,4288.846,4245.769,4224.615,4677.692,4462.949,4451.667,4516.538
1970-01-14 10:05:43.861063,4271.154,4335.256,4303.59,4376.154,4204.872,4289.231,4350.385,4284.487,4245.256,4186.795,4675.256,4461.154,4452.692,4513.59
1970-01-14 10:05:43.861088,4268.718,4328.333,4299.231,4367.564,4200.641,4280.769,4346.667,4277.436,4237.436,4165.385,4666.41,4453.974,4447.949,4507.821
1970-01-14 10:05:43.863553,4268.205,4321.795,4296.923,4362.692,4234.231,4276.923,4343.718,4273.846,4230.128,4169.615,4660.128,4448.718,4442.949,4505.641
1970-01-14 10:05:43.878568,4272.308,4320.897,4300.128,4364.744,4300.256,4282.436,4345.513,4277.692,4230.513,4187.051,4662.949,4451.795,4442.949,4510.385
1970-01-14 10:05:43.878703,4279.615,4326.538,4307.564,4372.692,4350.769,4292.179,4351.282,4287.051,4238.59,4198.205,4673.077,4462.051,4447.949,4519.359
1970-01-14 10:05:43.878766,4285.128,4333.59,4313.718,4381.795,4340.769,4296.667,4356.026,4295.0,4248.077,4195.256,4681.795,4471.667,4452.821,4525.641
1970-01-14 10:05:43.878805,4284.359,4335.897,4313.462,4385.0,4280.128,4291.41,4354.872,4295.769,4251.923,4186.538,4680.769,4473.59,4451.923,4523.974
1970-01-14 10:05:43.891106,4276.41,4331.41,4305.513,4379.103,4228.59,4281.154,4346.667,4288.59,4247.821,4185.897,4669.231,4466.538,4443.974,4515.128
1970-01-14 10:05:43.891151,4265.641,4323.974,4294.103,4367.308,4235.0,4273.974,4335.385,4277.821,4239.744,4198.846,4654.103,4455.256,4433.333,4504.231
1970-01-14 10:05:43.891174,4258.462,4319.615,4286.282,4357.564,4284.231,4274.231,4327.436,4269.615,4233.718,4218.59,4644.744,4446.923,4426.41,4497.692
1970-01-14 10:05:43.891196,4258.974,4321.667,4286.667,4357.564,4311.538,4279.487,4327.051,4267.436,4233.59,4233.333,4645.769,4446.026,4426.667,4497.821
1970-01-14 10:05:43.906020,4266.282,4327.564,4294.487,4368.333,4269.872,4284.744,4333.718,4270.641,4238.333,4235.0,4655.256,4452.436,4432.564,4502.821
1970-01-14 10:05:43.906057,4275.385,4332.308,4304.103,4382.436,4180.513,4286.923,4342.821,4276.154,4243.59,4224.487,4666.282,4461.154,4439.103,4508.462
1970-01-14 10:05:43.906083,4280.385,4331.538,4308.974,4389.231,4116.667,4287.179,4348.974,4280.385,4245.769,4207.564,4672.051,4466.667,4441.795,4511.282
1970-01-14 10:05:43.906108,4278.974,4324.872,4306.538,4382.692,4137.308,4287.436,4348.974,4281.538,4243.974,4191.538,4670.128,4466.41,4438.462,4510.256
1970-01-14 10:05:43.924395,4272.821,4316.154,4299.359,4366.026,4237.949,4288.59,4343.59,4279.872,4240.641,4180.513,4663.205,4462.692,4431.667,4506.795
1970-01-14 10:05:43.924440,4266.667,4310.769,4292.692,4349.487,4357.051,4289.744,4336.282,4277.436,4238.205,4176.154,4657.051,4459.359,4426.41,4503.59
1970-01-14 10:05:43.924467,4264.744,4312.436,4290.256,4342.821,4426.026,4289.487,4331.026,4275.769,4237.564,4178.462,4656.026,4458.333,4426.923,4502.564
1970-01-14 10:05:43.926956,4268.462,4320.256,4292.692,4348.718,4412.692,4287.308,4330.641,4275.769,4238.462,4186.667,4660.641,4459.487,4433.205,4504.103
1970-01-14 10:05:43.940875,4274.487,4328.59,4297.692,4361.538,4331.667,4283.205,4334.487,4277.051,4239.872,4197.821,4667.308,4461.41,4441.026,4506.923
1970-01-14 10:05:43.940922,4277.436,4331.154,4301.538,4372.436,4222.692,4277.436,4339.103,4278.077,4241.41,4206.026,4671.026,4463.333,4444.872,4508.462
1970-01-14 10:05:43.940949,4274.615,4325.385,4301.282,4376.026,4128.077,4270.0,4340.641,4277.692,4243.077,4205.256,4669.615,4464.103,4442.692,4507.308
1970-01-14 10:05:43.940976,4268.462,4315.128,4297.949,4372.308,4081.667,4263.205,4338.718,4276.538,4245.0,4195.128,4664.872,4464.231,4437.564,4503.974
1970-01-14 10:05:43.951146,4264.487,4307.564,4295.385,4365.513,4104.744,4261.795,4336.41,4276.538,4247.436,4182.949,4661.282,4465.769,4435.128,4501.41
1970-01-14 10:05:43.951190,4265.897,4307.179,4295.897,4359.487,4194.359,4271.026,4337.051,4279.103,4250.513,4178.462,4661.41,4469.615,4438.077,4502.051
1970-01-14 10:05:43.951217,4271.026,4312.308,4298.59,4354.744,4312.564,4289.231,4340.641,4283.205,4252.949,4184.744,4663.59,4473.846,4442.949,4504.744
1970-01-14 10:05:43.966172,4274.487,4316.538,4300.0,4350.256,4393.59,4306.41,4343.974,4284.744,4252.564,4196.41,4662.949,4474.615,4443.333,4505.0
1970-01-14 10:05:43.966215,4272.308,4314.231,4297.949,4346.41,4377.949,4308.846,4343.077,4280.897,4248.333,4203.333,4656.795,4470.385,4435.513,4499.231
1970-01-14 10:05:43.966241,4265.641,4305.897,4293.846,4345.128,4259.872,4291.923,4337.179,4272.692,4241.667,4199.231,4647.179,4463.205,4422.692,4487.949
1970-01-14 10:05:43.966266,4258.59,4296.538,4290.641,4347.051,4109.872,4265.513,4329.231,4264.872,4236.026,4185.256,4640.256,4456.538,4412.821,4476.282
1970-01-14 10:05:43.981181,4254.872,4290.897,4289.872,4348.846,4036.667,4248.59,4324.103,4262.564,4233.846,4168.077,4640.513,4452.949,4411.667,4470.769
1970-01-14 10:05:43.981224,4255.641,4289.872,4290.897,4345.897,4103.718,4253.205,4324.615,4267.051,4235.769,4156.026,4647.051,4452.949,4418.59,4473.974
1970-01-14 10:05:43.981256,4260.0,4291.538,4292.564,4337.692,4271.538,4273.974,4329.615,4274.615,4240.513,4156.667,4655.0,4455.897,4427.436,4483.462
1970-01-14 10:05:43.996207,4266.154,4293.846,4294.615,4329.487,4426.538,4292.692,4335.385,4280.256,4246.667,4173.974,4659.744,4461.026,4432.051,4493.846
1970-01-14 10:05:43.998559,4272.564,4296.41,4297.436,4328.974,4470.513,4295.769,4338.846,4282.179,4252.821,4204.872,4660.769,4467.821,4431.026,4500.513
1970-01-14 10:05:43.998594,4277.051,4299.487,4301.667,4338.333,4392.692,4285.0,4339.231,4281.667,4258.205,4236.667,4661.026,4474.744,4427.692,4502.051
1970-01-14 10:05:43.998621,4278.205,4302.308,4306.154,4352.308,4266.41,4273.718,4337.821,4281.41,4261.795,4252.051,4662.821,4479.872,4426.026,4499.231
1970-01-14 10:05:44.013309,4275.385,4303.718,4308.462,4361.667,4185.128,4273.333,4336.667,4282.308,4262.051,4240.641,4665.385,4480.769,4427.051,4493.846
1970-01-14 10:05:44.013355,4270.0,4302.436,4306.923,4360.513,4196.282,4284.615,4337.051,4283.718,4258.974,4209.872,4666.795,4477.436,4429.615,4487.821
1970-01-14 10:05:44.013380,4264.615,4298.974,4302.051,4350.513,4274.359,4299.231,4339.231,4285.0,4254.615,4181.923,4665.641,4473.333,4431.154,4482.949
1970-01-14 10:05:44.013404,4261.795,4294.359,4296.923,4340.128,4342.436,4306.667,4341.41,4285.513,4251.923,4177.051,4661.923,4472.692,4430.385,4479.744
1970-01-14 10:05:44.013428,4262.436,4290.641,4295.513,4337.436,4330.513,4301.41,4341.538,4285.641,4252.436,4196.154,4657.436,4476.795,4426.923,4478.205
1970-01-14 10:05:44.026360,4265.385,4289.615,4299.231,4345.513,4229.359,4285.769,4339.615,4285.897,4255.256,4219.231,4653.846,4483.333,4422.564,4478.59
1970-01-14 10:05:44.026405,4268.462,4291.538,4306.282,4359.231,4102.179,4268.333,4337.692,4286.667,4258.077,4222.564,4653.205,4489.359,4419.487,4480.769
1970-01-14 10:05:44.026432,4269.615,4295.0,4312.949,4369.231,4036.282,4258.718,4338.462,4288.718,4259.872,4201.667,4655.897,4493.718,4419.231,4483.846
1970-01-14 10:05:44.026456,4268.59,4297.436,4316.026,4368.59,4076.282,4260.897,4342.436,4291.538,4260.385,4175.641,4660.385,4496.923,4421.538,4486.667
1970-01-14 10:05:44.041247,4266.282,4297.179,4315.128,4357.436,4192.821,4272.179,4347.564,4294.359,4260.513,4168.333,4664.231,4499.359,4425.256,4488.205
1970-01-14 10:05:44.041289,4264.872,4295.385,4312.564,4343.333,4311.154,4286.41,4350.897,4296.538,4260.897,4184.487,4665.641,4500.897,4428.333,4488.846
1970-01-14 10:05:44.041318,4265.0,4294.231,4311.667,4335.385,4368.333,4298.462,4351.154,4297.949,4261.41,4205.256,4665.256,4501.538,4429.872,4489.744
1970-01-14 10:05:44.056813,4266.154,4295.128,4313.846,4337.821,4352.051,4304.872,4349.744,4298.974,4261.667,4207.564,4664.744,4502.179,4429.487,4491.026
1970-01-14 10:05:44.059265,4267.051,4297.308,4318.077,4347.436,4294.744,4304.615,4348.333,4299.487,4261.538,4188.205,4665.128,4503.333,4428.205,4492.051
1970-01-14 10:05:44.059306,4266.795,4298.718,4321.282,4356.923,4241.538,4298.077,4348.077,4299.231,4262.051,4166.795,4666.154,4504.359,4427.179,4491.41
1970-01-14 10:05:44.059331,4265.128,4297.051,4320.897,4359.872,4220.897,4288.462,4348.077,4298.205,4263.974,4168.333,4666.026,4503.59,4426.923,4488.333
1970-01-14 10:05:44.074150,4262.436,4292.051,4316.795,4354.103,4234.103,4280.385,4347.436,4296.667,4267.692,4199.487,4663.462,4500.385,4426.923,4484.103
1970-01-14 10:05:44.074202,4259.744,4285.0,4310.641,4343.59,4261.538,4277.179,4345.513,4295.0,4271.41,4240.769,4659.231,4495.897,4426.41,4481.026
1970-01-14 10:05:44.074230,4258.333,4278.718,4305.385,4334.487,4277.564,4278.718,4342.821,4293.333,4273.205,4263.333,4655.641,4492.436,4425.256,4480.513
1970-01-14 10:05:44.074257,4258.846,4275.513,4302.821,4331.282,4270.513,4281.923,4341.026,4292.308,4272.308,4252.821,4655.385,4492.308,4424.487,4482.179
1970-01-14 10:05:44.086390,4260.513,4275.513,4303.462,4333.59,4254.103,4284.103,4341.026,4292.949,4270.513,4222.692,4659.103,4496.282,4425.256,4485.0
1970-01-14 10:05:44.086437,4261.923,4277.564,4306.026,4336.41,4252.564,4285.513,4342.949,4296.154,4270.769,4201.41,4664.872,4502.949,4427.692,4488.59
1970-01-14 10:05:44.086465,4261.923,4279.359,4308.462,4336.026,4270.128,4286.795,4344.872,4300.0,4273.462,4206.667,4669.744,4508.462,4431.154,4492.436
1970-01-14 10:05:44.086490,4261.538,4279.615,4309.872,4333.59,4280.769,4285.256,4344.359,4301.41,4276.795,4231.667,4671.282,4509.872,4433.59,4495.128
1970-01-14 10:05:44.101482,4262.308,4277.949,4310.513,4333.462,4256.538,4277.949,4340.769,4298.718,4277.949,4252.436,4669.359,4507.051,4433.205,4495.513
1970-01-14 10:05:44.101529,4263.718,4274.744,4310.641,4337.051,4200.128,4265.641,4334.744,4292.308,4275.128,4250.513,4664.744,4502.821,4429.231,4492.179
1970-01-14 10:05:44.101555,4263.718,4270.769,4309.744,4341.282,4146.538,4254.615,4327.949,4284.615,4268.333,4226.667,4658.718,4499.872,4422.564,4485.128
1970-01-14 10:05:44.101582,4260.769,4267.564,4307.308,4341.41,4134.103,4251.026,4321.41,4278.077,4259.231,4197.692,4652.692,4497.949,4415.513,4476.667
1970-01-14 10:05:44.116446,4257.051,4267.436,4304.744,4336.538,4176.667,4256.923,4317.564,4275.128,4252.436,4181.538,4648.974,4497.179,4412.051,4471.667
1970-01-14 10:05:44.118906,4256.282,4271.795,4304.615,4331.154,4259.872,4269.231,4319.231,4277.308,4252.949,4184.359,4650.641,4499.359,4414.872,4474.872
1970-01-14 10:05:44.118937,4260.513,4279.487,4308.205,4329.872,4349.359,4282.692,4326.795,4284.103,4263.077,4199.615,4658.462,4505.513,4423.205,4486.154
1970-01-14 10:05:44.134459,4268.077,4286.667,4313.59,4332.949,4403.718,4291.795,4337.179,4292.179,4279.487,4215.513,4668.718,4513.462,4432.436,4499.872
1970-01-14 10:05:44.134513,4274.231,4288.974,4317.436,4337.179,4392.051,4292.564,4344.103,4296.41,4295.256,4224.744,4675.0,4518.462,4438.077,4508.077
1970-01-14 10:05:44.134556,4275.513,4285.513,4318.077,4339.103,4320.513,4285.0,4343.718,4294.359,4304.872,4227.179,4673.974,4518.077,4437.692,4506.538
1970-01-14 10:05:44.134585,4271.41,4279.359,4316.795,4337.179,4237.949,4273.846,4336.795,4287.564,4306.795,4226.923,4667.821,4513.718,4433.205,4497.564
1970-01-14 10:05:44.146577,4265.0,4275.0,4315.0,4332.179,4201.154,4265.128,4328.205,4280.256,4303.462,4227.308,4662.051,4508.462,4427.564,4487.564
1970-01-14 10:05:44.146629,4260.513,4274.231,4312.821,4326.795,4225.0,4262.308,4323.59,4276.026,4299.359,4229.615,4660.513,4505.128,4423.333,4481.795
1970-01-14 10:05:44.146660,4260.641,4275.513,4311.026,4325.128,4268.846,4264.103,4325.385,4276.282,4298.59,4234.744,4662.821,4505.256,4422.051,4482.051
1970-01-14 10:05:44.146687,4265.256,4277.308,4310.897,4329.359,4278.205,4267.308,4332.564,4280.513,4303.205,4243.077,4666.538,4509.359,4424.487,4487.436
1970-01-14 10:05:44.161486,4272.436,4278.846,4314.103,4338.077,4235.769,4270.128,4341.41,4287.179,4311.026,4251.282,4669.744,4516.282,4430.513,4495.897
1970-01-14 10:05:44.161531,4279.231,4280.256,4320.513,4346.41,4173.59,4272.564,4348.718,4293.846,4317.308,4252.436,4672.564,4522.949,4438.333,4504.744
1970-01-14 10:05:44.161559,4283.205,4281.282,4327.692,4349.744,4137.821,4275.256,4352.692,4298.205,4317.564,4240.128,4675.385,4526.282,4444.359,4510.641
1970-01-14 10:05:44.161585,4283.59,4280.641,4332.308,4346.923,4148.333,4277.564,4353.333,4298.462,4311.538,4217.179,4677.821,4525.128,4445.128,4510.897
1970-01-14 10:05:44.177005,4280.641,4277.564,4331.795,4340.385,4192.564,4278.59,4350.769,4294.615,4302.436,4197.179,4678.077,4520.641,4439.231,4505.513
1970-01-14 10:05:44.177045,4276.41,4273.205,4325.897,4332.949,4248.333,4278.718,4346.282,4288.333,4294.615,4195.513,4675.256,4515.769,4429.744,4498.59
1970-01-14 10:05:44.179530,4273.333,4270.513,4317.179,4327.179,4300.385,4279.744,4341.923,4282.821,4291.41,4215.641,4670.641,4513.462,4422.436,4495.641
1970-01-14 10:05:44.179563,4272.821,4271.667,4310.0,4324.487,4339.359,4282.179,4339.615,4280.385,4293.205,4243.333,4667.179,4515.769,4421.667,4498.462
1970-01-14 10:05:44.194664,4274.487,4275.769,4306.923,4325.128,4355.769,4284.103,4338.974,4281.795,4297.308,4256.41,4666.923,4521.667,4426.538,4504.487
1970-01-14 10:05:44.194716,4276.667,4279.615,4307.308,4328.205,4346.41,4283.59,4338.462,4284.487,4300.128,4242.821,4669.359,4527.051,4432.308,4507.949
1970-01-14 10:05:44.194745,4277.949,4280.897,4308.974,4331.41,4319.615,4281.282,4336.923,4285.385,4299.231,4211.282,4671.923,4528.462,4434.487,4505.769
1970-01-14 10:05:44.194773,4277.692,4280.128,4310.385,4333.205,4288.59,4279.872,4334.872,4283.59,4295.513,4184.359,4672.949,4526.667,4432.436,4499.744
1970-01-14 10:05:44.206682,4276.923,4278.974,4312.308,4333.974,4255.641,4280.513,4333.846,4281.026,4292.564,4181.538,4672.821,4525.641,4429.359,4494.615
1970-01-14 10:05:44.206732,4276.154,4278.077,4315.256,4335.128,4212.564,4280.897,4334.359,4279.872,4293.077,4205.128,4672.821,4527.436,4428.205,4494.231
1970-01-14 10:05:44.206760,4275.0,4275.128,4317.564,4336.41,4160.897,4278.077,4335.256,4280.256,4295.897,4239.359,4672.692,4529.744,4428.718,4498.205
1970-01-14 10:05:44.206786,4272.436,4267.949,4316.282,4334.487,4128.846,4273.718,4334.872,4280.0,4297.051,4261.923,4670.385,4527.692,4428.462,4501.667
1970-01-14 10:05:44.221559,4268.205,4257.692,4309.872,4326.667,4151.795,4273.205,4332.821,4276.923,4293.718,4260.128,4664.744,4519.872,4425.128,4500.0
1970-01-14 10:05:44.221601,4263.59,4249.231,4300.385,4314.615,4233.077,4279.872,4330.385,4270.641,4286.282,4238.718,4657.564,4510.128,4418.846,4493.205
1970-01-14 10:05:44.221630,4259.872,4247.564,4292.436,4304.744,4327.308,4290.128,4328.462,4263.59,4278.333,4214.103,4652.051,4504.615,4412.179,4485.641
1970-01-14 10:05:44.221658,4258.59,4254.103,4289.487,4303.077,4372.564,4295.641,4327.436,4258.846,4273.718,4201.538,4650.641,4506.923,4408.077,4482.692
1970-01-14 10:05:44.235646,4260.769,4264.615,4292.692,4310.769,4339.744,4290.897,4327.308,4258.974,4274.744,4205.128,4653.462,4516.026,4408.333,4486.923
1970-01-14 10:05:44.235686,4266.026,4272.308,4298.974,4323.205,4255.641,4278.846,4328.462,4264.231,4280.385,4218.462,4659.231,4526.795,4413.077,4496.154
1970-01-14 10:05:44.238031,4272.308,4273.462,4303.718,4333.718,4181.923,4268.205,4330.641,4271.923,4287.692,4230.256,4665.513,4534.103,4420.128,4506.026
