timestamp,AF3,F7,F3,FC5,T7,P7,O1,O2,P8,T8,FC6,F4,F8,AF4
0.0,1.0420590897214341,0.8698389161978858,0.3713262726180523,0.4282346720068382,0.07273339077787094,-0.00010133797796410414,0.014435343618305889,0.08422858324669803,0.04757786046513679,0.20766034777382938,0.5735442446650315,0.3382104002799749,0.8306758925994085,1.0407587640099278
0.0078125,-6.351487914926974,-13.467920887921695,-5.73357027751147,-3.7770337597689583,-8.603306503932844,-2.2905061310234203,-2.3761990207030395,-5.463652301270802,-1.4603450854809787,-4.145747830579978,-10.141137262212661,-6.575744775479587,-7.988371060426158,-12.048896764964878
0.015625,-4.873665760811513,-15.083774277033799,-5.150650807653998,-2.109320400785918,-21.073287681752163,-2.2731980262469373,0.06318004737553277,-7.56243607291166,0.39204587372688304,-3.2929827488607457,-12.070702129456329,-7.253374301469516,-7.779800992582245,-14.865718163485504
0.0234375,2.0955494822790666,-5.258183584606643,-0.32883238961395755,2.4971379407915357,-28.10381621739319,-1.2298299426753405,4.87023273701642,-5.975728263552402,3.3398319453243874,0.9879048431191925,-6.740225646706461,-4.215026359853365,-1.0359731304466755,-8.222449736689615
0.03125,10.304332370260926,8.723085255407405,4.844689087582779,6.610552131400338,-21.728194770994985,-0.31522022407061445,9.050221549394019,-1.874199146350661,5.307761044303312,5.849323356929035,1.1840267152030237,-0.08822494893404502,8.159292939103802,3.633964737652291
0.0390625,17.23112176884094,19.069404348652366,8.516228968540737,9.49589500614883,-3.0621155990253413,0.6005987866737685,11.535507426013496,3.471665624232126,6.411739099393901,9.531336594329428,7.978049778098678,4.1417743711989266,16.872367881294906,15.749536304050652
0.046875,22.753892408932057,22.429950840404686,10.864045757604831,12.747388122070664,15.85016373368266,2.284112060199705,12.198186742299768,8.659507943170947,7.68323853803466,12.446491357604009,12.946703928063247,8.645921390597387,24.95430952218103,25.308201218378734
0.0546875,25.441499867945005,19.75091461104741,11.905386599826409,16.44334367566181,19.95604192978219,3.198758268303799,10.412401927279339,11.090476244597312,8.662629875009653,13.793581608568893,14.661957429374064,11.61352995409098,30.230860071563573,30.110811707570775
0.0625,23.761141158151176,14.563722806320143,10.900479574516844,18.62710887873517,4.213147458071889,1.675254582065465,5.809190467871345,8.9330349219841,8.247144460948752,12.010055407723444,12.094551975779561,10.599217591088834,29.908176971126093,28.621532422144956
0.0703125,18.76280496033088,11.227706266975193,8.415627553411447,16.925272204152726,-21.62184644999745,-2.669202120699067,-0.45383962239810405,2.8446639896311177,6.188339630207979,6.742505746208376,6.6118307249122665,6.16568063449706,23.724178771416604,21.892268876378726
0.078125,15.186709095353525,13.541166917753266,6.318907066252804,12.794375277574156,-39.12287684972019,-7.52704603766518,-4.794122758555324,-3.1146169230588447,4.002170307567256,1.2201479166520734,2.4180006840950896,2.248569322824144,16.52350320960632,15.430606626181353
0.0859375,16.49613751072129,21.39860613010598,6.837658391696659,10.292779027215621,-36.4829394744405,-9.56368131373169,-4.286355207772593,-4.720503112347549,2.894750250595771,-0.4004986643061706,3.211438023299877,2.1540197149584706,14.159992335454,14.497483863685643
0.09375,21.10659637883736,29.630936376970936,9.7741682822761,12.042473403780365,-17.715388604362378,-7.625804451711216,0.9094904891499073,-0.6263559003316794,3.527228626240634,3.334614182020722,8.465232878304727,5.886956303409443,17.192885505363684,19.049929239884634
0.1015625,26.370745396362274,34.429180333869645,14.04313100825295,17.855802268004172,3.3720336923784493,-3.2518875686287023,7.107128216034279,5.383686885096053,4.724307071339193,9.945138425866054,14.986974760617892,11.518134345587518,23.136995965515133,26.437574608537137
0.109375,27.49961429452852,32.25282751020263,16.659439065984188,23.007166933328946,14.923840734548723,0.4805718290781983,10.216505239089399,8.003316245497773,5.2481408013722435,14.497213148283608,17.673593756797484,14.878231392635126,25.20920595005067,29.561476636555337
0.1171875,24.971256278371996,26.026252885909507,15.632246557229971,24.38770645648387,14.975120751657316,2.4168912385976,9.382743914836938,4.913805275838584,4.596494241335317,14.52190083221532,15.381079180287177,13.876861244338134,22.372545607987107,26.589234106169158
0.125,21.500314503510197,20.00094505309808,11.370638432486954,21.810680277411105,8.323382309496601,3.3267334077347925,6.667102520404311,-1.768192440160152,3.959608142663053,11.585618142400646,10.466497632595441,8.77319010652625,17.69661001928243,19.594757734364915
0.1328125,18.341028483448277,15.28266902653718,5.505555166481986,15.848729046268806,-0.6264624343536377,3.0802133460221177,5.107449355401495,-7.540131858303288,4.354523427063726,8.684774196594734,5.780114277703844,1.8038906933944472,14.062970347903155,11.37307645648666
0.140625,16.278320889793708,11.98828340655186,0.6175188934445186,9.00582005732473,-10.179386586477625,0.2692384198910848,4.938187649485438,-9.437053732853677,5.846427328839747,7.849624647132413,3.886939995124681,-3.3793940412285117,13.18194645917546,5.275760862763369
0.1484375,14.11512697855403,8.113279563448394,-2.612261114335965,3.170020820742173,-19.403745291808754,-6.646200904935295,4.347609217754985,-8.20889627432379,6.836579882979517,8.174820976714193,3.4156258947472624,-5.669480456325005,12.970006657711002,1.1323126476829555
0.15625,10.983844232172695,4.197733630817285,-4.009404711800134,0.14095821423586374,-26.907920680405013,-16.12716036954127,1.6903516507427272,-6.549297414140528,5.600737336647244,8.304761372439948,2.5376825114604955,-6.224825098130021,11.47227263017855,-1.0298151449653572
0.1640625,8.735585840709884,3.135964534397574,-3.1444155183067135,1.0257946077368463,-30.813031240247383,-23.0465559560167,-1.710649500916827,-6.266780895485214,2.9186963073013565,7.94305552601647,0.7283411933251291,-5.864231812871368,9.545786081475866,0.12573862487721496
0.171875,8.843263840587417,5.791536926514638,0.44430125165058904,5.9323578571126365,-29.539742049273237,-22.529939045337606,-2.127237183391041,-6.031141511836738,1.124145833701987,8.10150788518243,-0.28728157651188996,-3.88701495543904,8.674130900623958,4.531046106748658
0.1796875,11.856488470379407,11.146401735396237,5.6265038264662115,13.529213437507112,-22.66877020475832,-13.808791512786888,2.342595506835516,-3.517875075653991,1.949456215970213,10.173731540791595,1.5569308240948383,0.2854398435317494,10.327579636760632,10.942344534682867
0.1875,15.724375902852875,15.738613366025708,9.657556730109505,20.303949294035014,-12.925500637290762,-2.0109146071503208,10.000756257867607,1.8573750652480454,4.648003800092865,13.314045812470143,5.247622471174477,5.008786458968702,13.56491681929045,16.03169906713625
0.1953125,18.019646455967056,17.67233694216683,9.819024911679028,22.29208863132639,-6.932827975959797,4.658081881936556,15.343051572887266,6.80993989957952,6.299748580293882,14.31992234780489,7.166890465520227,7.671896020325924,15.95344783354426,18.009281617341397
0.203125,16.432366481061326,15.449610796132825,5.668665704528796,17.069558014602634,-10.756390442684452,1.3241400111998431,13.516065124939539,6.9571722663190885,4.527558654407368,9.212760318129675,3.017983900092595,5.869549194805402,14.539752904850772,15.718934247466704
0.2109375,11.020077948836741,9.613002772546267,-1.3151554042316835,6.506668329095406,-24.89586969829468,-10.601638929867677,4.009186336213705,0.7746500992859497,-0.9172096926948867,-2.0972714017382694,-7.351968010741434,-0.3399557122127819,8.575667207715808,8.96429301991346
0.21875,0.9311984446393214,-0.7040449635818301,-9.174649920514849,-5.504160824235885,-43.903396559322985,-23.171111636133023,-8.114157439355983,-9.28792878235065,-7.934992172654941,-15.392800748226492,-20.561000180992032,-9.87347044971274,-2.376820187766996,-3.2323745644628925
0.2265625,-10.033765127086323,-12.37843642874309,-15.43051608962005,-13.098286872891672,-60.17936445133402,-29.460551597799213,-16.460551233417583,-18.078207090515793,-13.124884118945465,-24.270573556987234,-29.904112224702974,-18.420254592226392,-13.734307160284882,-16.68223898219863
0.234375,-14.392834120324252,-16.92218703432281,-16.420738161362657,-11.879420174396346,-66.61444783656172,-28.059382452964794,-18.123354169613375,-21.240192346086975,-14.274689286168018,-24.008197662522118,-29.84637645584281,-20.720109044259424,-17.889995067729444,-22.372843580878158
0.2421875,-9.465304938406058,-11.349683267634136,-11.875201598247434,-3.1379737826270775,-59.185603879780516,-22.93990611336539,-14.451052878985989,-18.16434484814869,-11.568948789548516,-16.303554203829897,-21.714418539761382,-16.002037032277318,-13.174392916970932,-17.63247386405925
0.25,1.5911261972534059,0.8531780527401982,-4.608171374965865,6.833953236920165,-37.91228510236508,-18.719593332306008,-9.166774581176735,-12.46873836961146,-7.718115847323378,-6.736805279408131,-11.3320121509462,-7.580842309491968,-3.828058195844493,-6.76848281684993
0.2578125,11.696686547932005,11.53323117962435,0.7062904807232706,11.883118034017402,-8.464694454099996,-16.29324081063688,-5.685080474697675,-7.96555071986557,-4.7859022748704705,-0.5913394818802253,-4.142745006535491,-1.0983681673413122,3.7571254975003128,1.8612437727361453
0.265625,15.088821899312432,14.771222447335116,2.050514629128933,10.048207086358188,18.477909998883895,-13.995238452675247,-4.345290494481211,-6.2954586637734264,-3.4322354848449184,0.16349916195949984,-1.5362524088342737,0.7229242487186291,5.55297212694414,3.6584186278751547
0.2734375,12.840462555160105,12.037914233568182,1.2085629143022598,5.074364069231685,31.29163131882709,-10.160700945643804,-3.984485502139215,-6.248153313235206,-2.8570268594225965,-2.0269200546375186,-1.210514772956505,0.029264799118749553,3.7757434270730195,1.4906272402803042
0.28125,5.517981181529712,5.197865736885659,-0.9142949886816678,0.2553273613770791,23.921515682203303,-5.943381589712639,-3.6865593787692448,-6.8098397245838,-3.3778311392085243,-4.8188730924069425,-2.742784488127016,-2.320546713099918,-1.3065542116379294,-3.3076480119497114
0.2890625,-2.680174120993616,-1.579699282529073,-2.9422983210594937,-1.7887890988994954,1.9416894383698775,-4.292874665535845,-3.878195970742324,-8.105687589801418,-5.47374346128428,-6.173089059704299,-6.21577583464676,-5.66627048216035,-6.660433347622894,-7.574450544803061
0.296875,-8.023741228569799,-5.69386365707816,-4.30003545936724,-1.259895134182678,-18.30317678788752,-6.4922536186590785,-4.751531466861937,-9.64536525837271,-7.913317842846038,-6.476274208008656,-10.30485625677386,-9.061368018527853,-9.853848640312652,-9.250823015759412
0.3046875,-4.907862701705126,-3.0869225473359463,-3.0689184116856936,2.5625373991066773,-20.76349489180746,-11.12965868645705,-5.2277804485177555,-9.570632349833632,-7.8236229109446676,-4.943806970389537,-10.536259485532995,-8.534399889002348,-6.208957981042066,-3.5061121646318583
0.3125,3.4709042090569655,2.75549155511126,-0.2583840824611099,6.6333363742193,-3.73378747023772,-14.744316862650834,-4.759413158714308,-7.276858106623485,-4.490544356261486,-2.286122337414797,-6.028850920787004,-3.7242042063535705,1.1726563278177,5.828777772223499
0.3203125,9.819700399609468,5.633752666954297,0.7941251876573876,7.339802067949691,16.72074298064304,-16.308054421847217,-3.863512686725923,-4.447920089266953,-0.023255752924264045,0.07154125732043225,-0.47123617366117393,1.827839056135384,5.815803146070394,11.218551165657292
0.328125,5.8650481082996695,-0.17918597367007041,-2.887530220548053,1.9302733331650614,19.03565127913649,-16.333626035389823,-4.058277557611797,-3.750189795838471,1.8949504317070167,-0.03312190198178228,0.526424408217665,2.56605358403806,0.9980900819876678,5.425513763625273
0.3359375,-4.5189629252462025,-9.181412372346971,-8.880822576053818,-5.794761335193572,-5.186826374206555,-15.84703286948765,-4.867242537467822,-5.176087578749212,0.5342531951259186,-1.8288054631000419,-2.441676573766697,-1.2116405044728953,-8.019596092817105,-5.504282388719233
0.34375,-11.622983799453813,-12.690838149977331,-11.503082424820073,-9.646242161850072,-43.9807415730148,-15.103261361094013,-4.335417680326501,-6.376998563050761,-1.908309538246291,-1.8453860062040857,-4.382828146754059,-4.1950367401811,-11.454988865248396,-9.955174028606848
0.3515625,-10.893459966619128,-8.614429499202268,-8.28790342972607,-7.065012076197875,-72.57053880793053,-12.82439215419409,-0.8682856653907682,-4.846785619039262,-2.941295379330302,2.3893090966333483,-2.0486490928470946,-3.4041863009355566,-5.828739160914597,-3.890679320976409
0.359375,-4.198771119711015,-1.5694349976144397,-1.1375382670835419,-0.40273293926361137,-68.76496127418304,-8.23927957756132,4.457409128001239,-0.7428887443644954,-1.4435171474964459,10.04218573983958,3.5147733506183756,0.5250643052498072,4.375871874431141,7.366440166012112
0.3671875,3.583030177779673,2.958644828667617,5.260838999269357,5.899541097695168,-29.832323519859223,-2.119528991795015,7.985328374052155,3.103910175143916,1.2077238391040084,17.320538388028,8.85021992863542,4.983619920658284,11.933495603416636,15.478487373674856
0.375,8.380197438359533,2.860165427669666,6.963537000004876,8.355862031037013,21.974346139126173,3.2266594970241234,6.49431251675313,3.279473735464504,2.4028315489173506,19.665717345564378,9.949998293412389,7.34129886274124,12.719399107694109,16.50584255717347
0.3828125,5.6692199619161165,-3.1367941079569786,1.541211594672673,5.1201520963278835,51.192629073810956,4.98089639037919,-0.6691551995071314,-2.096638197359295,-0.34350060480343514,14.048412619488609,3.4092516884129447,4.433520978282394,4.605381837425389,8.489841541433528
0.390625,-4.436063331267397,-13.035260344668572,-8.612543252976554,-2.0404470903632426,34.888936171050496,2.3741812426887705,-9.271896529494573,-11.081325227737711,-5.992626247578032,1.5412676652216726,-9.48558686349401,-4.045829682525627,-9.011531585675263,-5.508349674678927
0.3984375,-17.39201441829452,-23.390927566518002,-18.48545483755185,-9.157245467664627,-18.234001821647887,-2.5414853584142065,-13.034502858052639,-18.5706963604465,-11.097821128887187,-11.893888866434303,-23.14456814039968,-14.357059395183887,-22.109441301687408,-20.047568308774462
0.40625,-26.881604352621032,-30.52052649997376,-23.331348522166618,-13.041950690588678,-72.42989859239721,-5.662646582917259,-9.525413680425608,-19.85204651251723,-12.212862394133067,-19.276874199973733,-30.837842732785642,-20.202899125534554,-29.710745861991757,-29.321967835257222
0.4140625,-27.22642565058241,-30.20164202044799,-21.196345063503475,-11.726457131450717,-90.20586607217015,-4.425749741059809,-1.4019802535009802,-13.687456050025874,-8.70735246921785,-16.243321749745377,-28.18309133013326,-17.407017583752673,-28.07488320687019,-27.656038408869435
0.421875,-17.96010946477304,-21.67594961180238,-14.10766352642039,-6.780691633292422,-59.12898282788274,0.2711832831341981,5.616708323625532,-3.500865105222587,-2.7224299340398814,-4.239824450237459,-16.11018120621232,-7.470144156724604,-17.479581874215054,-14.459856848646876
0.4296875,-6.712926444767661,-11.584277975733183,-7.160888904693882,-2.47727116641289,-1.7334323823307898,4.964576394586359,7.409199348068095,5.60028881757658,2.988738230018532,9.540955693839537,-1.641805414342113,2.8889500947509013,-5.154978129226617,1.9980664390337253
0.4375,-0.2849928501010684,-6.5139505312050385,-3.5239334823070854,-1.3287700490649559,42.094575163618615,6.451203697624067,4.330745282841644,10.11464154979569,6.536963988058324,18.27812194849513,8.702522160855386,8.386503593310005,3.157100020072974,12.739296119741226
0.4453125,-1.061206989150673,-8.690453279170987,-3.1946635156236742,-2.827331933843773,46.66837514465955,4.345361440719849,0.19384205325512122,9.839381457438044,7.9347226787142455,19.549996157955565,11.618480801138405,7.951207009031529,4.55772600462744,12.947278910331235
0.453125,-2.790078644650415,-10.334395453921418,-2.845073956703428,-2.5325842158774834,20.72924718919278,1.7232630473317003,-1.4863959966357811,7.0174807964028165,7.619386827778542,17.087895208571844,10.814439943793474,5.041726856808521,4.7540158674946085,9.3805954014922
0.4609375,0.9058012195972137,-4.674219653035234,-0.2192740716757658,1.3787678326818356,-4.17241459306537,1.9214120969920643,-0.5268371058230051,3.8803846311166765,6.1514606324653025,15.628482210784265,10.570625850847703,3.972000473266628,8.835842374727566,10.20660762788795
0.46875,9.129547112688428,6.303618182992261,2.86179807593386,5.996081364264801,-5.681804320996537,4.553393981037925,0.3624550136545586,1.4888003875622122,3.7325034767022194,16.093991389719918,11.66034358878791,5.267042223181507,16.013694115103924,16.966398699302555
0.4765625,13.21622455870651,12.03439328989382,1.9186675369834347,5.64205568274188,9.745208566692725,5.77466228870153,-1.2353273200104473,-0.9248425365842693,0.7729863490900017,14.73219304657966,10.765770920575969,5.338395514125179,18.710497075929453,21.90147602657688
0.484375,6.44022732708154,4.762954384289847,-5.025438384439047,-1.5312143224476795,16.875675008268487,1.7389191520676146,-4.904326585485392,-4.053477645834681,-2.02223697424528,8.100409284169897,5.0667133307997165,0.6371824456361637,11.614910815972522,17.010905031440686
0.4921875,-9.345139191385025,-13.389311217387133,-15.063143704053433,-11.249155850419086,-1.1471366411846484,-6.786664258676061,-7.579293697920389,-7.322969685055047,-3.663743200714235,-2.173552363281422,-4.102947362644718,-7.6987505507556,-3.503559833977197,1.7163589211599288
0.5,-23.13488243789747,-29.883265787272443,-21.42401387759162,-16.14769150727772,-35.388134856759166,-14.54511950063657,-7.089320044408427,-9.27239869653161,-3.8915092590405513,-10.023326254383422,-11.513511395890712,-13.812421583040026,-17.121295371067006,-14.654251084693476
0.5078125,-25.551387003692497,-33.98552080517739,-19.521488285474636,-12.522664298730371,-58.89135574337547,-15.768866861930727,-4.45647445724876,-8.609551305314726,-2.7757073325894615,-10.325311354615263,-13.400753722845884,-12.781442683090459,-21.55996151066444,-22.09683408176738
0.515625,-14.818492802372061,-22.882471529318487,-9.877526172310413,-2.7851988042508937,-50.254359416183426,-8.790564245329877,-3.3218408180706054,-6.565812933259896,-1.9958023243779823,-3.0331453452117523,-9.245840552766866,-4.914235548516891,-14.590354424356562,-16.145922157285824
0.5234375,-2.132177700165785,-7.753200869639978,0.10654019890211516,5.278843351211532,-13.18045426202611,1.5201049191521843,-6.348238532529986,-5.253212783495413,-2.7720366114761563,5.824016468825669,-3.98142106881397,2.6145707957498234,-5.460783063110617,-5.171076656750964
0.53125,2.3080243235851117,-0.11904086220783991,4.149351590614289,6.985607213890699,25.215168880773753,7.599105231378779,-12.624115441464927,-6.494422775527157,-4.968679769656022,9.85305833314964,-2.030806616768534,4.041733756211049,-2.690165384317154,1.0240549030268502
0.5390625,-3.884056825649267,-3.9006725024099627,1.6042857440765945,3.0995151296558943,38.06616946017421,5.087803853057759,-17.983678374824443,-9.514098520362968,-7.00512631382736,6.197707997854003,-5.21140142732149,-0.7442636933029472,-8.994584656016185,-2.120740769037386
0.546875,-13.8030033516221,-13.252612052577854,-3.1592444141151743,-0.20489130761990013,21.452791471892766,-3.5780819752169037,-18.80315849029116,-12.056887852777354,-7.740669653538967,-2.4561642571676567,-10.965317817165802,-6.944207205437727,-18.755516966348708,-10.266710892282813
0.5546875,-16.018910745831313,-16.3322282219248,-4.585134279485432,2.359326639451798,-4.502915791734881,-10.578463665805012,-14.700749427082409,-12.360059435167647,-6.501511880792146,-9.805985807655393,-14.01639577833602,-8.778074775039027,-21.49444094014762,-13.020888079382685
0.5625,-8.090859647848994,-10.05024362066363,-2.3245467023933233,9.298078015214951,-16.453068647078908,-10.400830440685354,-9.339457964804348,-10.881664157878857,-4.653130653398167,-11.878931582383562,-12.885434011404602,-5.5066346393821055,-14.65370323734372,-7.177223058411551
0.5703125,0.9231962388708073,-3.0968799673906835,-1.1019079716694231,13.5442194332533,-8.364950679089436,-4.71300479950778,-7.282436561521604,-11.002810075773628,-4.488470408116562,-10.251908460182849,-11.794767662149955,-2.3256374564369664,-7.1061425722368075,-0.8914468061625783
0.578125,-0.009803317429996019,-6.600207944591565,-5.436557845820457,8.948220560773,5.945633964019735,0.460463784405066,-9.803512488273869,-15.0960599675264,-7.432846951684992,-9.485723433745443,-16.061175485120614,-4.504230085813578,-9.26957325001001,-4.158086796776567
0.5859375,-13.751358873974043,-22.437609747616545,-14.974374651431,-3.476794469017308,8.609769925534277,0.1208746668592175,-14.142556385539256,-21.978080716525774,-13.045116340299789,-12.123017792446877,-26.694262936308643,-12.957534628397449,-23.625600626950195,-19.450247526171633
0.59375,-29.34999767435718,-38.44096829971509,-23.11646243780281,-14.809942215290002,-4.346107789210935,-4.836166681690503,-16.096501300578886,-27.20667009338519,-18.42521923204485,-15.671837719922225,-36.823488897272966,-21.44840861626486,-38.793880147178434,-35.18543689075877
0.6015625,-32.09259496029009,-39.103312399987765,-23.181334399520658,-16.542405035912218,-19.243205010590955,-9.410101507522768,-13.827035750182773,-26.584777197269425,-20.449525054430023,-16.14500079018586,-37.76624992275023,-22.019277948566035,-40.4984224388511,-36.66365234318254
0.609375,-16.90255284365826,-20.52688113037929,-14.055653413649226,-7.343835836392254,-18.455807129262315,-9.626783163904976,-9.169604536099396,-20.751595797765024,-18.31438489349583,-11.891696997433646,-27.303985928427704,-12.34877437510453,-24.56969077855536,-18.945060574604998
0.6171875,2.9716368606665458,1.4888733951309017,-3.978526370239944,3.7350001915184388,0.12641664478680048,-5.869844842399358,-6.493476819762028,-14.502545743966433,-14.789647441953926,-7.116217883359246,-14.881481637205829,-0.9928142551302794,-4.497383122770819,3.324477019176758
0.625,9.506806450579477,7.223556952479109,-2.6450388490337384,6.546699749320452,19.92075002305064,-2.23993740852124,-8.577658098109765,-12.666598437381372,-13.268764674405807,-7.31156992772356,-11.756871045319478,1.686524083753744,2.1121865544698317,10.986742611993783
0.6328125,-3.075879363178061,-9.27837140908961,-12.28641161900932,-1.079587646465423,20.90063142280682,-2.3269486216712845,-14.091162153804763,-16.233571845952785,-14.277347889405236,-13.524272531901161,-20.411621902361926,-6.740490526425245,-9.83609887981344,-2.1147556973356076
0.640625,-23.88122707807425,-34.41666768265728,-24.89171919723966,-12.077982030380205,-0.31823263877939323,-5.491100589919472,-18.303234846426225,-20.80326549264695,-15.377563003927072,-20.610145012575746,-31.960262760440646,-18.01686891380429,-29.36831268893728,-23.941065716569785
0.6484375,-35.654259170370224,-48.55860004271039,-30.23221764984684,-17.109491404233857,-26.96947577951759,-7.374913409925099,-17.554957201877222,-21.116591924680534,-13.481604735591391,-21.230440450202668,-35.196064633508584,-21.98645129821848,-39.56638921668815,-36.35653242713914
0.65625,-30.63069626128023,-41.97400937617576,-24.992699972573867,-13.469869190602477,-37.37674571395958,-5.0302618792373455,-12.381079341924412,-15.284393121794137,-8.502742997014796,-13.246394282275189,-27.395960480541564,-16.211495588930152,-33.29105415076374,-30.835943159599665
0.6640625,-15.08276168428157,-22.05550672248573,-14.47718735715596,-5.7928294120868316,-22.086108851111614,0.0038456804384682736,-6.943121704803644,-6.842552345355342,-3.192896078950177,-1.8338238747783921,-15.30082814198616,-6.7637806257098685,-17.267832093721083,-13.77776873911606
0.671875,-1.5298027643634757,-4.120944900685967,-6.957220745623149,-1.66651604937665,10.185270203358959,3.7538126830788268,-4.7244666799718695,-1.422965369533823,-1.2575016501008358,4.537115316831098,-8.79974275916743,-1.4381183807894125,-4.480145702258439,1.1595768368619186
0.6796875,1.1280232567656125,-0.23858104423462792,-6.34586284204523,-3.601991445373584,39.67025699100735,4.169104870890412,-6.372957183683278,-1.7205324390668855,-3.6454993171270282,1.7856101785617957,-11.73379417805668,-3.075694019384834,-3.5591754860194023,3.2931605740675867
0.6875,-6.21864839417621,-10.415559877362107,-10.631861670380161,-7.748551296431828,48.18682037903915,2.916016564697331,-8.70345625902217,-6.064726437941447,-7.350771908983824,-6.679253681041418,-20.08274318201565,-8.717188154847685,-12.78933413264892,-6.999401779439574
0.6953125,-15.812729620494846,-24.80199481888912,-14.722074857016993,-8.261559804532425,31.721518534909418,3.200844567745247,-9.059213656355217,-10.194773898800431,-8.475702847626073,-13.234818285506758,-26.422942040679885,-13.100189244699685,-23.598762247503913,-21.070742387594176
0.703125,-20.739020514900034,-33.45553146836526,-14.954016626246043,-3.816987547036606,2.4310099517175567,6.433185120084728,-7.316445235001259,-11.982725741424506,-5.463996661051565,-12.528932928798282,-26.65857615754473,-13.227820440743683,-28.94079496664818,-29.577876096344752
0.7109375,-17.98061008718506,-30.775677631549353,-11.317735684123043,2.6367034711007222,-20.997815438315286,10.81961637573638,-5.556664061082802,-11.899476013757642,-0.6916589075049012,-5.371499051311557,-21.24202906730677,-9.43406456197348,-26.165999865871786,-27.592094046097877
0.71875,-13.588483781694512,-23.00864061593503,-8.405240436659879,4.224014791793605,-27.710632499425916,12.00198141719899,-6.40525576227773,-11.953653970617566,1.415336088614894,2.131589920196127,-16.23290662786049,-6.178741607575654,-21.74094825981396,-21.284370464588797
0.7265625,-13.457835202559338,-17.683188515784988,-9.67377071684012,-1.2374062258842733,-19.23315543831052,8.057302745796097,-10.472361684159907,-12.984492489918376,-1.1371603166070685,3.935183079626866,-15.454433600790113,-6.688203261127776,-21.51768209866633,-17.826348040003577
0.734375,-16.413585834672663,-16.34503511253232,-13.584081683433,-9.122123000590832,-5.592860368021866,1.2923715918555667,-15.09844581828833,-13.758158160681756,-5.756547869006883,-0.3935703843995716,-17.40317257681277,-8.8449609372472,-24.395711062542933,-17.44957861941604
0.7421875,-17.069980375862407,-15.504206149583199,-15.11264631473493,-12.192408078283194,3.929986744504299,-3.6804965277123647,-16.911036914316643,-11.727468236897005,-7.822939836824138,-6.675152596676232,-17.122302699752463,-8.35750450233584,-24.307189233399,-15.283968685175953
0.75,-12.730483348232262,-13.079962112428243,-12.307908749543707,-8.209273504589056,5.0545771140322895,-4.0410393786138155,-14.33046889424438,-6.784456291237252,-5.917589089281493,-10.475587191967191,-12.602359420934171,-4.396162695898857,-17.4861603323154,-8.765554131099865
0.7578125,-7.273018120417966,-11.197217639301766,-8.586721432459132,-1.942349172041229,-2.0548311046213694,-1.7104728665488096,-9.552983693649182,-1.8518322132150788,-2.407782434552087,-10.646047744321244,-7.898591932102885,-1.4887363751988072,-8.058972843243355,-2.028589583155912
0.765625,-5.844232218909643,-12.478426761377799,-8.532437535049466,0.11784366494247732,-16.258432043881687,-0.9184245964465315,-6.836883460842197,-1.0720318843941599,-1.36297262702603,-9.778043461095534,-7.612811629964165,-3.7675738897986446,-2.417445305439874,-0.3421333931759631
0.7734375,-9.182032841634644,-15.385041823441567,-13.259432483665687,-4.58887306893827,-36.18851059582412,-4.22906850053335,-8.626967167374819,-5.3886797976143885,-3.9625021608983366,-10.299183666960394,-12.847623674999292,-10.533630048369295,-3.4841466505062395,-4.446316565204675
0.78125,-13.939898378208767,-16.079974486196985,-19.529264481866683,-12.216800323220761,-57.01864890175782,-9.463557986001257,-13.392346113032426,-11.905090242668951,-8.441179586567669,-12.078801499184104,-19.84556914405146,-16.862677812951453,-9.322963393715787,-10.734728002878
0.7890625,-15.44303019398142,-11.60791550709214,-22.761226859598263,-15.646499472505417,-68.13874354647655,-12.005625417630501,-16.91107699287233,-15.788187067420434,-11.487299740019232,-13.158123676565635,-23.34467989059074,-18.285730432249775,-14.7815360098565,-13.892876465314002
0.796875,-12.598016499962014,-4.50103438892402,-20.99783228841696,-12.09584293422672,-58.87553480557757,-8.778617994924057,-15.737972564967611,-14.583062315035717,-11.1105660619988,-12.906184362640454,-21.134087860593333,-14.342746243785058,-16.699919763567806,-12.439564988929982
0.8046875,-6.865339990177575,1.3150671601524828,-15.283742130930571,-4.82167199407031,-29.104334589790188,-1.7073153813336766,-10.36320554100729,-9.044106326795708,-7.48822018602463,-12.643174367472607,-14.69020291132552,-7.670949782580535,-14.070841060178484,-7.453376212503064
0.8125,-2.6561669670240584,2.2528255792313647,-10.016145515465478,-1.1463449678954145,6.243954391347926,3.82599325612349,-4.849486543246836,-3.434387646455918,-4.4664240427536805,-15.021163893264251,-8.77173257069052,-3.0135243570573467,-9.689338965803579,-3.221097944773698
0.8203125,-3.0979170164780387,-1.5135579376591477,-8.786360972787158,-5.422586182327915,26.318428747604063,3.59086419758684,-3.2634712370945618,-2.2938741030713947,-5.393859737260545,-20.821913812341975,-6.99474561440968,-3.6576018600726603,-7.320932893131994,-4.156530434603112
0.828125,-8.34218929335534,-7.075443600465731,-12.070501980982522,-15.42483142213954,19.460651957613038,-1.3875999381447939,-5.860786851693392,-6.7668625324893235,-10.134315149991886,-27.843818968369813,-9.301588448401295,-9.566544011422158,-8.54906691009588,-10.280635873296648
0.8359375,-15.459369351518559,-12.080797318695442,-16.748423700618517,-24.51060526179355,-7.781062393330254,-5.595679604030337,-9.357070307055421,-13.289364849465196,-14.746881959944742,-31.78045620755394,-12.736109815144054,-16.35948582839051,-12.301777229475176,-17.89239074497972
0.84375,-20.672652062369046,-14.949632378125747,-18.78794503313932,-27.055145997661114,-36.05714553225466,-4.419782174313101,-10.08518814272407,-16.656265073514966,-15.171970934050627,-29.54066127848079,-13.741376444396034,-18.983979874855244,-15.955557508884327,-21.92693508626683
0.8515625,-23.677474338484824,-17.482693672338556,-17.159024693710375,-23.293132031804443,-46.56503773927343,2.397240713880313,-6.5689217237042214,-13.498224941593456,-10.582805520187984,-21.470658507850114,-12.252523923475728,-16.274222782672076,-19.357889895213336,-21.945936001106517
0.859375,-26.56396645677852,-21.93586193153996,-13.707976844503662,-17.366028434556284,-34.032163577924145,11.265743072820712,-0.21396778550682805,-5.462252541680008,-4.173452417429509,-11.245460467136274,-11.357087215423807,-11.107738506197572,-24.514465574260125,-21.577493940353037
0.8671875,-29.163734705851887,-26.425611888498945,-10.879138908870013,-13.062671499719468,-10.059841193682793,17.186492941485753,5.119294829147521,1.706985187372748,-0.05492931203333868,-2.9910118984578733,-12.796937322275626,-7.220087274352614,-30.493436813219233,-22.46052037492831
0.875,-29.076887874469325,-26.374449772246784,-9.932735077307008,-11.689971846721388,7.008216206104884,16.952606090304972,5.735516177406492,2.2220907106644505,-0.5508188182220961,-0.056736733124651655,-15.852862417918084,-6.469648138490393,-34.14855357587392,-23.360002615690227
0.8828125,-26.166611893066097,-20.808891545461975,-11.570835239120974,-13.418809395831476,5.180037775861404,11.2045065351934,0.9039442369429919,-5.878602355473953,-5.666593846301499,-3.569529843227461,-19.035946416493378,-9.903041759676274,-33.714084548913846,-23.632896540916594
0.890625,-20.452395522610328,-10.991146579151076,-14.094137882833426,-15.44948074368014,-12.737404585346734,4.685325744627759,-5.4821049474532035,-17.667987075665284,-12.198781646818611,-11.323906913933575,-19.309445132051067,-15.253828210451868,-27.546003428542274,-21.365898246066127
0.8984375,-14.233765288219026,-2.7676980981974784,-14.201605922736038,-15.174220407658277,-34.16497737260514,2.7833395378764054,-7.185414281276031,-24.1721856186626,-15.340978086790534,-19.054853695767374,-14.93565605235698,-18.178720880554707,-17.553330388933855,-17.56373858908347
0.90625,-8.443248204766709,0.6393234697641604,-9.435607554594503,-10.564280247224644,-46.70208293396707,7.805099566579981,-1.239339013804158,-18.84628235142397,-11.865058591191056,-21.401129005647174,-5.493689932788442,-14.175744364850525,-6.148113722216319,-12.37594071542742
0.9140625,-4.887290866239182,-1.676116442603549,-1.467959607019786,-3.1618770359070942,-43.296429490509134,18.08572446125546,9.407789426456274,-3.357798955834036,-2.9224016187524726,-16.828841452527904,5.291964549169431,-3.88876287992564,1.9151550117396394,-7.611642492959429
0.921875,-4.710175935712058,-7.044758350472655,4.99401433294804,2.670592299593923,-25.006535534397855,27.857029314242606,17.315619313551856,12.99860655589133,5.858050952546898,-8.084676598581684,11.840128769285723,6.283303051378457,3.594038621070948,-5.065870107381815
0.9296875,-7.305703963344348,-10.952469163261974,5.621978337514016,3.3509442084749503,-1.0495554415321007,30.321444867852883,16.48406692019124,19.980575574865668,9.607264780655003,-0.49193555653246807,10.853371545813324,9.478761137900074,-0.8647451638739483,-4.532584973033787
0.9375,-10.433639180332088,-10.818146841107927,0.2526955515074421,-1.6588090568454033,13.53306671721181,22.657078589334866,7.109976740870676,14.267841214365038,7.0113672357524255,1.8027804306295023,3.8929083281595735,4.093798179764583,-7.656271687600323,-5.955074803964663
0.9453125,-12.669563424160179,-7.707342835225684,-7.041491279988202,-9.33203456457188,7.102430305116264,7.683032149041907,-4.72432856888626,0.8304199390430739,1.0401275492023883,-0.9377115726619395,-4.548292211962386,-5.6355589995844095,-13.550728179337359,-9.570817464142777
0.953125,-14.683775026770743,-5.9558957439555344,-11.928680608461605,-15.223879771065597,-17.84146096181564,-6.393938466084806,-11.620782773660705,-11.168928745692927,-3.850614949390522,-4.557090350208581,-10.02418349147495,-13.97257983099186,-17.433971822510802,-15.779087494121292
0.9609375,-15.621889627339717,-5.435076629251879,-10.537161066478737,-14.362309041558186,-43.99883459766225,-10.983428701675088,-10.195756534864458,-13.72825046174933,-4.716212481930661,-4.034321165670046,-9.380934423538509,-15.454909797058388,-17.939041016760935,-19.870957913743148
0.96875,-10.99870613062417,-1.5014148423559852,-2.0027687657801985,-4.78336564464207,-50.0524820214751,-2.494556776738018,-2.673805292416604,-5.717815804213753,-0.767867746942023,2.603203859504799,-1.4805053250520488,-7.7427861672685925,-11.16314520445906,-13.907390488583815
0.9765625,0.3416275127352679,8.445153801687873,9.74105956132566,9.306846469391287,-27.41835084397652,14.071955427588465,4.920266750286863,6.9321589894758056,5.2059993672354326,11.271990760364531,11.1246750479122,5.069963747415662,3.101617241341721,3.0002280549150107
0.984375,13.517826390569008,20.620353538858506,17.976622984231366,19.968254027877695,13.62806851893729,29.358926867637052,7.248754947890779,15.397778442383256,9.517349881282748,15.096853564763055,22.2576385006011,14.359830861306806,19.01866233624478,22.376326723411967
0.9921875,20.317636201734548,27.442715645809937,17.430864995012698,20.694352805286503,51.245608813803756,35.800094826704985,3.8418847470610786,14.949433661656753,9.703580543107961,10.5409174336879,25.962388267703577,13.511433491710443,27.18659304222182,31.01527122864013
1.0,19.441269571236287,27.330793700849352,10.052333219154933,13.359806296078032,67.83491949611191,32.114871455797676,-1.6679249475024944,7.663125532705369,6.77224170769187,0.7581874405944072,22.11899773162426,4.921264617508781,25.481109361829283,26.3446343627753
1.0078125,15.038854261667213,23.674929368046268,2.535442058279418,5.128463816430498,59.71669332154252,23.684947440711362,-4.965015581416134,0.46238094088077586,3.398676207955384,-7.3180472834995065,16.038108299975132,-2.9478675114954433,18.950962684464645,15.723161326003344
1.015625,13.356493822414558,21.788312745541408,0.3798885273254617,2.3636996144035365,36.632309053906894,17.5644409994694,-4.742729245981895,-2.151277627869194,1.2010883589288925,-8.848102391052493,12.920523541371193,-3.883999259671458,16.048730313305658,10.263471414047547
1.0234375,13.777434598124993,21.6298951459325,2.3391933194518373,3.3709323864417198,11.741309685521204,16.95704739725645,-4.189726582113902,-1.491812464872048,-0.2782345807832661,-5.7774672061935535,12.645175364115259,-0.45403242322433995,17.58367763905786,11.27315341577958
1.03125,13.667699307890462,22.057894113850658,3.853036247788081,3.5177896160922564,-6.774702042360449,18.786998234349994,-6.590052151085281,-1.5163531775375418,-2.6797412208374514,-3.9673872590463928,11.438794558375479,1.394712024281183,19.97935611384809,14.702874445770664
1.0390625,12.372847754073165,23.084409357906974,2.139841372465013,-0.03114605038259027,-17.504124196984563,17.925959939095332,-12.406310584989745,-5.000621231610127,-5.5770663863207295,-6.65375223166977,6.724131536454371,-1.241297492144067,19.649004454855888,16.43049414229122
1.046875,13.97120478912032,27.66475273070263,-0.8624036742034601,-3.382900354834944,-22.295882809172213,11.808347182601285,-18.007668145996757,-10.171616457960537,-7.425758989424569,-11.330645150988166,1.7770720819562142,-5.23121644190031,19.56543163619153,18.352789629811387
1.0546875,21.633361915301737,37.390101692723576,-1.2991824305869062,-1.8125565604881506,-20.45082434555543,2.8713032701815213,-19.07742480535593,-13.028360817187775,-7.076348268397423,-12.669125511499084,2.46256640845665,-5.8627680571186405,24.760496509812818,24.41321447710812
1.0625,36.48705375969127,52.06133885714806,3.6260010042692308,7.2370406903910975,-8.426491705493648,-3.7575371671939424,-13.366291990310769,-10.079940858060715,-4.085924085336357,-7.05727789254355,13.29033587620387,0.05719209236229887,39.43192322942523,38.18227815325818
1.0703125,53.564374403817396,66.37742622629315,12.767094923497261,19.86837722266914,15.172980591192683,-4.35733075478069,-2.621896855662093,-0.8921480801100942,1.1549086127803974,3.848266433877113,32.00077043955879,11.436053866487486,59.64605519503947,56.235274505113345
1.078125,66.29020267796754,75.56456710726883,22.265924409310273,29.915935371663117,41.49928553561017,-0.46908296090043783,8.543393458448127,10.68896811391382,7.619835991326445,15.426293156703462,51.00951681994196,23.775620520696446,77.0411581137095,72.6400094531724
1.0859375,64.95971850065642,71.42661891477583,25.60707845039381,29.889860013646906,54.17190447857486,2.3961118316226604,14.212119352864159,18.781774782734864,12.937364267912175,22.017718851334635,58.9219723454777,29.452758222150393,78.85765128807704,75.51229176564644
1.09375,50.218629024680766,55.941541211221484,20.79297283007579,19.52543692367639,42.32039120032478,-0.12229306749929415,12.029774114956728,19.889062291114804,15.454915925303256,22.23649027080345,51.93518901727114,25.637206392751537,63.77495534255698,62.54368072152027
1.1015625,31.35482008322876,38.31170095975576,11.261367871166996,4.592363944522472,12.238358332209401,-7.511592471052662,4.6644180009491905,15.513982503968272,14.744410351692432,18.601543368301854,35.96911506083468,15.787767177798075,41.869102471484005,41.34600302202626
1.109375,23.96504922668362,33.66465772493153,5.51450834551289,-3.564340776807265,-16.15535732310586,-15.028227803510125,-1.5952664234501386,11.321640855772689,12.665399060767372,16.662468171103267,25.01990093623237,8.733743641469848,31.998435233127495,29.937789672247632
1.1171875,34.57367442051179,47.073322413132765,8.655772152143594,1.2434513676560544,-25.354128547533186,-18.18534665598081,-1.9899899520294952,11.240009025051334,10.93113590058432,18.925534809037877,28.235246661708047,9.676503989953202,43.68767460684581,38.176762566299914
1.125,54.2502906991707,67.79265201788748,17.63314798697185,15.118454370007116,-14.954946317022676,-15.828656860914494,2.817488119122451,14.019565391128259,9.692108916676567,22.870376500851457,41.5057404315681,15.39081508883489,67.87378895859936,57.786333123086564
1.1328125,66.18956820371898,77.41527618594377,24.1190068381024,27.028381086078323,0.8307614688116289,-10.778568228922325,8.016001348163758,14.138263584532167,8.036512532973843,22.426431569133406,50.8972956604794,18.52064293023441,83.48747884898764,69.54180317901292
1.140625,58.88722304768223,64.87206431892646,22.319191801388055,27.958734720033426,8.29158399533001,-6.751603886948975,8.375268898401641,6.907642472657112,4.862500297394921,12.93842065990323,44.33080411397348,13.884911499609288,74.34496080655573,59.64213565939781
1.1484375,37.697919859904786,38.91001799548231,14.009036896032473,17.995863692456656,5.617783915955887,-5.92906256553701,2.481120756362879,-6.437247443921912,-0.060530115254300736,-3.55253844209189,24.42226640104816,3.616821370975244,46.04000402632962,34.45530286067743
1.15625,17.45164462773095,18.362624701885444,5.6666162901853765,5.052420946345986,3.191139527306489,-7.797359684372424,-5.874889307140903,-19.077406957680928,-5.300108325836226,-19.14181151363172,4.83285505081271,-6.1406675311436905,18.01024898883599,12.128490244226974
1.1640625,13.70291856260653,19.560822979449398,4.620808522438186,0.29533756604803224,13.09979330805982,-9.663935209454351,-10.250600986285036,-22.641041887296975,-7.633551092555227,-24.59856173192157,0.6548190621269385,-8.297640855126753,11.151684198368292,10.764794264843797
1.171875,29.570639285151458,42.49580113058601,12.97857518337615,8.2858137028424,36.61447323123358,-8.710618463155312,-6.571843115306838,-13.571328993761103,-4.717371074986625,-15.065896066211227,15.65443365977081,-0.17160075966369945,30.146300183909688,32.84431654831568
1.1796875,50.9100546545951,68.51725618778677,24.693277109703246,22.30652633573763,61.52081687997942,-5.703472365026876,3.1334257152811533,3.0405397124111233,2.03294700835847,4.407652789292984,37.80075173865899,12.602720234732418,57.36776012862958,60.39706678614394
1.1875,60.09794024737069,77.21079898933931,30.70969273358264,31.290701614214036,72.23514589669925,-3.9757749874587764,11.978584098955167,16.952547075764727,8.310543790772744,23.768816262956378,50.24777094992138,20.441078576360294,70.81166554821652,72.4851637107726
1.1953125,47.789443045945006,60.03565755964983,25.94394598358185,27.797257917303703,63.23963286424654,-5.194273368711204,13.988580908776168,20.401980721034285,10.141453248678385,32.79567165221016,44.25795339333643,17.030654399747146,58.81306686076244,58.48973734030333
1.203125,20.273245172139244,26.79572413465464,13.196627476041117,13.792545803795,43.44421289705647,-7.948429911144242,9.663310439062904,13.796734640136672,7.0024709349377785,28.894293054625766,24.86347289418193,4.65332415132417,28.305419172339306,26.612302179403116
1.2109375,-4.2120940198325,-0.29840178602240686,2.289238971445139,0.2002839309710909,26.916137407256315,-8.522440960590604,5.018599199410716,4.604895929405949,2.400595289300026,17.28816808238134,7.402790550086638,-6.666723387687774,0.05491545269328925,-1.3419436912675065
1.21875,-12.78999549701884,-7.362498505042008,-0.07143148166587865,-3.6621986990341866,20.770550958151897,-4.865101004058256,5.710245035654858,0.8299835358446547,0.7760220800904686,7.057558865914057,2.3541451347765765,-9.264686711789704,-11.150865908607237,-10.457336550498882
1.2265625,-4.365178275094169,4.9380115881280835,6.818603979473986,4.050847983367161,19.605971643492527,1.4843832302930324,11.863096096472843,5.021127000188722,3.915558948943114,4.832746051992485,10.000408803990945,-2.4309814695966017,-3.2806146314386435,-0.022618075971708392
1.234375,7.280636949925399,19.091141713822093,15.583054888093171,14.220152105372124,11.473428088792174,6.041031124024915,18.03897595478244,12.909940970216024,9.423333910933223,9.018382671907125,19.260992152836796,6.363659864079941,8.830405218829547,12.604986309665357
1.2421875,8.02654974631287,18.594991265836864,18.52323645058066,15.972625121790776,-9.912667788119029,4.572906110808387,18.440644485474248,17.56938302957767,12.81632010224174,12.90382012112084,18.859576161265544,9.1336760148203,9.867414082979055,11.52572273408596
1.25,-6.226432110440513,-0.24946732114301753,12.482246913641122,5.804187005622532,-35.04601503398276,-3.3015550548654313,12.021632286315242,15.274021802465736,10.427534040419323,10.514446277619177,6.086404073358177,2.776334945360638,-4.7013024574446955,-6.717217043755623
1.2578125,-26.872775967799637,-25.727546013237188,1.2056286442931845,-9.777775484353436,-43.59294201487339,-13.738886306934175,3.894714512726662,8.494159239783219,3.2792845396368864,2.2360642579671826,-11.001806986082128,-8.588955642425987,-26.041327307070866,-30.194754760345393
1.265625,-38.43554957560277,-39.96601783672255,-6.693652864300345,-19.54514317703746,-19.285242512773372,-20.456269687125943,0.5198114048044562,2.869457074799056,-4.074313884949677,-6.205410061846228,-20.05402277439065,-16.493612886853334,-37.90851398599226,-40.75279594661123
1.2734375,-30.38572885207907,-32.7283421889015,-4.6770993620729255,-15.79761887691551,33.887680901649404,-18.32860485053346,5.330266594223639,2.955636391471642,-6.177777947220925,-8.632786539764101,-13.521239929361974,-13.476093468668845,-29.95366803895384,-28.514190714937133
1.28125,-8.432329131348034,-11.45361569747169,5.395637872949967,-2.20750177774817,89.88980653749951,-7.610463941988265,15.018180776941566,7.771520013713329,-2.21387679419481,-4.59231939608465,3.1287806849487345,-1.4159073282593,-8.309645134281237,-2.509600722526465
1.2890625,13.376257263630915,9.442186650026683,15.861246077066733,11.725725295415891,118.10080579720167,5.930047253505197,23.256948753140488,13.48542742691502,4.554123339339683,2.011092539321647,18.39317447483918,11.267452167609004,13.202846963530266,20.533097958819297
1.296875,21.10931167118727,17.139124301453144,19.48232174517835,16.90287269750502,104.57715056407491,15.113637696618582,25.53926319801665,16.675391978404885,9.41051779905359,6.629333334716096,22.593505895731713,16.00674842452086,21.394266025078256,27.212087861633446
1.3046875,13.338100846574466,10.657673935119496,15.747478828918592,11.807344955745485,62.93873944634475,15.965067132467787,22.640820844353964,17.37284428757738,10.579118680731193,8.43832641530499,16.572348514219712,12.021225514784792,15.399571362716738,18.145813622938
1.3125,1.167537461087046,-0.6252903236072087,10.822208364122057,3.944236658142307,22.508010939671994,10.792364836403612,18.93574092080255,18.345188221856866,10.074901452737622,9.90861202487454,9.423200947751758,6.554711494348638,5.61359159156798,5.06905524310393
1.3203125,-3.4231950243358744,-5.771637122295525,10.404850240940858,1.1492322852426318,5.719068255790698,4.978824530389824,18.55218428302442,21.120467994130227,10.706989238894948,13.22472396969443,9.353615443022921,6.240270621372633,2.9478979955102664,0.20443142683573634
1.328125,-0.03764323306076203,-4.042673970588923,13.45411150227955,3.4638374765783255,10.844644584700236,1.8578451994680303,20.862958311456808,23.988030170410333,12.264651040375083,16.798436708712263,15.01092120070539,10.131478633959967,7.4580590570651175,3.945210303105297
1.3359375,5.172078328264134,0.6043742353627573,15.607289069311383,4.898548513183882,18.247555142512404,0.2762912164194627,22.22340437275402,23.9350707350683,12.772546857902384,17.52907636178233,20.10755845337357,13.09263588463832,13.671719350005285,10.659210180277933
1.34375,4.397221585739672,1.1378455427099314,12.5423738482967,-0.4503008916139336,10.7142564470036,-2.8407346472219266,19.705704719541522,19.81723138772249,10.464223000483154,13.860794804674438,18.16505251541166,10.795902317693512,14.08153016971191,12.2882676883964
1.3515625,-1.8955633719652112,-2.67458766977451,5.848424321995685,-10.885323056048977,-10.78940745128273,-7.364790398987452,15.32343639208415,14.361348870175108,6.368258658396206,8.709384968405617,10.755928501372482,4.916532499861716,9.454128168190186,9.048218798045411
1.359375,-8.547998857099207,-7.4777659928401645,-0.10450482715880242,-19.729214871888253,-29.9749645866541,-10.346955440205447,13.436299553850684,11.159877898011942,3.4365136729178243,6.055940130654771,4.30401104095763,0.07907088021286386,4.041946817520402,4.429190795478456
1.3671875,-8.169822852102728,-7.402373387731957,-0.08171637402741459,-20.299737017587198,-29.80263253622674,-8.585227181627037,17.067156976867278,12.055523599918935,4.476002137507072,7.734102515086442,5.596094628215593,0.9657907425574193,4.538739762623362,4.789808260484007
1.375,-1.2278624896214452,-3.7980791011115413,5.684288112390072,-12.83770894639554,-5.6333172400702685,-1.8215053219814719,23.29724830272363,16.073804820407503,8.946808301135478,11.751244527199162,13.163976628656602,7.274459093797193,9.76897130785825,9.019537751597364
1.3828125,4.808233996978723,-1.6926587670944762,12.035788980533486,-4.083314315469585,28.757504245008178,5.840771012499725,26.601760922675524,19.55920964958018,13.47941623548438,13.331699447542631,19.383520011794815,13.356756669605378,12.425728364097772,11.443789403646027
1.390625,2.6151931663308163,-5.185349398288929,12.218293795471638,-1.2656417141467342,50.17352393730006,8.758742548358715,22.599036321402338,18.913391775586526,13.635534761686042,9.575431047965779,16.79071303785306,12.76951622576454,6.29493258488908,6.1513984076349795
1.3984375,-8.7333538905072,-13.698438090554657,4.116622863898365,-7.17153553614794,42.550437635090766,4.11476725577155,13.075675438528918,13.45277481977064,8.110584110452532,1.2703004956766717,4.44867764178483,4.184641353262372,-8.156957975671922,-6.755368120941446
1.40625,-19.14817474929411,-18.991804094694146,-5.996172860820206,-16.111522456803293,11.417577349004334,-6.426515784180181,3.2394744591897324,5.690965758307466,0.24166900575406303,-6.721837416677934,-9.233537980110736,-6.178991702701624,-19.694620451925125,-17.197509206987643
1.4140625,-20.906132441340134,-16.740310740292475,-11.03041522131854,-21.83064861265711,-21.344544097532005,-17.73626932793827,-1.892696353761473,-0.556415337786792,-5.941475793460052,-10.191079524345694,-15.910291257042198,-11.526371329347416,-20.578163622002226,-18.219460965572353
1.421875,-14.972300408812025,-9.957661949530596,-8.571074557707373,-21.698814681318467,-36.24683612625524,-24.558035108246305,-1.8818907348087883,-3.2943311197389185,-7.993310695351589,-9.58218297905574,-13.838935696515207,-10.421960679135687,-12.719387347403273,-11.295431703900531
1.4296875,-9.055794049351995,-5.679268508426218,-2.3704173443531653,-17.50793777642674,-29.924366777301174,-24.19759813002956,1.0993238227843818,-2.9702377414500494,-6.187320628481915,-7.531856427174581,-7.827704383250707,-5.828156472699333,-6.15659830741313,-4.7625785055093806
1.4375,-8.47799926244215,-7.230620051940042,3.1280160301922564,-11.930563037972208,-12.185007938092197,-17.808950539630924,3.8071031255758987,-0.3220501458149997,-2.313358034020104,-5.615074172326975,-3.36803886426618,-0.94764160283372,-7.448811919856384,-4.195802548218882
1.4453125,-12.793788170124847,-12.781530463733592,5.78819081853129,-7.477958963670537,6.155155922727108,-9.493915439286845,4.900131014698592,3.629949392937243,1.411691681985529,-4.027531156410712,-2.9425387350387537,2.4457246637780314,-15.71252344839668,-9.669066218554875
1.453125,-17.472716023261775,-17.453660257326156,5.546300869754076,-5.6196011423103585,19.351648405220715,-3.227537627887955,4.251137982745126,7.730288364182825,3.369573940550057,-2.794545873301473,-5.025723175802466,3.853848729510104,-24.121753354863543,-16.535939672163984
1.4609375,-19.519654244197582,-19.962826343875562,2.743895937729096,-7.28293784757716,23.645418067122506,-0.2932307260586093,3.0825577993774425,9.684936734618022,2.8874698979732454,-3.115838940881744,-8.064053079693625,2.823702229867704,-27.730233234706272,-22.319565776585296
1.46875,-19.96713173802083,-22.154657018913145,-0.8996925699786515,-11.973609317714558,13.303482237042486,-0.4359813534966572,2.0169065643055952,7.978648981308301,0.8053420770107949,-5.88992655202794,-11.612639179369102,-0.5523286020041291,-26.796068547935867,-26.64195631106271
1.4765625,-21.736360508804587,-26.2569524624069,-4.351266054083047,-17.561871235103943,-13.74327887961103,-2.629834962971061,0.9744804698780509,3.1729372586111806,-2.11467524249743,-10.081605508091066,-16.52492999644547,-5.059232788494633,-25.768170860926116,-30.877401356213408
1.484375,-27.80960528268805,-33.6750189260215,-6.961868998200163,-22.339216484830644,-47.692159352107566,-5.2089012846801666,-0.004612363420911406,-2.045574350782903,-5.396363162034079,-13.896690372587988,-22.757204030346205,-9.455802046721196,-29.527302341383386,-37.231400896574044
1.4921875,-34.737653779983546,-40.1004160130252,-7.983299852987646,-22.81143481323467,-68.46997215050595,-6.3743935768548035,-0.13859336598900204,-4.646689011419469,-8.480959850662494,-15.467482052412544,-27.44409232612112,-12.259722976120182,-35.85479866824041,-43.283076651461094
1.5,-37.14235786255728,-40.746484672295516,-7.241654680840616,-18.222676861019004,-60.53553297557404,-5.616013015639062,1.2986975517316577,-3.642558746526082,-9.816495890781232,-14.64403356031495,-27.471795083818606,-12.199196442446167,-39.79819270035356,-44.686547333778066
1.5078125,-31.060933883002946,-33.4307774533988,-4.964371990127605,-10.605046006856362,-25.07062705515558,-4.0870629631539055,3.887043448273391,-1.0388586280427978,-8.95980490159731,-12.614029398137236,-23.01083713576308,-8.953559694399493,-37.00099585668311,-37.99935468277351
1.515625,-18.840080121204732,-21.1158859414553,-1.9811266873505604,-4.386812122780299,19.70964629104465,-2.683817633192938,5.318691234592587,0.20266434678823975,-6.688187979164446,-11.46342175062274,-17.358215665984147,-4.373421032810414,-28.623832838742118,-25.824620420685484
1.5234375,-7.570750042310395,-10.940107590347292,-0.22117682573618241,-3.1437859822722714,52.534554585568515,-1.0240856602368473,4.698345019414051,-1.0302119398990643,-4.05539178387599,-11.576398700746314,-14.833590577952686,-1.5108040025161744,-20.569540316730727,-15.75490810597964
1.53125,-0.42069357396522583,-4.93221153821919,1.3249027181612718,-4.063607806131146,62.663819215033755,2.9461043245560936,4.10937778984017,-1.5775485400085896,-0.7335731204220973,-10.863931474202273,-13.843688723297882,0.21963827916697845,-14.865027700881157,-10.82042732217487
1.5390625,4.574180387535713,0.42408451072397035,4.564446810262717,-1.4825183571877425,53.60499660666921,10.377260219732399,7.022161423538634,2.0788778057683435,4.0777153765115,-7.396023584227066,-9.011587483125606,3.602843659716724,-8.916188701545442,-7.393292052195748
1.546875,11.278587943147675,8.914304508544632,10.213292778226084,7.474729146082124,38.129288784807976,18.57970518395793,14.043331116166113,10.479217473524006,9.786006744068496,-1.7623348875260654,1.4174765661797792,10.424511928774457,0.5546451339730337,0.17846392011765205
1.5546875,17.127773537525666,16.631548949508893,14.870536312895851,17.505271341560757,27.708414221467883,22.550501877189543,21.23636649861279,18.83968844813944,13.182369098879462,2.8544198093918087,12.004228497674973,17.070341493149357,9.92555139032215,9.839516970836335
1.5625,16.72474125311886,16.489187885431924,14.551887585770116,20.141975381285192,23.857736015232106,19.086336465015588,23.056100126458436,21.08590153659523,11.856745986406356,3.9661166817064846,14.36067342541002,18.3417727342659,12.448208033818004,15.040678954146193
1.5703125,5.932315115505079,3.794088086366756,7.911548997100951,11.02531947112066,17.06495405294567,9.856249028139286,17.24353847210212,14.303769355810099,6.566393815695725,0.2642533621331866,4.838903412379424,11.930430056769616,2.7531919839301287,8.834383112740023
1.578125,-10.644842827661543,-15.35709012923744,-1.0228132006845565,-4.605493485036653,-2.248226674347285,-0.013494050823952228,7.75378059051128,1.9770184886051796,0.456095271090041,-6.587772649680734,-11.24901983404534,2.2870456127803243,-15.448257188624682,-7.124954782356791
1.5859375,-24.153873259549997,-30.353905878689766,-6.830275311526849,-16.14695614761708,-29.36163837753892,-4.88144782201746,1.0431449925825211,-8.57098895699406,-3.37274370669674,-13.485689635224793,-24.113831477008354,-4.88775422297788,-32.056424373214696,-24.498704101429063
1.59375,-27.74697918421769,-33.42827026651558,-6.575803773884077,-16.229268924414725,-45.7765906914064,-2.440677485485828,0.7858558835038548,-11.081040645227073,-3.48874180072242,-16.655324487171725,-26.30897326118124,-5.955118860879513,-38.506937602706046,-34.52496101433578
1.6015625,-19.342697374191797,-23.331179007724863,-0.7222155120417106,-4.78787944119239,-35.7273680682107,3.8458086728760246,5.546507617969838,-4.318479233950564,-0.4549654600197929,-14.123118882276726,-16.615673950898188,-0.8409993506624844,-30.876771985962346,-31.158764918507305
1.609375,-3.1501028165300653,-5.207270601043261,7.31124887104955,10.839311663529585,-2.9555635337883395,9.10578255749974,11.395518368993905,7.499599940571875,4.08693929704446,-6.756430175900906,-0.3679736857788683,7.569799585969155,-12.90066079302019,-15.405654854085554
1.6171875,12.01387788881386,11.579304444602178,13.22702928639006,21.45359290608319,28.330377373308217,9.751094704083792,14.670276665950306,17.156456610558696,7.719497730573284,2.605499191398729,13.533199554936848,14.75890302312506,5.615047722302527,4.049858881081171
1.625,16.210656880565498,16.419931038662284,13.538795114538132,21.06518347953333,33.24648708890376,5.911219873519532,14.422110946700071,19.752794879180875,8.566437035901197,10.73116042944008,17.40951851411318,16.24668749804109,13.396382309690596,14.20844037852928
1.6328125,7.381258103278656,6.581824377427895,7.949609701197241,10.672947983334112,7.055052881648231,0.9196997526142945,11.806436204131941,15.835255855862842,6.853632252432396,14.90529828272994,10.093317897300254,11.767709643632747,7.029056541745562,9.17772641747697
1.640625,-8.000744499755323,-11.579620193557407,0.17279582545643463,-2.380507582417631,-30.964877060645378,-2.018050195962508,8.626866406523016,9.561784361435974,4.789874223073306,13.859535031912381,-2.6436066385300503,5.269026262617237,-8.31299012184184,-6.621205094970759
1.6484375,-20.11812704954392,-27.218009260798528,-5.32330446814241,-9.530017453387549,-52.853948454178855,-0.7250171937885476,6.935780924384464,5.917139949429839,4.084105188378851,8.80516065937561,-12.600693701225373,1.3103265385425513,-22.646371257944864,-22.356423952732143
1.65625,-22.027437014560082,-31.840763654400327,-5.33264732657943,-6.468781503975021,-42.98750885536876,3.645354420573679,7.909522462110296,7.184039445324831,5.485444620167245,3.817486172799787,-13.840995697050293,1.5969798686935972,-27.11432804727147,-28.27690140240998
1.6640625,-12.44753920918614,-22.812689316851255,-0.10921193961114334,4.173023712888495,-7.6254545433571765,8.272142835050317,11.372190729943622,13.05969217547101,8.488323814291196,3.120992065247782,-5.4964045449164285,5.951871816070781,-18.52978094604567,-20.674798382256142
1.671875,5.517350451971308,-3.553211040309002,8.789014811468142,16.4573310658055,31.66663858634609,10.7206120910968,15.907417962722949,20.304170016855885,12.55951838380105,7.403646089033686,9.255979488877111,13.598031760970786,0.472271062146232,-2.1390817089985372
1.6796875,24.05489021246896,17.513170706702613,17.76512906919656,23.916345113558975,54.20621518504764,10.349435691778782,19.22445784040793,25.19963509835761,16.182944135300414,13.672882434903016,23.994905878798853,21.830760227891684,21.124159303674677,18.24422418008543
1.6875,34.447944929356055,30.628712369416387,22.74051601593437,23.593039541743725,53.26638886255847,8.699099399854525,19.90131044175067,24.883141668277517,16.97873967425578,17.884558032887245,31.803941974645987,26.379101883892933,33.533459967519555,30.4880026099278
1.6953125,29.892734604582213,28.42408277084146,20.51669925112599,15.77371549094527,35.52275894237286,7.43473171678626,17.558438418591358,19.65667427907936,14.0249165345843,16.96555505724031,28.125804199745236,23.81402777374208,29.51359344194765,27.158571879794383
1.703125,13.787229149222192,13.455493504378255,12.80752749482777,5.443418224749207,13.621001306631184,7.068458493206032,13.365899756658415,12.822053297407628,8.785414566277485,12.184333727940512,15.68290534657358,15.55580382940022,12.471687555788826,11.266746678602273
1.7109375,-2.589711566823781,-2.9624497853425105,4.687481218262965,-0.9727759398121063,-4.133071652595818,6.574031657926295,8.754506101615942,9.08890036347041,5.466528634948178,6.687575941262894,3.4068543503866398,7.623966562890563,-5.52080908618483,-5.6614687850484655
1.71875,-7.289153385614484,-7.925780321341016,1.6493667696901915,1.0920285126684754,-16.148361561284737,4.6685432203487816,5.06627692657234,10.324010253344758,6.4841583814021915,3.4457579173548623,-0.3116971338589736,5.204911781846785,-11.050435003827133,-11.31280156284133
1.7265625,1.9467661317153686,1.9708162903441606,4.082478792300359,9.850610995088301,-24.398390225441073,0.8393803078873121,3.0075321462355618,14.089029944265127,10.642738409916108,3.5212698229300825,5.445497139675804,8.54077951128656,-1.653840569824115,-3.048090574742852
1.734375,17.265487000628436,18.314550814559876,9.34457691375142,18.832076153210295,-30.117367382075237,-3.2461197185592727,2.613251832583632,16.123082800814085,14.302970258462343,6.478951262979496,14.810364941642323,14.047085697772847,14.635419146381683,11.799370534949158
1.7421875,26.053925774349036,26.256435727570686,12.796484050222457,21.413644972250957,-32.3103265869713,-5.277431365252703,3.2895500065770453,13.531770935145133,15.231342707179616,10.95853534684166,19.813831913334724,17.310787687905762,23.795754734402824,20.12306407736628
1.75,21.927368056880436,18.754322288082165,12.439677957997183,16.121170159196648,-30.339879593149234,-3.2041095314351375,4.137093096008662,8.007343950060346,13.52209805057395,16.022602272120466,17.824747749072667,16.625953374139467,19.513603647369898,15.549266327783581
1.7578125,10.58885300037633,3.1311641129830003,10.031020425713427,9.34100819764469,-23.866020388392425,2.9738369546157735,5.09576368133284,3.793331287741878,11.065458685951878,20.603116169096424,13.096835223099689,13.721926901562531,8.543985476249654,4.158531471849966
1.765625,5.851954679386466,-4.098744461092525,9.567899044035235,9.161148148696029,-13.935739745502808,10.048501627552934,6.391700045761239,3.9983194299243703,10.142535473616245,24.219880561924118,13.163688645541864,12.976054811213288,5.122060659632923,-0.5097416636688703
1.7734375,14.52445484935399,4.974245775707346,12.829978024117779,17.29018920741312,-1.8757958052880477,14.173662059562911,7.27114444317483,7.924778986720201,10.459057154889411,25.741198781014116,20.03187656611022,16.35075619927993,15.611561563454742,8.080592305822643
1.78125,30.897268272391965,23.429194541536553,17.552421833271236,27.336756262496785,10.199464774081154,13.553352783662055,6.6699269064742985,11.375486817733991,10.093766641385686,24.231810639746076,28.974663165488437,21.67084435723396,33.3261886914869,24.352129686923902
1.7890625,40.14983276834447,34.323800583012925,18.74854757690408,29.774110029334476,19.69857130293388,8.958922920590995,3.9951967991007393,10.31070346523829,7.204204868963818,18.867164230129553,31.95223306517273,23.014430115001375,43.04116101888884,33.63413119468505
1.796875,33.240280930328,27.904858347861893,13.555588632002422,20.95563104998735,23.989678544806935,3.3397876263213715,0.8750047226213704,4.530065396901295,2.0129398784715113,10.974413310846165,25.05494150250746,17.13351190752401,35.58305522520708,27.024496771308222
1.8046875,13.892594134661126,9.089646042831744,4.9607939718581795,6.290758269551114,21.387259878791728,-0.7393289102632707,-1.0257745657337165,-2.267465308115492,-2.4161558840196027,3.5810327173176635,12.761116981923434,6.8940988038505004,14.981783066719492,8.634355332480544
1.8125,-4.881474443776305,-7.908932237848357,-1.617450367807236,-4.163635183863984,11.680676068662574,-1.6106523981054925,-0.5460797104137947,-4.932001275626609,-3.3250529059978478,0.4367689495511236,3.0325272989438306,-1.0588949563003096,-5.30191103498979,-8.922864301054824
1.8203125,-11.174944830451137,-11.380099292835439,-2.2942698608151524,-3.7262915277503854,-2.545694709927277,0.7228798390061811,1.314824433031097,-1.1408449452383858,-0.07331395491674585,2.6339638147295883,1.0442404327139,-1.9150989475060431,-13.082162469808967,-15.421276884070966
1.828125,-3.9114968038357487,-1.466432445168355,2.1491021051493364,6.410471683434397,-16.248315521467184,5.621128509709068,3.59136566183682,6.8877430425862745,4.84429718996918,8.204685765449097,5.563799166098363,3.6627742342343153,-7.127023417573834,-10.429851467316213
1.8359375,6.469316782509813,9.745408955941224,6.521268214971821,16.907974272774844,-25.07244455394056,11.031359389387992,5.179417641994037,13.829122337400603,7.4541657530758,11.935905389377488,9.680546573826302,9.76540360242723,2.228239580295867,-3.868139150344461
1.84375,10.684731557782788,12.3140265911067,6.623608010348464,19.04630911099548,-26.18903380073355,13.747088996563207,5.876919939068661,14.769500314958973,5.461500053288049,10.33307206592445,8.162956206338183,11.849461944614745,5.623421661441867,-2.4492429810841214
1.8515625,4.256873667630607,3.0559869485542794,1.6678454902059208,10.110547722125341,-21.08508062154239,11.205783876921739,5.745589879301549,9.322939120198283,-0.06793800154893405,3.350624295882814,0.3290023593380252,7.607414075651451,-0.7143892957206271,-8.080290978803742
1.859375,-5.04695402672331,-7.93916919626718,-4.302659003772614,-2.4413266525288275,-13.21420370654152,4.177233805736575,4.967952863626807,1.644421525434473,-4.471676574991639,-3.640033196032569,-6.733474516908039,0.9657659219350994,-8.50651724239514,-12.100920796729866
1.8671875,-7.725949263325706,-9.692772483195055,-6.056231875578535,-8.78813520722215,-8.556224003966369,-3.235301668216772,4.500846373433066,-2.6661394464495256,-3.5824673210637124,-5.048346815072846,-5.817097834868844,-2.0843328971336725,-8.72781239204885,-7.324448089925587
1.875,0.014095937350403114,0.8504139645338129,-2.486335172936884,-4.712596433311672,-10.655436789489706,-6.671861328218066,4.482728019837077,-1.5094226296393687,2.4989241338987167,0.7823479370011036,3.66055318141618,1.085764228939482,1.013979459631715,5.684015923219523
1.8828125,11.05613287094718,14.162322877355537,2.735144002831746,4.484904784928114,-17.13210976503075,-4.721043998403049,5.207063364439955,2.807684238679837,9.379661594135017,9.893139261548049,14.486734784298335,7.390449618099358,12.19731860746542,16.611705528083565
1.890625,15.759122701052421,18.26880662253548,4.630860879847941,9.777047857475525,-19.180996634085705,0.8215044172594708,6.333921086419472,6.332276495515571,12.552987956632665,15.694147772659084,18.203840754132134,10.762712488814856,15.384617786448533,16.208992773711692
1.8984375,11.792079659775974,10.94979991685132,2.758755748123613,7.478899655189593,-9.902168618495587,6.877251033755461,7.885176750994464,7.78712096460629,10.939369980101986,15.049081581762897,13.278284571283281,9.297863606609836,9.703208541036135,6.116356964480693
1.90625,5.300066521275348,0.821227802739149,0.9662748260458787,2.491396055481664,7.893886559792927,10.623722730729884,10.73420512644517,8.807230800012592,7.959404430428557,10.490467578464456,5.79022528590075,6.089696258340017,2.588162283263476,-2.7859877637565087
1.9140625,5.257607694041613,-0.33552734245419813,4.329091367337533,3.7366601087434117,21.23706347097145,11.547255165126444,15.235854776029806,11.757127360868827,7.012711813218708,7.781385266908588,3.980948127105947,6.888519013527351,3.377793093736478,0.13164637458635345
1.921875,10.071291170005585,6.595923332266855,11.048355186697044,12.087569861826976,17.728481257274552,10.546843475055375,20.03720270621919,16.485162150815803,8.637351651027899,9.889620158963966,8.656547131062425,11.33417980293119,10.093141891282064,10.977349092867662
1.9296875,12.305205016410454,12.17995497768591,15.550925967645336,21.27750773594581,-2.293574698786233,8.778787657029948,21.565260194181953,19.90154812102302,10.66954850265699,14.564493021745168,14.475796631226265,14.88456078554081,14.2458671035234,17.965502687063204
1.9375,8.432656344036335,9.930784866536698,13.629884536461427,23.382990118407616,-22.28057617073885,6.497413941636392,16.99977009661108,18.67861947523674,10.548439297297252,16.561412937143135,15.575410655778965,13.970183919310315,11.013793033105603,14.619453154885518
1.9453125,2.822690485704143,2.883682225014539,6.390198617771875,16.659300300631593,-22.515445907091294,2.8059730069246576,6.0795503209069,11.610710620622909,7.396887334459047,12.646622495916157,10.8047172905162,9.028869719993606,3.99433597817311,5.6832094863634515
1.953125,2.5365955225293004,-0.22527616683587506,-1.501164888640758,5.552654314586662,3.0504222325711545,-3.0664315140433436,-7.370438283590658,1.1135706902522504,2.2078460830510225,4.353585360146045,4.1476767257820235,3.330716406469406,0.9970102483861503,1.2874109743705413
1.9609375,8.166466893946922,3.8475382668339897,-5.205669715437962,-2.902439055884868,38.847201700796575,-9.06661487244458,-17.25826278966233,-7.782694297381593,-3.169298596847701,-3.1683897067491174,-0.028317282824642076,0.1870402986346464,4.401127940342091,5.358436143601228
1.96875,16.406443537479532,13.20630833630197,-2.5697248589674984,-3.68687368452123,59.6288946272459,-11.221700555880636,-18.221718771365836,-10.062337553322944,-6.154403483498696,-4.522641384073419,1.2662963932281626,2.223410538605511,12.081516813414336,15.11876024387194
1.9765625,21.9992359379735,21.21602994830249,5.094325311195438,3.464189125768935,50.81351223849539,-6.9646574593365,-10.123919313626319,-3.865351636552657,-4.965900534658885,1.6303250916657177,6.825056234333265,8.919285493076305,19.01316718706909,23.52684488679581
1.984375,21.940864829654725,23.19343634301987,12.959427484107858,12.999896281876282,19.902578647255616,1.6526957160846218,1.6594817786581293,6.51841918041718,-0.8483033050981628,11.227033329718878,12.49441742491778,16.059055772675325,20.99350875745963,24.886777047311444
1.9921875,17.2538613212852,18.466023951720135,15.940387686440237,18.431913966879566,-10.516334005031814,8.988403245620797,10.08144858344571,14.033639301635697,3.4265769443558964,17.951888417328377,14.263794323603001,18.38862986059183,18.018631787065935,19.181472684304918
2.0,11.757018135601829,11.043828612151117,12.903741435337064,16.504535996287583,-22.404577284461563,10.680995999678565,11.055756338491616,14.272884512269018,5.518694521213625,18.510348079976026,11.366310983682524,14.182673453881751,13.703977563815378,11.62884144488061
2.0078125,9.080467086592362,5.706393528213147,6.754662062801832,9.397291732650059,-15.548192704212383,7.372523656414585,6.164187509037777,8.383564085854022,5.825228129088037,14.035151126249772,6.926976573529904,7.657446195470053,11.431402471454756,8.290205232652163
2.015625,8.903121758504676,3.996060420370256,1.8064977801789301,1.8312894147915777,-5.79892836451833,2.395421032845517,-0.07061148289351972,1.4736314228044118,4.941477750932943,8.082691503154921,3.466779522427607,3.978000011282102,10.937074858785529,10.00681407686305
2.0234375,6.6256538824583595,2.2340584517526385,-1.0096973390826034,-3.3384492423327625,-8.59714060105138,-1.043773011570034,-3.9642694426922356,-2.664944955502832,2.97253727933576,2.9211402528303676,-0.24117016620692228,3.552486166801604,7.449108562301087,10.656184649352864
2.03125,-0.8079798526555894,-3.7597373449415263,-3.2010976066436196,-5.792238538647836,-23.746166933496994,-2.685813061967645,-4.322735331716189,-3.5243417297434307,0.13669394490319361,-1.5675901883028551,-5.792368528903672,3.5377035714545957,-2.204917125925855,4.240315408184809
2.0390625,-8.879079614180943,-11.834245916312641,-4.459789084363291,-5.589689264344383,-36.11407580437338,-3.4310363215619297,-1.429188363314553,-2.432783484625355,-2.2016919718013805,-5.331224107843073,-10.939215972047936,2.726396973464601,-12.686244575338884,-6.396264580669521
2.046875,-11.608895659375094,-16.842636278165372,-3.731820696056147,-2.728752611332682,-32.47335076626671,-3.9186797178953796,2.8203528546395185,-0.5331489584416439,-1.6096658782389444,-7.2839601809016346,-11.423461745647456,1.9438075999647415,-16.962028106915568,-14.008055716553713
2.0546875,-6.534972561529899,-15.206389164906755,-1.0490962272106403,2.4251663369147356,-16.530650982797074,-4.024869374466889,6.709268594227777,1.991380699583307,2.1734515929325395,-6.042299929953303,-6.046651710310943,2.2610191982728676,-11.796009380061365,-14.215781344808313
2.0625,3.0850071362127647,-7.467023810570323,2.3007196145431172,9.047603436704081,-5.310740933841991,-3.233984144927786,8.908483414022147,5.259458966217727,6.946446735611728,-1.2275143671900406,2.498752732733301,4.542742643418185,-0.8126499568129756,-7.838002031556488
2.0703125,12.430852604884484,3.164547484043278,5.1129674887816465,15.062132927526717,-12.486184435048921,-2.189785230087438,9.197144604693236,8.096640262757017,9.841986131771487,4.941698457226122,9.804242518247236,8.437048432750853,10.204289366738879,1.5963083342195412
2.078125,16.29757164014761,10.930857126797237,6.815024396861098,17.687133254378335,-35.47824639964161,-1.7866214814258528,8.018584987422493,8.798500012941151,8.572981954835063,8.47908675828689,12.104239812431954,11.612409957660777,15.6938127894675,8.886404888126034
2.0859375,12.010173326355533,10.67542488833141,6.186659947678432,13.96760966772148,-57.0660917702385,-3.6916193877554333,4.584065500389979,4.827948771896182,2.4385357300988,5.286887931202347,7.422199708193484,10.453738933695142,12.852853318451618,9.82158363086826
2.09375,1.740444840971815,2.520978944824017,2.5089137624565914,4.464171246158372,-57.72397884575457,-7.9040500583341995,-1.1990862989428213,-3.7587582961778367,-6.148368425711885,-4.304457309303798,-1.8236384363713491,3.272359216056483,3.642713379368221,3.87881780593492
2.1015625,-7.512911844062938,-7.2877938114689,-2.0960687959824313,-5.6738651005603185,-29.362489212444324,-10.833741831904446,-7.10241512501663,-13.063450837730691,-13.168281320974941,-14.539288735742394,-9.954360990285384,-5.881748091302027,-5.706540277078219,-4.126488984876033
2.109375,-7.654653796067373,-9.564481064768756,-3.698937424149165,-9.377361587107947,16.98301618836094,-7.865489169826627,-9.35739523155889,-16.394785173235956,-14.23017222396187,-16.774343417381424,-10.054299803783225,-9.33856398873423,-7.42212868382757,-6.747001263262048
2.1171875,4.260578736923443,0.4985858347925805,0.6777862435155855,-2.4540534549357305,57.284830326637625,0.8703316221272382,-6.026756144156342,-10.710706407926383,-8.512314108907294,-6.8062783807113485,0.048857379018556205,-2.751359422688074,2.235472313072276,0.8873029022588395
2.125,21.605586409386284,17.372811693757836,8.373607397636208,11.515604859298708,70.69871356382885,9.347799274278657,-0.22738757419810313,0.04465426553859051,0.2672278689443573,10.707062118397928,14.976660057030386,9.258490492880874,18.355189772078454,14.588535280145955
2.1328125,32.529047446789214,28.95502660201199,12.98106722200411,22.921071785360766,54.587638722810965,9.745157725042613,2.3360031354414135,7.5463371374316575,5.870004427240886,24.45070483791379,24.84985934252864,17.61175711624205,29.649180983621317,24.560019628401427
2.140625,31.057865295108964,27.807957316019536,10.730057867308487,23.82016113310153,24.639583341114847,-0.49842162376623905,-2.5835162615672695,5.411535939716269,4.265595509831683,24.43589648398632,22.968361874418697,16.651430750673903,29.367149425241838,24.832264470896135
2.1484375,18.073306004341124,14.388748155850582,1.8151881136500267,12.201789622688844,0.1845686365344287,-15.357362418588588,-13.328380598316082,-5.762783108454577,-4.057325422043211,9.019732934609127,9.679260016136311,6.721095280771059,17.47522431740207,15.132419134977951
2.15625,-0.13765872853169692,-4.696968375853864,-9.410967242144045,-6.064838431030276,-11.360670057970275,-25.342776683506006,-22.9800663121488,-18.954326020314422,-14.246021186863247,-13.41226871919694,-8.301883325543994,-6.535432470425167,-0.049181452570970445,0.08307842557984023
2.1640625,-13.97757589941085,-19.0330271215499,-17.097720322428913,-20.401796451555533,-15.880243891438266,-24.686328497690642,-24.715605505188165,-25.408751377763785,-19.5384732461649,-29.37960128710855,-21.52126715670547,-15.534974792294832,-13.762682520579903,-12.646808603270276
2.171875,-17.43630367141591,-21.707809269245473,-17.20335001514509,-22.882135821597643,-20.346535852924617,-15.312969967932357,-15.801555658872857,-20.906468743262856,-16.205678716843064,-29.936853925090855,-23.937546314865116,-15.694146826764188,-18.27757441110334,-17.8169752320441
2.1796875,-10.241893339525985,-12.743915594724522,-10.441835192032238,-12.586269733425258,-23.58307147489542,-3.891693250581418,-0.7937874025850538,-8.445841890697091,-6.8817710802439205,-15.29214687646813,-15.846084507060366,-7.600881610549696,-13.38755653982989,-14.13771377228581
2.1875,0.6199294833667313,0.5212084408589948,-1.8629809541265656,2.5212733310854767,-20.938329793488116,3.5520607571222365,11.723807994023186,3.9418034529644794,1.9234486442121337,4.542276061962358,-4.237871940548194,2.0113954638246936,-4.786496057391545,-5.900580457264605
2.1953125,5.798590796784678,7.917631373199475,2.240755858643542,10.779132456441557,-14.764577244667544,4.839911529994808,14.127876827985627,9.109541260227733,5.137978475957639,17.931862813190296,2.0824485663594867,5.704501954464738,-0.30201540671207183,-1.043705973431311
2.203125,1.4678393582687397,5.053264376133626,0.19378548335559548,6.942792285286391,-14.07394046448529,1.3850962101361879,5.717151997686217,6.065715082365456,2.4347074838217324,19.268938639514772,-0.8115126118052812,1.9427509923386541,-3.39201139196144,-3.385818857612184
2.2109375,-9.239486304695312,-5.782559547470864,-4.821358382681922,-5.394975908281799,-24.37641750915372,-3.095294750760597,-7.124544500071667,-1.2365911859268064,-2.2966090703376882,11.00157646607729,-10.101081895862299,-5.264989317865271,-11.826657447601916,-11.201549218323414
2.21875,-16.809498009798197,-15.309399662878697,-7.718226343351749,-15.728960886031347,-39.792083426453814,-6.0354163684752935,-16.247423874174753,-6.988463124834087,-4.711796146130744,1.3609152691124748,-17.750129817414553,-9.332314850707045,-17.290992481479964,-16.138488374478495
2.2265625,-18.572057934858936,-20.12388595331003,-7.737003892552945,-18.204635456346818,-48.53501770404346,-7.567929101437719,-17.397293614136384,-9.633971532980473,-4.345152135189021,-4.04339437661193,-20.21938470004326,-9.556870051357688,-18.245474003535524,-16.425763140282104
2.234375,-16.02648765363184,-19.978407591837655,-6.806615781648052,-13.537911517530977,-43.741179705850556,-9.615038003952124,-12.865600268009196,-10.499151276691531,-3.3290867847798875,-5.513744630433609,-18.845426528867023,-8.412647597996363,-16.918089377340227,-14.075234671458933
2.2421875,-11.025623368131182,-15.775384282973063,-6.430396306601127,-6.157656156483294,-27.30504851197212,-13.459792960573214,-8.28920644409934,-11.854557415215575,-3.8209565755407993,-6.420972190725816,-15.944140848993282,-6.7794414480125305,-15.126576727544524,-10.302472458611712
2.25,-2.800694832257186,-6.809496582484745,-5.57519591958534,1.0172136954773625,-6.501693490962074,-16.53739416626391,-6.993811325708736,-13.54223260493594,-6.061223538384441,-7.585974266480161,-11.174662369936309,-3.3762920777724226,-10.255141574325402,-3.6972417103365385
2.2578125,8.78776430597766,5.835632737631467,-1.6067353717398638,7.782721515731627,12.072386896088283,-15.000708721713899,-8.249397763788664,-12.571968416957919,-7.47833589938095,-7.1055003062147994,-3.5775945274285728,2.719379534354356,0.5566286634348583,7.1663436524016655
2.265625,21.96647787392156,19.18086200588334,5.999452729157748,14.979857813587955,26.120212651615024,-7.438062065934282,-8.25811934752689,-6.796975268805047,-5.672203102307862,-1.9730685994740216,7.31995135140321,11.119552324745959,16.389963386857072,20.77463576537014
2.2734375,31.423684185247993,27.747653897529762,14.40443310991333,21.36777923738489,36.665948713734274,3.58652761468435,-5.275194785071329,2.3343585686986525,-0.16816408194138688,6.7000734134406335,18.103095702901708,18.718311862314582,29.979459736281143,31.43872739598079
2.28125,33.09138863051561,28.40318746315036,18.914916111148653,23.90583501325214,44.720504314688775,12.430446992880533,-1.0987209044236135,10.189083724180566,5.9476816806651,14.255454521848685,23.391145116354192,22.109535855464404,34.09576708811088,34.31926630022222
2.2890625,25.74565776669344,20.875687827310415,16.2622725949602,19.562124698247302,47.599310444176005,14.607143091490236,1.4785049477390588,12.311241962117146,8.662781455536114,15.957861430017214,19.788410840143822,18.988454311735527,26.47363484916494,27.93407315259325
2.296875,13.342487410072028,9.497389936126702,7.855832953781551,9.961763992896783,40.710035428575,9.730366984762314,0.8429407186536165,8.123496301597259,6.874732809592181,11.31591165567566,9.215661280229707,10.639283926976281,12.447687915800325,16.876057290735066
2.3046875,0.9720101466433926,-2.495368542730187,-1.7847690068454924,-0.7865091598453369,22.51861848710703,1.0064044419615503,-1.5675110843907936,0.983076907449613,2.7224104066196437,3.908252496807157,-3.3156300306390043,1.2635399662774045,-0.8405001269827952,6.104722673413345
2.3125,-8.715045330989366,-14.024584952050695,-9.26877576956769,-8.55066945012623,-1.8863459772609659,-6.949244076430854,-4.607542780877931,-5.437036442375388,-0.6157113331424362,-2.528013942854453,-13.4940398620169,-5.602339962472176,-10.49907936357694,-3.0107321033027516
2.3203125,-14.673181856631377,-22.895476815245868,-13.162272687963243,-11.212088586660498,-23.730655941578732,-11.315534603781627,-8.651160087588162,-9.919265534992771,-2.5907264572614137,-6.170041658458443,-19.73296308782408,-9.317260265030278,-16.156192443384413,-10.068879336737801
2.328125,-17.71559729432617,-27.88284469696318,-14.844567931949877,-10.147208080007132,-36.858133392950094,-11.707835196978674,-13.825414643667067,-13.611121803982144,-4.224802778929653,-8.156654887468623,-23.268188712613846,-11.904997207599394,-19.668133701833554,-16.39389863943435
2.3359375,-17.83626688824426,-27.120879248948576,-15.18536575175743,-7.442635010794807,-41.829318699824626,-10.180007144983554,-18.191776447717476,-17.18808515586871,-6.4899367094116895,-9.537137940550197,-24.357386527065973,-14.015102370924511,-20.87898275248414,-20.186995603313697
2.34375,-14.221046659862264,-20.463797028588424,-13.352615365054668,-4.182489020814803,-41.7093805580085,-8.52589219579247,-18.542622064652733,-19.483213609813877,-8.352282390055104,-10.022070211823532,-22.0080090239728,-13.924291428422324,-18.11052371610719,-18.325961089368146
2.3515625,-8.614457952422987,-11.529128490702139,-9.66634037002084,-1.2549054897831662,-36.8645329514592,-6.875636016958786,-13.131763357258011,-18.591306326873063,-8.302909448800852,-8.752574093103648,-16.432661802904448,-11.2024829791382,-12.289807492781527,-11.524847531747328
2.359375,-2.2476235981600605,-3.8011846768971527,-4.773287798934483,1.7819276465173735,-22.753203643199605,-3.432039143665752,-3.384404234481375,-13.961255552325639,-6.005409243237179,-5.050177194694923,-8.75114454959863,-6.335583964688507,-4.422418542339729,-1.7824105853770857
2.3671875,4.629162286662518,1.1666999964656704,-0.5153892773049865,4.462718623260113,2.2797053120263038,2.8293372581156637,5.979300491505918,-8.53461798585257,-2.283437588612633,0.006743215628643069,-1.3747907663597327,-1.0876289787998568,4.260745559278806,8.340689572407403
2.375,11.86237342684414,4.467246605682827,2.235653088824254,6.224914702706314,30.902021917466712,9.730140907188082,10.648047420244302,-5.506074014131244,0.708237328184164,3.8734844938169486,3.9255185049725414,3.1777954025843598,13.062225396592181,17.915526634724905
2.3828125,16.987823969453242,6.312816618822298,2.0701481312165675,5.707708687082239,49.423835951826916,13.04041348954671,8.550489912679463,-7.040928887974968,1.3654272153348805,4.726215065503532,5.078568538850838,4.329774516893469,18.656273815783145,23.58465623196925
2.390625,17.795219571830593,7.0353329814861105,-0.8098638003073401,3.167196276877756,49.25034996907274,10.069924137300097,1.4295179692882534,-12.291528972273053,-1.1228356832220883,2.3299592083581477,2.45490759093451,1.790382913752773,19.21045846585608,24.16764824457171
2.3984375,15.972558099932003,8.401971737607145,-4.050157475973899,1.9962671899305382,32.80109491394981,2.8677403601820357,-6.128682188845465,-17.702208728873842,-5.184359545555546,-1.7960897408659373,-1.471375136982376,-2.27881318921095,16.693968011391803,21.86837420497024
2.40625,14.38601815597715,10.408322985117142,-5.253092669640661,4.1846979132254285,9.013709986481851,-3.9496277804267304,-10.156312102501,-19.72265671432829,-8.275666570731,-5.18312107179779,-4.266328824786035,-4.567518519501804,13.940561926629405,18.14185473550708
2.4140625,12.24878073617609,9.383741825178788,-4.947848397251045,7.258214953962473,-13.293454142540929,-7.177656919752698,-10.01828915775441,-17.999205444798154,-9.134273014055722,-7.267416037260573,-6.407071507775172,-4.564063329829964,10.372671491357053,12.07585295602613
2.421875,7.011640043559237,2.437234268028547,-5.620316345144155,5.980780680217821,-29.668354120031985,-8.226813932102827,-9.158518773377327,-15.503888804446127,-8.724954441810453,-8.562790768771446,-9.487683080158282,-5.054333099770585,4.33198146254887,2.0154841150978235
2.4296875,-1.3570374387701458,-9.320120720245091,-9.06936194998286,-2.770053645878894,-38.93457836073354,-10.816574158449265,-11.496065222771898,-16.40602479830316,-9.175587619312417,-10.204696222472794,-13.900577019203133,-8.091344218154257,-3.3458011582853273,-9.89491398108763
2.4375,-7.838001650874243,-19.007610772789896,-12.996286946537454,-14.626539453418765,-41.50802914712739,-15.460500956717665,-16.19232129307025,-20.42824230667867,-10.38609296046498,-11.194599846672228,-16.757264664624838,-11.276925587396159,-7.762739534288366,-16.593425145676967
2.4453125,-8.848196916439253,-21.951707564241925,-13.70990102365077,-21.216819249101615,-38.62412519678718,-18.823528611580798,-18.904479081333008,-23.432301039051737,-10.870400012461621,-9.9682899007031,-16.003191337193304,-11.012385429741876,-6.636633689077711,-14.236542089110495
2.453125,-4.104498645066555,-16.940730496801173,-9.21948660482744,-15.814943931559222,-31.266227624326714,-16.163258685457514,-15.468934729107461,-21.323951607132503,-8.79880826212052,-6.209416233570937,-11.741233499708432,-5.668268556756668,-1.7802529292367795,-4.07503012454894
2.4609375,3.0352799300962965,-8.08012583426013,-1.5926172352956716,-0.44975068619979647,-21.255288868272167,-7.0933306206247915,-7.095148524347102,-13.786203444625087,-4.738808191110149,-1.0982856105350922,-7.453821307509412,2.0498270453596015,2.5942893424905336,6.436434159984953
2.46875,6.17611762617657,-2.817853183201876,4.188423726361103,14.562449193465742,-14.334392231496807,3.1285477526244487,0.9407654751858331,-5.287716257028765,-0.8049731208567148,2.522242990382222,-7.371125565466998,6.944094914493787,1.0139547289117568,8.723669544785334
2.4765625,1.99720921096466,-6.41559434354985,4.380649071945298,19.331651649520612,-15.844429995127847,8.478353891181422,4.1870810592960686,-0.5053683301900876,1.4497127501605311,2.4484285808502335,-12.708718422271305,6.476901592326607,-7.773733870845111,-0.14993297743457545
2.484375,-6.342161511611603,-15.59494100979229,0.29100097623541277,13.026283304020376,-23.60285815766104,6.902646395066265,3.4885876529743873,-0.9182542712541469,1.5028424562520248,-0.23051515691748448,-18.40680647569605,2.5506384022027593,-17.87101638415349,-12.931698646643595
2.4921875,-13.35171784569942,-23.746998794783124,-3.9887985529595333,3.0425387130663046,-25.68859385535816,2.5049907704223022,2.2024121766059332,-4.20434278188273,0.07811820269430834,-3.6227727694236536,-19.257601569269966,-1.182344010164283,-23.251054069981166,-20.925446480633386
2.5,-12.406108926978916,-21.992338493658654,-3.6837904017649934,-0.23237502764617426,-10.428938499064525,0.925810938553327,3.1738151579083,-6.238238229096067,-1.715138081273431,-5.30448230674833,-12.305237799504525,-0.9060841502504339,-19.078151225462772,-16.869344114782116
2.5078125,-2.947990728647369,-9.207909286272598,2.476156560465829,6.846774194152375,20.047505851786,3.8310160119430434,5.745712059568207,-4.674500954843449,-2.9002314892033447,-5.239805252509369,-1.1080784337279173,3.914419329730911,-7.521175408007501,-2.384025773858091
2.515625,8.90703210923242,7.157012516180455,10.403640088448867,18.974713887455977,48.31228617391431,7.631207661569943,6.792821639808411,-0.18454496538174114,-2.8725586642061964,-5.03473709043985,6.866487242168252,10.076269356352586,3.7172398332742382,13.600080366950802
2.5234375,14.640022137895263,16.29941318069093,14.286835847760313,26.998599873390756,55.69364588431874,6.814515025312636,3.813374022976522,3.8950167187773057,-2.3630507955836935,-6.415767717095194,6.154861521517239,12.430160991729187,6.964192817061702,20.131074309543727
2.53125,10.531562891099163,12.937364693217075,10.912116832276721,24.76882818014041,38.57850923377765,0.10191906323917362,-2.8377613079363537,4.696164145580089,-1.7265159949916091,-9.174469096701301,-2.9049083717641144,8.474942458940529,0.35300434041329765,13.237619328082776
2.5390625,1.2662136818666383,2.3888380625182917,2.6848267274594106,14.217638785499311,11.031207089183242,-8.79044393728218,-10.296334867277826,1.1926552823791257,-1.716370805678615,-11.273424140611157,-13.193837131712284,1.1562034886244899,-10.018009060784152,-0.4743264516970235
2.546875,-3.224906341438064,-3.6415150203486184,-3.9041521519770064,4.10712219736351,-5.86400530171772,-13.453361477483256,-14.62679905799072,-4.69155562028185,-2.0427357232709897,-10.677308847768044,-15.966660551389099,-3.7495761874990348,-13.838137459362827,-8.648537044880097
2.5546875,2.4931493461877277,2.4526293344695502,-4.04238032926435,2.326411809471991,-0.1487295138911063,-9.655894812698994,-13.875592862253598,-9.817889981546385,-3.1104484183592613,-7.5595273628356985,-7.874512628988863,-2.7849716639082116,-5.894883546466419,-3.672154573283736
2.5625,14.554150173043253,18.151827568671298,2.4227925134735213,9.693956093889447,23.394958058372758,1.3193372185024144,-8.616692325108202,-11.07162472528709,-4.346547278803046,-3.4069378659090046,6.435516296323326,2.6673362243435457,8.884281901315802,11.234788634240228
2.5703125,26.450894377528932,35.419234010629175,11.392582633710429,20.742533955262637,47.18361526150219,13.316982206197185,-1.9801513249964555,-7.873923457317153,-4.648975252343065,-0.41853327090479897,19.277540046441377,9.404417006242781,22.87005645680985,27.903187898687488
2.578125,31.317002570772324,44.770621672946234,17.266216999069993,26.77038916570977,53.076485380174326,18.64637453705673,1.765284339328115,-3.397351691062109,-3.760110419793607,-0.6829460653872375,23.620629620561218,13.581026217093877,28.08996669323451,36.77731162533226
2.5859375,26.416297049525458,40.71960643377683,15.6623053439106,23.372657432941402,34.119869717361624,13.333469292683038,0.04979992129786794,-2.4195324247955994,-3.4940975647259247,-5.952980454605465,17.43227417930852,12.108453442002794,22.150478910112177,32.43053021483543
2.59375,11.122381991400152,22.548332741443968,4.9205598473290415,10.71474479174038,-0.7079647166457054,-0.05727398343905689,-7.278320995006777,-7.519773775045893,-6.110334441959073,-15.81477975641488,2.426962128837797,2.8732187655512758,5.55760168665907,13.72555406467133
2.6015625,-6.893444744887264,0.6515595624270674,-9.905355257598284,-4.49514701517138,-32.76276521105636,-14.215275379922394,-16.567058467421194,-15.898017195623252,-11.40321183436063,-26.94062337507335,-13.808984185602293,-10.11159995142434,-12.871866142476737,-9.236919853475571
2.609375,-19.80252506690037,-14.211637776268551,-21.49892210133092,-15.236311839826374,-46.76443543142312,-21.834817058323836,-23.274799321526046,-22.233073192346396,-16.75662484150255,-34.3048358144335,-23.8258998768473,-20.168834695035457,-25.348295646692737,-25.554927611590905
2.6171875,-22.950490133030076,-16.320967977155075,-24.629557731979858,-18.343287551530732,-40.51637101789332,-19.071071389652808,-23.655447411154512,-22.76690410602401,-18.870530782079314,-34.158928121916595,-24.5527434521542,-22.26022590591561,-28.283084194737324,-29.55248576716876
2.625,-19.305970461147744,-9.543513102151794,-19.86866298605157,-15.413412713361403,-24.69610434126403,-7.462297374251953,-17.356746278341827,-17.304571875614386,-16.31072607072148,-26.965581909214787,-18.67914009765562,-17.527495846140386,-24.557476883541845,-23.93743651581073
2.6328125,-14.589603522328126,-1.4880122417247834,-11.430956432448644,-9.857587022597661,-13.018363466525557,6.706619688676698,-7.351924804509035,-8.935938917884842,-10.18540554755796,-16.662260731924004,-11.141914129625809,-10.512142458826231,-19.152193677027935,-14.555559928878898
2.640625,-9.357585695262442,5.483959780966491,-2.767801264490348,-3.7175541404439727,-11.180207861626444,15.617244207527902,1.1674984903803307,-2.0250270580861214,-3.356070002818454,-7.95578652057732,-3.8418433407552817,-4.049001071575242,-12.039723535891937,-3.383193178276993
2.6484375,-4.377258553447837,10.418626107382922,2.080032434784143,0.6518929887685618,-15.660330532934896,14.396371871230148,3.240321410604293,0.18581212907500616,0.3257203837384296,-4.537878006067975,1.628231689431336,-0.46550654133347663,-4.7909686271616065,5.991112805090426
2.65625,-2.0585222499730396,11.12935518782046,0.5172702747194406,0.19537753988501855,-17.736204400608646,4.456680630238966,-1.697325208013445,-3.115068310109501,-1.2301248857508498,-7.401129895630479,3.492499751894687,-1.3465428012018466,-0.9882844281935548,8.726536354277114
2.6640625,-3.2134714432297637,8.002173562275972,-5.764941116869109,-4.601718342652984,-11.390777251869586,-7.148670033853117,-9.238086351433996,-8.92361081987299,-6.61664215942175,-13.575776864723425,2.0865098911353623,-5.072456041411811,-2.341595716201873,4.27459202912268
2.671875,-5.485073743798326,4.362382374262522,-11.104553936944395,-10.066832810572695,2.615615106198979,-12.600833133053944,-13.276103692586394,-12.14212235806383,-10.739300257405334,-18.38143137624041,-0.18155078943068764,-7.79482645307409,-6.6734786471499445,-3.2089523256492902
2.6796875,-3.924159222266994,5.149107469518195,-10.164063033402433,-11.50285906693259,16.372266487889597,-9.977017000928877,-10.957457690857147,-10.271155788715133,-9.771354329380342,-18.010958550347677,-0.7160867225681511,-5.66301169384401,-8.877677536367095,-7.23786117459845
2.6875,1.4035503552260367,10.101134535856541,-4.125958504836499,-8.741314864109345,19.86419946673199,-3.7650147657705357,-5.696460198371817,-5.58918410904271,-4.833238919446456,-12.659249337395819,0.11441369059906785,-0.35251197798049394,-7.2989447316181835,-6.344503697493837
2.6953125,4.994651889186358,13.350187825872275,0.33761255723626105,-5.815574005453093,9.215456045422407,-0.6303952188900379,-3.6265016207052865,-3.3665257062503953,-0.47644822606332526,-6.274532559850207,-0.7547336663055525,2.314430006247203,-5.549619856736961,-4.752345914607519
2.703125,2.845408373896529,10.470710602333256,-0.7940619183114711,-5.966348911323611,-7.606417454471014,-3.0100046285635043,-7.949442233145417,-5.893597085005069,-0.27965227569007123,-3.426620609334791,-4.992467349427497,-0.6651932407713524,-6.780552639072316,-5.823530968332035
2.7109375,-2.2709138509735762,4.307398301840252,-5.479846742290121,-8.412867061788603,-16.346694412665556,-7.953040806620805,-15.327631936360218,-10.319960079178601,-3.0753164294618505,-4.6906659737933065,-9.978971377048657,-5.848070116852408,-9.955852834592982,-8.198180051735445
2.71875,-6.473413815634986,-0.5605418191007309,-8.767100162899665,-10.402100721409262,-10.523817253464728,-10.715368407834507,-19.90096872560318,-11.477355997601206,-5.778548260952129,-8.543090677958688,-12.689581296521391,-8.841386044402913,-12.961118412385014,-10.554035961262056
2.7265625,-6.353857374212699,-0.014758283670253704,-6.983358694393596,-9.481443589582248,2.4677516326084143,-9.11974257714407,-17.454387851826034,-7.2838330017080395,-6.135595959176965,-11.635579639520994,-10.455336620162267,-6.830525105565548,-12.786334196436373,-10.892463741188099
2.734375,-2.1156428844896107,5.09396312925747,-0.11115731688505805,-5.3719662463463616,8.525133264112284,-4.4469527003450615,-9.526307865461208,-0.04359849970193239,-3.633354272777347,-10.881543384429182,-3.3761878737277287,-1.2108152799091771,-7.850420324354781,-8.390194739651204
2.7421875,4.809606290044505,12.466044905684925,9.19181395317463,0.36821512257317773,2.394093310093703,0.6085305831233491,-1.0664548439935297,6.183086321942249,0.10267408784992962,-5.158055755873304,6.353300963465302,6.141589375364497,1.589492943763749,-1.280635581824439
2.75,9.213908155032891,16.17904017006145,15.678425001624023,3.2417868369463805,-9.664128677190648,3.869212399109567,2.4086970196381756,7.90724623489944,2.8769797787713425,3.030658727402453,13.547136845652,11.399382675562887,9.75237877485064,6.897877852421245
2.7578125,6.3094899996116585,11.512218538247295,14.655619101593647,-0.05510580551711463,-17.96378329275671,4.564793010578579,-0.8046292413683117,5.038010999415426,3.283784102733798,8.909993597554298,13.110307909705465,10.982546692069146,9.969895661523108,9.819565119425988
2.765625,-5.205901283486768,-1.4899346068373176,5.670463660810037,-8.842101581121558,-17.948420329430064,3.0814270299505013,-7.6679403225593665,-0.0816997544832207,1.1985915269356917,8.347434817489244,4.064554606654222,3.2413938198808077,-0.30352497945525303,3.1130201636330788
2.7734375,-18.74451499451126,-15.773797439754807,-5.21849371849975,-17.686489114408133,-12.131202411619393,0.6993962310867271,-12.63196164183015,-3.6496749153083083,-1.4639184335318136,1.6080150874517014,-8.17969509235833,-7.513511934535744,-14.498953937958406,-9.458158032949829
2.78125,-24.801152799740606,-21.468648038314956,-10.783263239254675,-20.4705977869135,-5.001177357497652,-0.7862217528779206,-11.261012567003794,-2.3978873792803497,-2.2720159575298475,-6.615001997724231,-15.193840818337533,-13.847860639101324,-22.313058345058803,-18.399856768625927
2.7890625,-18.49089026667067,-13.855464365909825,-7.670372861299334,-14.980012409966527,1.0551772157186092,-0.47955498290932574,-3.519147334581038,3.6248309651647457,-0.4646405739117258,-10.422591836679478,-12.481631523306948,-11.589369605351035,-17.713060522571602,-16.517516343448715
2.796875,-3.971478407873273,2.2489260307855377,0.9995633220408827,-4.50115934308586,6.087741901981593,1.4942184304093955,6.578295734606952,11.100455344271236,3.0502014682812635,-6.694752231944885,-1.8222921800809269,-2.483364855533456,-4.119318243965776,-4.763139091687895
2.8046875,8.829606125245636,15.379253167224018,9.039593392948433,4.697139210772904,11.330488464757373,4.364330205577743,13.688584381963016,15.937508655111749,6.70704150807762,1.6631308413339698,9.901380548648573,7.224377356437776,9.030392048700595,8.99453934583693
2.8125,11.453643735874756,15.530378388061868,11.600454512797599,6.872833040973885,15.309047188815468,6.980494884020979,15.311933105422117,16.865025412358456,9.014236561628234,8.349541830739486,16.308074531939994,12.189078962842496,13.702203518871865,15.534461559342445
2.8203125,4.04359173926222,3.551484405584539,8.346675767149518,0.9000506105665614,14.181769918719407,8.570233916440584,12.244825285366698,15.065680924015409,9.93089883314978,9.132759073680843,15.513965619976885,10.733739398629709,9.900536462149999,12.560943332784063
2.828125,-7.081823509092581,-12.313693014069957,2.109063487370448,-10.096638802700605,6.914795944626509,7.980202379865654,7.5106629732543295,12.386492727939894,9.576055050903806,4.707219847274235,9.732519183898143,4.873947404564164,2.8463640286605894,3.6947599291897655
2.8359375,-13.790687789823737,-21.285908964047756,-3.6562121896329427,-20.257224375676486,-0.5277696333808672,5.08105897733061,2.6073548689232733,9.604179600755106,8.243449150885755,0.4634304206205569,3.4200529528195767,-1.498598307555529,-1.4133486530518975,-3.841326844168113
2.84375,-12.598268022979006,-19.025997918761483,-6.396465127569551,-25.303684158875008,1.0330936225858978,0.7686577067902083,-1.937558254606938,6.164699599022057,5.982983461920712,-0.0557696513182393,-0.2831473249472794,-5.2227321792818096,-1.144754349616312,-5.791849215700827
2.8515625,-6.4854510156898355,-9.433610802028031,-6.200388467071843,-24.20238228974777,13.796276501022415,-2.903749392941486,-6.19558243720838,2.2807042603987857,2.808675834403104,2.993509797202884,-1.0804766881619814,-5.577364321158985,0.9773512525939649,-3.080804560141935
2.859375,-1.8276970149226264,-0.5492918507662479,-4.962205366249617,-19.70098314523737,27.678750183336536,-4.395269660033465,-9.131333674688406,-0.5572476836596001,-0.25848009983694686,5.599223774396654,-0.3482509681907163,-4.570983798185186,0.9549776649042672,-1.1736112257004492
2.8671875,-1.1517376519667375,3.7868220016685186,-3.846225532230903,-14.149183868277465,26.579169615798204,-3.57692939444229,-9.117700910274957,-0.276894061690749,-1.1730197492811605,5.516226385331893,2.107148653122211,-3.789304098983665,-0.3283377619349007,-1.952152242256957
2.875,-1.4827994446414998,4.927066994563248,-1.6589256571793565,-9.020180074598388,2.64903914884992,-1.3483911845035506,-5.314574504121873,4.179233452457243,1.5843593320857963,3.8993935380259663,7.583305379871851,-1.9434979511362667,2.0047953735959205,-2.4509854218520646
2.8828125,0.4154851168311186,5.792491280937401,1.7797074015072463,-4.629858328220597,-33.345896561037584,1.5217707420788888,1.0980847823533488,10.968835220816617,7.3224259060987915,3.366358658944413,15.889628086760233,1.681258650972917,10.21645973353097,1.3290279917238876
2.890625,3.7305013691672864,6.201403233572828,5.142847853325664,-2.302833339218705,-57.776372165622526,4.005407489046641,6.946076702046506,16.693841203485857,12.687085453617033,5.290219484484647,23.726898395946304,5.554083602185402,20.057323399445483,7.418371575358823
2.8984375,6.103076946130027,5.467910004812246,6.196131890712964,-2.8199057483274843,-52.16175188847331,5.462434671375883,8.875623819526393,18.405792676329472,15.043705331451966,8.328530760058303,27.142721117771615,7.233968686618418,25.262451940312015,11.919890902927158
2.90625,6.093469975423952,3.8615711624956237,4.512245460485297,-4.744375469413034,-18.39984608226561,5.122912328347021,6.1988021335688925,15.961243784482308,13.211062937894814,10.142828681458113,25.05804663434293,6.1443685742824785,22.892629416318893,12.245928857490957
2.9140625,5.076797249285943,3.721948597195539,2.213126896255927,-6.058096491037751,23.113794388309614,3.503314916524251,0.6851160614089465,11.510499241076968,8.640313560273352,10.088637225629476,19.597438975659013,3.7003017893640395,16.13246353245622,9.77266405136423
2.921875,3.82746041746257,4.4953074252938885,1.1169128012953262,-5.997484613624737,50.00019452150407,2.397918235134363,-3.9872383315733884,7.390352059572941,3.5113032723213085,7.732980994020423,12.931169160308945,1.1683498740156903,9.274596137982316,6.174631355200204
2.9296875,4.106353034051205,6.60197440195532,2.009012356276105,-4.2301541380598175,52.975370231919875,2.961419378032449,-5.7501949788548075,4.204414762304817,-0.3309388215130136,3.428863643530803,7.854914266187629,-0.31881217060333167,6.546315627449095,4.6222558214823755
2.9375,5.684012705678103,8.207508512728365,3.6573048045396575,-2.774302386407206,38.71386499891013,4.038351542637556,-5.605559898087178,0.6997912413000555,-1.7731203303122332,-2.5648215685018,4.799831876410474,-0.5143712529905076,7.3215536605134135,5.524991689206463
2.9453125,6.338375430326047,6.566510467784204,4.335241536631451,-3.783989024678554,20.79149784371628,2.8060268056504203,-6.222543230007477,-4.531823923653054,-1.5089018767698936,-8.898560825869552,2.994050864866534,-0.42863856231743697,8.27937148993192,7.043247309591007
2.953125,2.619230176606319,-0.42830054620495567,2.095546391781326,-8.882434090541983,8.87771943995769,-1.8891712147241821,-9.284205727727345,-10.814267364812899,-1.5157888213346598,-13.110343256789056,0.011898085758278595,-2.6145803598057227,5.433282801428432,5.345512933393848
2.9609375,-7.763957046591389,-13.858930681634623,-4.288341745914536,-17.560467583289736,1.449881650528762,-8.38133951825802,-13.811967785255115,-16.37408691170721,-3.488779367734132,-13.195433606891848,-5.912830414832543,-8.828146776647504,-3.0670732075113514,-2.626461311728462
2.96875,-22.349829636242756,-29.900314587316196,-13.085396596050995,-27.13120957609372,-9.784275136217435,-12.949098019977182,-18.02865077775995,-18.620393067188783,-6.9715586446003455,-10.170613813732665,-14.70193978730341,-17.427316135009587,-15.27333075867914,-16.201823196015216
2.9765625,-34.02957084973543,-40.93295675446822,-20.06377707567847,-32.98111413037565,-29.6254855055372,-13.028940729371923,-20.072954783447287,-16.14992322760008,-10.083311579271534,-6.310323193013041,-22.629842673929492,-23.816827553520472,-24.638677506039574,-28.663714892636264
2.984375,-35.2706382924708,-39.58234843035058,-20.481043261602093,-31.215672117564875,-50.2144678652333,-9.13340740618015,-18.93778918486402,-10.501568799998072,-10.54061502227953,-3.6260319271284525,-23.543369981601753,-23.633979157914712,-24.469074798812642,-31.720583824844937
2.9921875,-25.388466406220758,-26.534679331850775,-13.975139029647432,-21.871918039303832,-56.01662767700346,-3.5718776028407757,-13.952780666797995,-3.812655443075848,-7.477799496994401,-2.082199379630794,-14.881635473074986,-17.222465629087946,-14.247355444987967,-23.792692032950757
3.0,-8.19806005515794,-7.749533956038586,-3.2607142778496794,-8.485339929367969,-38.803158652423065,1.604817870629908,-5.6765320285669745,1.983035719692071,-1.1735975293111518,0.9950638871992344,0.8999266391443411,-7.323058758322193,2.2391900512356417,-8.30720634970546
3.0078125,9.029625001089867,8.436047184235958,6.946777625792236,3.3476574638207977,-8.533441304846509,5.116286852964266,3.7451149354951556,6.723207890729107,6.781567592537312,7.592136121827274,17.00218099678562,2.590571522569339,18.322568843573784,8.243120704025479
3.015625,17.306317826665964,14.482610647318733,11.519541336618026,7.976289616991661,13.518692961399362,6.705150021146216,10.881159064041034,9.570618080078567,13.366430430549586,15.633033627368507,24.46746131576169,8.004132447585054,25.190396950832966,17.519964786332803
3.0234375,13.049104878102602,9.387949648222257,7.576800421676765,3.2417862454662343,12.800843545415844,5.860410807116445,12.383002437462352,8.017345701329875,14.566262148656952,19.427859046785297,18.445818023521184,5.550102945941561,19.311630950283973,15.556739871889091
3.03125,-1.5714528118974604,-4.179235402674841,-4.128361842240864,-8.519412940324699,-5.078034555108056,2.8367037005213613,7.271174859127151,0.5268569386368332,8.731876636667987,14.101989849415528,0.5688571943496303,-4.758055965896496,2.3376136310181423,2.7245326483842165
3.0390625,-17.450245512234616,-18.36419772369171,-17.45552025513676,-21.050821938213105,-20.412662584825316,-0.6985399568307056,-1.667636226370888,-10.81347579534662,-1.1335689088149408,0.23977148864419603,-19.781374704903612,-17.638899953021856,-16.593070198234916,-13.287556026994864
3.046875,-27.20798648100583,-27.783564252844705,-25.264948386226788,-28.473162693584275,-17.749949877371826,-2.8234616696972368,-9.26680936222771,-20.00957615788335,-9.649037695657507,-15.195651593134148,-32.492587583188424,-25.783470106308993,-29.253198807629136,-24.719387336334826
3.0546875,-27.202197041654735,-29.03887536251408,-23.738485146406855,-27.741729713657637,0.7247650934340236,-2.8970458082482393,-11.168576405903089,-21.812826957394467,-11.943865781824288,-23.759181427342586,-32.350269486075405,-25.24227515174152,-30.83084067488696,-26.519441763028574
3.0625,-23.551582859823306,-27.305302149763385,-16.364702694519703,-22.230252754276723,18.222873083999566,-1.5596713081077935,-7.60209374650893,-15.144063233761246,-7.839889776083182,-22.156319722191768,-24.38452199324559,-19.27482986108465,-26.738838417910873,-23.771745462505063
3.0703125,-20.160646971739954,-25.472820660571102,-8.537674589430274,-15.745509434881374,19.510145231037622,0.03580104768107346,-1.6658683382105743,-3.83963073412102,-0.3508260281847287,-13.371890492813776,-15.683465842868959,-12.329581568263604,-21.35363333026832,-20.249521942083536
3.078125,-19.096459097836238,-25.329350902140078,-3.8652271864481,-11.04866989127641,3.7862838239823398,1.375391250835011,2.4307433193401535,5.93146913000791,5.843966886963185,-3.7944806327482046,-11.506682425161415,-7.673530870858467,-18.30717374832266,-19.178944191576797
3.0859375,-17.977530567455386,-24.471387120060793,-2.2232278442103413,-7.298051987408354,-14.932332639509774,2.0746841356135564,2.8487745865243284,9.790716557171296,8.328878663866742,2.1490220064861334,-11.061928588160624,-5.378350540128635,-16.582402239023832,-18.31008030171319
3.09375,-14.251088022547183,-19.955504275010817,-1.203795382163779,-3.244599295832368,-20.422398383958466,2.774144523399314,0.5492116335667914,6.699037041046733,6.6737716873094195,3.071015872143778,-11.17214201898712,-4.846468692311093,-13.663378324336698,-14.843427898276172
3.1015625,-8.329719038438927,-12.65951870829003,0.7601965417812374,0.7389284016328125,-8.219184687372579,3.3455013027674614,-2.0351616689724734,-0.41578711357718695,2.660624481391178,0.19423786481417982,-9.816097611390527,-5.017897190017907,-9.264597888542479,-9.060690128572775
3.109375,-3.913779414908659,-6.894583917748175,3.7151788680676123,2.3413889443475764,11.285248917640404,4.045953666543582,-3.701732081108194,-7.010591685028324,-1.5312374740675954,-5.290904848280764,-8.421704403557598,-5.40775201992134,-6.200617942533408,-4.910044966017948
3.1171875,-3.7538253078504646,-5.278821922979349,6.347425896668486,0.8065781017997864,21.88654486704729,4.488962735174225,-4.407794474017461,-9.868327373018317,-4.392186413453963,-11.676015475141543,-8.611155457050687,-5.341637193582624,-6.986514929822581,-5.0074447949031
3.125,-9.212844224368858,-8.979752129154793,6.826473109008458,-2.2985378250681348,13.175220622387583,4.421397360328713,-5.0040923305359835,-8.693661771481828,-4.776295858460778,-16.793334488597385,-11.426905457083551,-5.690998704871012,-13.341510854541571,-10.966002690642998
3.1328125,-15.987971935720774,-14.067683434757491,4.78306639226781,-3.5418808988524186,-11.025936247550316,3.7145457736321847,-5.469432524843082,-5.288155404287362,-2.7456709900906326,-18.038015300729423,-14.64218058655884,-6.61705166566149,-20.619117247411733,-18.228099518706426
3.140625,-18.170814766202426,-16.505965739204317,1.701715044277475,-1.0758941649155582,-35.630476154514355,3.137887344988092,-4.171055998202212,-1.8038867202756574,0.9796608014191365,-14.722245531997471,-14.965298322350073,-6.593288642870877,-22.342739903270576,-20.252682129992802
3.1484375,-12.483297285981147,-13.831057728259912,-0.4771137156511482,3.7189180268759765,-44.49326099254975,3.4572789224237495,-0.6260713340485015,0.03574485340479353,4.422530806693334,-8.861335725991935,-11.226587098533656,-4.54760866834953,-15.297117052526458,-14.15437858349839
3.15625,-2.889829123628452,-8.148101562184404,-0.8076217784283807,6.893681291389407,-30.5581259877606,4.930911180081149,3.7813420822009984,-0.5097556975163922,5.107694643947691,-4.430253264971242,-6.337340965287724,-1.9039092453280915,-3.966851400769498,-3.387687254850084
3.1640625,4.804751673149735,-2.0758613833574886,0.04874199346776858,6.255574353428326,-2.4458001449471154,6.530801480638001,6.200038047003699,-2.8519252311988073,2.1625700582713923,-3.920627210720736,-3.6955378685240343,-1.0496683202583625,5.26853456556972,6.3731345947051485
3.171875,5.656176309777651,0.2585408165068777,0.5528223408263487,2.089420595732855,19.259459302142652,6.080850156390773,4.745853661359088,-6.231437320120189,-2.9137704689808146,-7.214745519790133,-5.715405327908567,-3.7023441915501656,6.984298208473041,9.038411953910162
3.1796875,1.7726493449461722,-1.467186872299597,-0.41807350580492714,-2.4101491275909863,17.16087615362863,1.9128170147286687,-0.36772415209762327,-8.98012755565796,-7.1858737896214055,-11.6059299136462,-10.668500041127501,-7.936596488101458,3.9263759243299012,5.949967077373594
3.1875,-3.0207534141643833,-6.651180256516831,-3.374294715363916,-5.395205829643899,-9.353561112820781,-4.818111285931838,-7.108913763593363,-10.956333229953952,-9.310926879706443,-13.918731355634817,-15.238404647662739,-11.907982144721373,1.3645321021227708,0.6799094519288935
3.1953125,-3.0241568321547128,-10.45460354004626,-6.757973832917057,-5.62444119043212,-41.049655713665985,-10.522565831980511,-11.580510060107462,-11.223164961576293,-8.736305906150838,-12.656335566566439,-14.854690147490233,-12.893298649926534,5.540779708675276,-0.05296796312729418
3.203125,4.033960625250835,-8.49924804449734,-7.639135085704024,-3.431020638105366,-52.419284426307584,-11.226889892178093,-10.27199760302396,-9.110706939873596,-5.556710810679575,-8.649504669140006,-7.943782140812588,-9.741361943885616,17.2369713520177,7.174545172079859
3.2109375,17.737047560448108,2.5444522844740645,-4.463343994746139,0.7164970558010609,-30.947789966573733,-6.801608475637817,-3.914175054226772,-4.6391673431438045,-1.048592023397317,-3.4962320495731274,4.661278540688807,-2.1444876055737856,33.39400142283323,22.197865671036975
3.21875,31.51051608109143,17.8592966704654,0.9653351220520069,5.2002047192283,12.596534462281019,-0.4520924458636347,2.829497028443527,0.23308949385317648,2.9561260826593925,0.929296519578137,16.99164731928637,6.284317049320297,45.73657186223097,37.42031614384383
3.2265625,36.968885813242686,28.28791815530239,4.511703729360473,7.855352107573844,50.08857758693264,3.3370498152787342,5.259046234291341,3.0821586126412317,4.251374705282476,3.6479088828883617,22.555678573199128,10.197034215962795,47.39414357619533,43.8238571668028
3.234375,28.23617702128574,24.78223314151317,3.0190665819020785,6.243743861231081,57.28663800991135,2.3869190788413994,3.1668716918554405,3.3250167370495523,2.452242070522845,3.281407921296738,17.747386548643828,6.874515579862481,35.04163123241741,35.28288257784762
3.2421875,9.414302967866535,8.262668434816922,-2.589726311500575,0.42425905813137804,32.72590983743077,-2.1523692007440514,-0.4571319719946593,1.8401773942443485,-1.0254410807550152,-0.6087314121868092,5.726037501856484,-0.807029898811539,14.232646843265513,15.382323644827377
3.25,-8.730039033915105,-11.343415877783816,-8.332358790036292,-6.50022110856736,-2.1443987664618476,-6.306504462096851,-2.4023876932253554,1.2086038638394516,-3.1737312822914716,-5.825492123327687,-5.9659050676248375,-6.863879319779521,-4.446340732520268,-4.73776212870114
3.2578125,-14.16539751450218,-20.105417187025107,-9.737637915247129,-9.11695993504301,-22.863616680787917,-6.874362632171348,-1.7268030548494333,2.829207773051699,-2.2662174332276463,-7.562428990720895,-9.40126529886285,-6.584600589051052,-9.586017217424782,-12.419693828519124
3.265625,-5.373727654672219,-13.311067548173838,-5.654260663881785,-5.1620453507056,-23.513717799254078,-3.3416588644340948,-0.04311210737810527,5.993352651082741,1.107787984759756,-2.2104328605725687,-3.2990866631705207,-0.7366199089580873,0.17040112655514272,-4.612062935484028
3.2734375,9.662250011211102,2.568855509161704,1.5023800243258874,3.6442154927505372,-18.23181207037011,1.4725314228885438,0.5168961791931267,8.290906848051003,4.878017666412117,8.510074240634824,7.2076843271450715,6.404282384245561,16.401860266419856,10.963263572993402
3.28125,20.492645641184367,15.6943178610647,7.845258685746677,12.85880401952784,-24.136556825174193,3.2101503488114256,-0.7010717680785785,8.385425311453876,7.169716799882521,18.722683719486728,15.101732611793109,11.019997155621343,28.291994179134907,23.358913781231156
3.2890625,20.37915028315131,16.420842141177424,10.22461931996061,17.01554287857873,-42.78786956347233,0.46405630559338995,-2.1624314433239142,7.044082466206753,7.417718129812739,22.547409994354783,16.530671143789732,11.417628293032228,29.247127175868762,24.693845053050612
3.296875,9.207664926495587,3.535873643781918,8.162435228424748,13.354387821659246,-58.3263410578023,-3.8191618714614775,-1.3622420981974515,7.130140331229545,6.840417886575448,19.400001915647763,12.509594710692442,8.535086254270446,19.108796319567638,14.34481339480634
3.3046875,-5.393713530694379,-14.074397317552812,4.781104391496138,4.493104423492055,-53.7550279353555,-4.511824080171842,3.3034764616585655,10.44372462458985,7.964015963519231,13.959053607198934,7.861192371552745,6.11183670770961,4.404467503572878,-0.06180134571858705
3.3125,-14.74517646551042,-24.764133721847063,3.2478791388590156,-4.193496800756529,-24.022046760127065,0.9489964095659321,10.433610252823124,15.224160750598555,10.60289355197555,11.540818529043626,5.890473438322895,6.228656517560836,-7.310990974322585,-9.733836540059494
3.3203125,-12.906465695038206,-21.707262846273508,5.2805947968613065,-7.056239861049517,22.401460129153925,10.89593944011391,16.59326405598557,17.740339492545917,12.690377710549699,13.943759004549229,7.491176705498621,8.460819814596903,-9.496172737460466,-8.871167392493915
3.328125,-0.6354554797710442,-6.79328426978599,9.386799369871285,-2.5616358259163614,71.8054128105968,20.970561880636176,18.626800270687937,15.343780698251582,11.193734856968442,18.57486648824317,11.123099964883444,10.428643495155608,-1.101366756064586,1.2484358792167003
3.3359375,16.535059345993776,12.712721797175071,13.796868141811952,7.544141571330208,108.12561035859892,26.430647069218637,16.21976202187557,10.385481055146434,6.55817400191379,21.38316071808504,16.24362555221345,11.651705804290428,14.612152037538154,16.253713289043475
3.34375,32.4477388048491,29.336984264507503,17.81125999674175,19.458667292772983,115.29134414268628,25.09664878505106,11.672211142803395,7.066924443568614,2.3092694783917223,20.786024025605347,23.186082994166444,13.796279422937905,32.33744785541305,30.76696603388076
3.3515625,38.967928492719885,36.218364107577216,19.827231073537103,27.400741628422228,83.28381816563076,17.737938759036236,7.750630039950159,7.787596372464798,1.6935386418807847,17.37086538303815,30.105867130859302,16.188909907675793,43.52876101106962,38.337963060212644
3.359375,33.51247378980552,31.732252095655735,18.42348125308535,28.093526349195088,20.414237429110635,7.945368955095244,5.911307304931172,11.312451380214029,5.34266292263513,14.214184314918356,33.817951262565614,16.437081268896513,43.95488716020054,36.135495364132865
3.3671875,20.429797093850546,21.025569800275946,14.074900300719728,22.341925446309215,-42.2585384077311,-0.05272914874692771,6.110390616325244,15.04799520055647,11.096683232394781,13.925131017582876,33.529584051863,13.28958717642087,35.847910330916825,27.600182857118295
3.375,10.058755181974348,13.375846352825185,10.574164356848197,15.007160514858404,-68.56148200267333,-2.6663152507349785,8.04130335668658,16.869446874610908,16.046740082196717,17.04759933988587,31.190577854056322,9.162019640433039,27.537571637815372,21.51519418206286
3.3828125,9.005353217421417,14.109896070486801,11.377488660275425,10.997363858058405,-43.56347288858694,0.8734057248100419,10.819067346962456,16.950557520019707,17.704319647033746,20.84390994445981,29.007502226117523,7.450775918063355,24.869379000248127,22.93515358919148
3.390625,16.710994596395924,22.053532826272544,16.663488400195853,12.361001542275453,14.339633677664596,7.873989659943865,13.27814421251495,16.495749278540323,15.768917542812508,22.050437114486694,28.383415409442854,9.260597630580353,28.75720175963148,30.53285675615644
