timestamp,AF3,F7,F3,FC5,T7,P7,O1,O2,P8,T8,FC6,F4,F8,AF4
1970-01-02 07:27:49.030305,4237.436,4297.436,4249.359,4203.974,4332.821,4298.077,4241.538,4266.41,4266.026,4266.923,4260.256,4266.667,4293.333,4224.744
1970-01-02 07:27:49.030351,4222.692,4293.59,4258.462,4199.487,4325.256,4296.923,4234.744,4261.795,4266.41,4271.923,4265.128,4268.462,4306.41,4222.821
1970-01-02 07:27:49.030378,4217.308,4300.0,4271.667,4208.077,4327.692,4303.333,4234.615,4270.769,4278.333,4282.692,4279.615,4278.718,4323.462,4231.154
1970-01-02 07:27:49.030406,4216.667,4304.744,4281.154,4218.462,4332.179,4309.231,4235.0,4283.205,4287.692,4284.359,4289.487,4285.256,4335.0,4243.974
1970-01-02 07:27:49.045297,4209.872,4294.103,4278.077,4214.103,4326.026,4302.436,4227.308,4280.0,4277.051,4268.59,4279.872,4273.974,4330.769,4250.897
1970-01-02 07:27:49.045345,4201.282,4275.897,4272.436,4200.641,4315.641,4289.615,4219.615,4263.718,4254.103,4251.667,4260.641,4256.795,4320.128,4256.026
1970-01-02 07:27:49.045370,4203.974,4268.205,4279.231,4195.256,4315.128,4286.538,4224.231,4253.077,4241.795,4254.103,4252.436,4257.179,4318.974,4268.205
1970-01-02 07:27:49.060296,4217.436,4272.308,4293.205,4198.846,4322.051,4290.641,4233.333,4252.949,4244.487,4270.0,4255.385,4273.718,4325.256,4280.256
1970-01-02 07:27:49.060347,4229.872,4275.385,4296.795,4198.462,4322.692,4287.949,4230.0,4252.179,4247.949,4276.667,4253.205,4283.333,4325.513,4278.846
1970-01-02 07:27:49.060376,4239.744,4274.231,4290.0,4193.462,4317.436,4280.641,4217.692,4247.564,4246.282,4270.128,4244.103,4277.179,4321.667,4269.872
1970-01-02 07:27:49.060404,4256.795,4279.359,4290.513,4197.179,4319.487,4284.231,4214.744,4249.231,4249.872,4269.103,4242.821,4268.974,4328.333,4272.821
1970-01-02 07:27:49.075414,4279.103,4293.846,4302.308,4210.0,4330.0,4298.59,4224.744,4258.333,4260.513,4281.026,4252.436,4266.923,4344.103,4287.692
1970-01-02 07:27:49.075462,4292.949,4307.436,4310.256,4216.41,4336.923,4304.615,4230.769,4262.436,4263.974,4290.641,4256.795,4260.641,4348.974,4293.846
1970-01-02 07:27:49.077917,4296.026,4315.513,4307.564,4211.41,4336.667,4294.103,4224.615,4257.821,4255.513,4287.949,4248.974,4244.359,4336.282,4284.103
1970-01-02 07:27:49.077950,4302.692,4325.385,4308.333,4209.103,4340.385,4283.333,4218.718,4257.692,4250.256,4283.846,4243.205,4231.538,4324.359,4277.821
1970-01-02 07:27:49.092523,4317.179,4336.41,4321.154,4217.821,4350.128,4286.026,4222.436,4269.231,4258.462,4287.564,4249.872,4232.179,4327.308,4287.821
1970-01-02 07:27:49.092575,4322.692,4334.615,4331.154,4224.103,4350.256,4292.564,4226.026,4278.333,4266.282,4287.821,4256.667,4235.897,4333.846,4299.231
1970-01-02 07:27:49.092602,4310.769,4316.923,4323.333,4217.051,4332.436,4289.359,4219.615,4271.667,4258.974,4271.282,4249.615,4228.59,4329.615,4294.744
1970-01-02 07:27:49.092629,4299.359,4302.949,4306.41,4208.59,4312.436,4281.41,4211.282,4258.077,4246.282,4245.256,4236.667,4215.513,4320.641,4281.282
1970-01-02 07:27:49.105420,4306.667,4307.821,4297.179,4214.744,4308.718,4281.154,4211.154,4253.205,4245.769,4226.667,4232.308,4208.846,4320.0,4274.359
1970-01-02 07:27:49.105473,4321.026,4317.821,4292.692,4228.846,4316.41,4286.923,4212.949,4255.128,4254.103,4218.462,4233.974,4207.436,4322.821,4270.128
1970-01-02 07:27:49.105502,4319.359,4311.795,4280.385,4233.59,4319.744,4289.231,4207.821,4251.667,4254.744,4213.846,4230.513,4202.051,4316.538,4256.282
1970-01-02 07:27:49.105529,4302.949,4294.359,4263.846,4228.718,4318.333,4290.513,4205.513,4245.769,4247.436,4214.359,4225.641,4197.436,4304.359,4238.077
1970-01-02 07:27:49.120380,4290.385,4285.513,4256.795,4227.308,4321.41,4298.205,4219.744,4250.513,4248.077,4224.744,4230.256,4206.923,4299.103,4232.436
1970-01-02 07:27:49.120434,4285.385,4287.436,4257.821,4231.026,4327.308,4305.769,4241.026,4264.744,4259.872,4237.179,4240.128,4229.615,4299.231,4239.103
1970-01-02 07:27:49.120464,4275.385,4286.667,4251.795,4229.231,4326.026,4300.513,4248.205,4272.949,4268.462,4239.615,4239.744,4249.872,4291.923,4240.513
1970-01-02 07:27:49.120494,4261.026,4282.564,4236.667,4221.923,4321.923,4288.333,4241.026,4271.795,4267.436,4236.667,4230.769,4261.154,4279.231,4230.769
1970-01-02 07:27:49.135801,4257.692,4288.974,4228.462,4221.41,4328.462,4289.359,4239.103,4273.59,4266.923,4245.513,4231.282,4271.923,4278.077,4223.077
1970-01-02 07:27:49.135852,4267.308,4304.359,4234.744,4227.692,4342.692,4306.41,4249.103,4281.667,4272.308,4267.692,4245.641,4283.974,4292.564,4225.0
1970-01-02 07:27:49.138657,4269.615,4307.692,4243.333,4225.385,4345.256,4318.718,4254.359,4282.308,4273.077,4284.231,4254.744,4285.897,4304.487,4226.538
1970-01-02 07:27:49.138692,4252.949,4290.641,4243.462,4208.974,4331.282,4312.564,4245.0,4270.256,4262.821,4282.692,4246.026,4274.744,4300.0,4218.846
1970-01-02 07:27:49.152500,4231.667,4272.436,4242.436,4194.231,4319.872,4298.974,4234.103,4261.282,4252.821,4271.538,4232.564,4266.923,4287.821,4208.974
1970-01-02 07:27:49.152549,4222.179,4270.897,4249.103,4193.462,4324.487,4292.949,4235.769,4267.692,4253.59,4262.179,4230.641,4272.436,4282.949,4207.564
1970-01-02 07:27:49.152577,4219.231,4278.077,4258.59,4197.821,4333.333,4291.538,4243.59,4277.564,4256.795,4253.846,4236.667,4278.718,4286.41,4212.308
1970-01-02 07:27:49.152605,4210.897,4277.692,4265.0,4196.538,4331.667,4288.077,4245.641,4275.0,4251.795,4246.026,4239.615,4272.436,4294.231,4218.205
1970-01-02 07:27:49.165384,4201.667,4270.897,4276.154,4197.949,4325.897,4288.974,4244.487,4266.41,4245.641,4250.256,4241.923,4264.872,4310.128,4229.231
1970-01-02 07:27:49.165431,4204.103,4267.692,4298.718,4213.59,4328.718,4300.769,4247.179,4266.795,4250.385,4271.538,4250.128,4273.333,4334.231,4248.59
1970-01-02 07:27:49.165458,4216.41,4265.897,4320.0,4234.615,4336.026,4311.795,4248.974,4273.718,4259.231,4292.564,4256.282,4290.641,4350.641,4264.359
1970-01-02 07:27:49.180499,4226.41,4258.718,4323.846,4242.179,4336.026,4307.564,4242.564,4273.077,4255.897,4293.59,4250.513,4296.154,4345.0,4264.744
1970-01-02 07:27:49.180570,4232.821,4253.333,4316.795,4236.282,4332.179,4296.41,4236.282,4266.538,4243.718,4280.256,4242.821,4289.231,4328.846,4260.256
1970-01-02 07:27:49.180622,4245.0,4263.205,4318.333,4232.949,4336.154,4297.692,4242.949,4268.205,4240.641,4274.359,4250.897,4286.795,4325.385,4268.974
1970-01-02 07:27:49.180673,4262.821,4282.692,4328.59,4236.026,4344.359,4309.872,4255.128,4277.949,4249.615,4279.231,4269.231,4291.154,4334.359,4286.538
1970-01-02 07:27:49.180725,4276.538,4291.026,4329.615,4233.974,4342.821,4311.923,4253.077,4279.615,4253.333,4278.333,4273.205,4286.282,4334.744,4291.667
1970-01-02 07:27:49.195432,4286.795,4282.564,4317.949,4224.872,4331.538,4297.179,4235.256,4268.333,4244.103,4265.897,4255.256,4267.308,4320.256,4281.026
1970-01-02 07:27:49.195478,4304.231,4273.333,4311.026,4220.385,4325.769,4283.205,4221.795,4258.462,4235.0,4257.308,4235.256,4250.641,4307.564,4274.487
1970-01-02 07:27:49.197997,4326.795,4275.128,4317.436,4224.103,4330.385,4282.308,4224.744,4258.205,4235.256,4261.41,4230.256,4246.795,4306.795,4280.256
1970-01-02 07:27:49.211715,4336.154,4281.795,4322.692,4223.333,4332.051,4285.641,4233.59,4257.949,4235.513,4266.282,4233.333,4245.128,4306.667,4281.41
1970-01-02 07:27:49.211768,4326.667,4286.923,4315.641,4214.744,4323.077,4282.949,4236.667,4250.641,4229.615,4261.026,4232.821,4234.231,4299.359,4266.282
1970-01-02 07:27:49.211797,4317.436,4296.41,4307.179,4214.615,4314.359,4280.769,4237.949,4247.949,4230.385,4254.231,4232.179,4222.051,4297.564,4249.872
1970-01-02 07:27:49.211825,4323.333,4311.41,4308.205,4232.308,4315.0,4287.051,4243.077,4259.103,4247.436,4257.051,4238.333,4219.872,4310.897,4248.462
1970-01-02 07:27:49.225484,4332.949,4317.564,4309.359,4250.897,4316.41,4293.718,4245.385,4271.538,4266.026,4262.564,4245.128,4221.282,4325.385,4253.718
1970-01-02 07:27:49.225537,4330.128,4307.308,4297.308,4250.897,4309.615,4290.897,4240.897,4268.846,4266.795,4257.436,4244.872,4214.744,4324.359,4251.154
1970-01-02 07:27:49.225568,4321.282,4296.667,4279.872,4238.462,4303.205,4285.0,4241.154,4257.051,4255.641,4243.205,4244.872,4204.872,4315.128,4246.923
1970-01-02 07:27:49.240379,4321.667,4302.436,4273.462,4234.103,4308.718,4287.564,4254.359,4253.077,4252.436,4229.487,4253.59,4205.641,4314.487,4254.231
1970-01-02 07:27:49.240429,4326.795,4314.103,4274.487,4240.385,4318.846,4293.59,4265.513,4256.923,4259.744,4217.436,4261.154,4217.179,4318.718,4264.872
1970-01-02 07:27:49.240457,4319.359,4308.846,4266.026,4243.205,4319.359,4291.154,4255.641,4254.487,4261.282,4204.615,4251.41,4227.949,4310.0,4258.462
1970-01-02 07:27:49.240485,4299.487,4288.718,4247.179,4237.179,4312.949,4284.615,4233.077,4244.615,4252.051,4201.41,4230.769,4236.538,4287.564,4235.256
1970-01-02 07:27:49.255826,4283.718,4276.154,4233.846,4230.641,4313.205,4288.333,4223.59,4240.128,4245.128,4220.897,4222.308,4251.795,4268.59,4217.051
1970-01-02 07:27:49.255871,4276.667,4279.231,4231.538,4226.026,4319.231,4299.359,4233.462,4244.103,4247.949,4255.0,4233.077,4270.769,4261.282,4215.0
1970-01-02 07:27:49.255898,4266.923,4284.231,4228.59,4216.795,4317.692,4298.59,4244.615,4244.872,4252.308,4278.718,4246.154,4277.949,4257.051,4217.821
1970-01-02 07:27:49.255932,4252.051,4283.846,4218.462,4206.282,4309.615,4282.692,4246.282,4239.872,4252.821,4281.154,4248.974,4270.256,4252.308,4215.128
1970-01-02 07:27:49.258536,4245.513,4287.436,4211.282,4208.846,4311.795,4271.282,4247.692,4242.692,4256.923,4275.256,4249.231,4264.872,4257.564,4212.436
1970-01-02 07:27:49.273880,4251.41,4298.333,4215.641,4224.872,4327.308,4276.667,4253.846,4258.077,4267.692,4273.462,4254.487,4271.923,4275.513,4216.282
1970-01-02 07:27:49.273941,4253.59,4302.949,4225.385,4234.744,4337.308,4286.923,4254.103,4269.615,4273.205,4273.077,4258.205,4280.385,4291.667,4220.385
1970-01-02 07:27:49.273975,4240.385,4294.231,4234.615,4227.821,4329.359,4289.231,4242.949,4266.282,4266.538,4270.769,4255.385,4280.0,4295.641,4218.462
1970-01-02 07:27:49.274005,4223.205,4285.513,4249.872,4218.59,4316.282,4289.359,4233.846,4260.256,4259.487,4273.846,4256.026,4279.359,4297.949,4218.077
1970-01-02 07:27:49.285467,4217.692,4289.231,4273.718,4222.692,4313.205,4295.0,4237.051,4265.897,4263.59,4283.59,4267.564,4287.308,4310.513,4228.205
1970-01-02 07:27:49.285518,4219.872,4293.846,4290.641,4231.41,4315.385,4297.436,4241.154,4273.333,4267.821,4285.513,4277.051,4291.795,4325.128,4243.718
1970-01-02 07:27:49.285549,4216.41,4282.692,4286.923,4226.795,4311.923,4286.538,4232.179,4265.256,4256.154,4270.385,4270.385,4279.487,4326.795,4254.359
1970-01-02 07:27:49.300343,4209.615,4261.154,4273.718,4211.154,4308.462,4273.59,4218.59,4245.897,4235.128,4253.333,4255.513,4262.949,4318.205,4261.282
1970-01-02 07:27:49.300389,4213.333,4249.487,4271.795,4200.385,4316.026,4275.385,4217.436,4235.385,4225.0,4254.359,4250.641,4265.0,4312.821,4270.385
1970-01-02 07:27:49.300420,4229.744,4253.718,4281.41,4198.333,4328.846,4285.769,4226.41,4238.462,4229.487,4267.436,4254.872,4283.205,4312.051,4275.385
1970-01-02 07:27:49.300451,4247.564,4263.205,4286.795,4196.923,4332.308,4285.769,4229.487,4243.205,4233.718,4272.179,4253.077,4294.103,4307.564,4268.59
1970-01-02 07:27:49.315505,4262.308,4272.564,4285.897,4197.436,4327.692,4275.641,4224.615,4245.0,4232.692,4267.308,4245.385,4288.974,4303.59,4261.667
1970-01-02 07:27:49.315558,4278.205,4286.026,4291.538,4209.615,4329.487,4274.103,4223.59,4251.795,4237.436,4271.923,4247.564,4281.538,4312.692,4274.487
1970-01-02 07:27:49.315589,4292.179,4301.538,4303.718,4228.333,4338.974,4285.256,4227.949,4262.949,4250.641,4290.641,4262.179,4278.974,4329.744,4300.641
1970-01-02 07:27:49.315619,4294.744,4308.333,4306.154,4235.256,4341.923,4292.051,4224.872,4265.0,4258.59,4303.333,4271.41,4270.385,4333.205,4310.385
1970-01-02 07:27:49.332987,4291.667,4306.282,4295.641,4226.667,4333.846,4284.615,4211.538,4255.128,4254.872,4297.308,4265.0,4250.128,4318.462,4292.692
1970-01-02 07:27:49.333042,4302.308,4309.103,4291.795,4220.385,4327.821,4276.667,4203.333,4249.103,4252.949,4285.256,4255.256,4232.436,4307.051,4270.385
1970-01-02 07:27:49.333075,4327.179,4320.513,4305.0,4226.923,4330.513,4280.128,4208.205,4255.256,4261.667,4281.795,4254.744,4229.359,4313.718,4265.385
1970-01-02 07:27:49.333107,4340.385,4325.641,4318.205,4232.308,4330.0,4286.282,4213.846,4259.872,4267.436,4281.026,4257.179,4231.795,4325.128,4271.41
1970-01-02 07:27:49.345438,4324.872,4315.769,4313.205,4223.974,4317.564,4283.462,4209.487,4249.487,4257.564,4270.385,4253.462,4225.897,4323.077,4272.436
1970-01-02 07:27:49.345488,4299.103,4304.615,4297.949,4212.436,4304.615,4277.821,4204.103,4234.744,4243.718,4253.333,4249.615,4214.615,4312.821,4269.615
1970-01-02 07:27:49.345519,4290.513,4306.923,4289.359,4212.692,4304.615,4280.385,4208.59,4232.949,4245.128,4240.897,4253.974,4208.718,4308.718,4270.897
1970-01-02 07:27:49.345550,4298.846,4314.487,4285.897,4219.744,4311.154,4287.308,4215.513,4241.41,4257.692,4232.821,4258.846,4206.923,4309.487,4269.872
1970-01-02 07:27:49.360488,4305.897,4312.179,4275.0,4219.872,4312.051,4288.846,4214.103,4245.897,4262.564,4222.949,4253.462,4201.41,4305.385,4256.41
1970-01-02 07:27:49.360539,4306.41,4304.872,4260.256,4216.154,4311.026,4288.718,4212.692,4246.538,4257.179,4216.154,4245.769,4197.821,4300.0,4239.872
1970-01-02 07:27:49.360570,4307.692,4306.667,4254.744,4221.795,4319.359,4296.795,4224.487,4255.128,4256.026,4221.41,4251.026,4208.846,4303.59,4238.718
1970-01-02 07:27:49.375901,4305.897,4313.846,4256.154,4232.564,4332.179,4306.538,4241.795,4270.0,4263.462,4233.077,4264.231,4231.282,4310.0,4249.744
1970-01-02 07:27:49.375951,4289.744,4310.256,4248.462,4232.051,4335.0,4302.308,4244.231,4276.538,4268.333,4237.564,4265.513,4247.436,4301.923,4252.308
1970-01-02 07:27:49.375981,4265.385,4298.59,4230.641,4218.846,4329.359,4287.051,4231.795,4271.795,4265.513,4237.179,4251.282,4252.308,4279.615,4239.231
1970-01-02 07:27:49.376012,4254.231,4297.692,4220.641,4209.872,4330.128,4280.385,4223.846,4269.103,4265.0,4246.795,4240.256,4257.692,4263.462,4226.026
1970-01-02 07:27:49.390457,4260.0,4310.769,4227.821,4211.667,4337.692,4288.59,4227.821,4273.462,4271.026,4267.564,4242.051,4269.615,4265.513,4224.872
1970-01-02 07:27:49.392992,4262.179,4317.051,4238.846,4211.282,4335.641,4295.385,4229.615,4272.692,4273.333,4282.179,4244.615,4277.179,4274.615,4227.949
1970-01-02 07:27:49.393028,4247.564,4303.846,4241.026,4201.538,4320.641,4289.744,4221.41,4261.538,4266.282,4280.128,4237.949,4274.487,4279.103,4224.103
1970-01-02 07:27:49.393052,4228.718,4285.0,4240.385,4194.359,4310.897,4281.795,4216.154,4254.487,4261.538,4271.282,4231.41,4272.436,4282.308,4217.179
1970-01-02 07:27:49.406813,4221.282,4276.154,4247.179,4198.462,4318.462,4283.462,4224.487,4262.051,4267.308,4266.667,4234.615,4278.077,4290.769,4215.513
1970-01-02 07:27:49.406864,4220.641,4273.718,4258.333,4203.077,4330.897,4288.59,4235.897,4272.051,4272.308,4263.205,4240.128,4279.744,4298.974,4218.718
1970-01-02 07:27:49.406893,4214.872,4268.846,4267.821,4197.436,4333.846,4288.462,4237.564,4269.872,4264.359,4258.462,4239.744,4268.974,4303.077,4224.615
1970-01-02 07:27:49.406923,4206.667,4266.795,4282.051,4191.41,4332.949,4289.744,4235.641,4263.333,4251.923,4262.821,4241.923,4261.154,4312.179,4239.359
1970-01-02 07:27:49.420589,4206.282,4274.359,4306.154,4199.103,4340.0,4300.641,4240.897,4268.077,4251.026,4282.179,4256.41,4273.59,4333.59,4265.256
1970-01-02 07:27:49.420640,4211.923,4281.667,4327.564,4213.846,4349.872,4311.154,4246.795,4279.872,4258.333,4301.282,4271.667,4295.256,4354.103,4286.538
1970-01-02 07:27:49.420669,4214.487,4275.385,4330.641,4219.103,4350.128,4307.821,4241.923,4281.667,4258.205,4301.538,4269.872,4301.795,4356.026,4286.667
1970-01-02 07:27:49.420697,4216.282,4262.436,4321.41,4215.385,4344.103,4298.59,4232.308,4272.692,4250.513,4288.846,4256.41,4291.795,4343.974,4272.051
1970-01-02 07:27:49.435536,4228.077,4261.795,4319.359,4217.051,4343.974,4302.179,4232.821,4267.821,4249.359,4284.103,4251.41,4285.128,4336.667,4262.949
1970-01-02 07:27:49.435578,4248.333,4274.103,4325.385,4224.487,4347.564,4315.513,4240.0,4270.769,4255.513,4290.256,4257.179,4287.564,4336.667,4262.436
1970-01-02 07:27:49.435607,4265.385,4281.795,4323.077,4224.103,4342.051,4316.795,4236.026,4269.231,4254.872,4291.026,4255.385,4283.462,4330.0,4257.949
1970-01-02 07:27:49.435635,4277.436,4277.564,4310.256,4213.718,4328.718,4298.974,4218.205,4259.231,4243.974,4281.282,4239.872,4265.385,4314.744,4249.359
1970-01-02 07:27:49.450612,4294.231,4272.692,4304.744,4207.821,4323.718,4281.282,4204.615,4253.205,4238.205,4275.385,4226.795,4247.179,4306.41,4253.077
1970-01-02 07:27:49.452929,4313.462,4275.641,4314.359,4212.051,4331.154,4279.487,4206.923,4256.923,4244.615,4280.769,4228.333,4240.256,4311.154,4270.256
1970-01-02 07:27:49.452965,4317.821,4279.744,4324.103,4214.487,4335.897,4286.923,4216.154,4259.231,4249.615,4283.718,4235.769,4236.282,4314.744,4280.0
1970-01-02 07:27:49.468028,4303.59,4281.026,4322.051,4209.744,4329.359,4293.077,4222.179,4253.333,4243.205,4273.59,4239.231,4226.538,4309.744,4271.667
1970-01-02 07:27:49.468082,4291.795,4288.077,4318.205,4212.051,4322.179,4300.641,4229.103,4250.897,4238.462,4261.282,4244.359,4218.59,4310.256,4263.205
1970-01-02 07:27:49.468115,4298.333,4302.821,4323.333,4230.641,4324.615,4312.564,4240.385,4261.026,4248.205,4260.128,4255.513,4220.641,4326.41,4270.385
1970-01-02 07:27:49.468144,4311.795,4309.231,4326.154,4250.0,4328.333,4318.462,4245.897,4271.923,4261.538,4263.333,4261.538,4223.205,4342.949,4280.641
1970-01-02 07:27:49.468179,4314.487,4296.923,4311.795,4251.41,4323.59,4309.872,4239.359,4268.846,4260.128,4255.769,4251.923,4214.231,4339.872,4275.385
1970-01-02 07:27:49.480618,4311.538,4281.41,4287.179,4239.103,4318.205,4297.821,4233.718,4259.359,4248.333,4237.308,4237.692,4201.41,4322.436,4261.667
1970-01-02 07:27:49.480670,4316.923,4281.795,4270.641,4231.026,4322.949,4297.564,4241.41,4260.256,4244.231,4218.59,4233.974,4201.41,4309.615,4258.462
1970-01-02 07:27:49.480700,4324.744,4291.538,4264.231,4230.385,4330.641,4304.487,4252.051,4269.487,4250.0,4203.846,4235.769,4214.744,4304.359,4263.077
1970-01-02 07:27:49.495704,4317.692,4290.897,4255.641,4228.077,4328.077,4303.462,4248.333,4270.256,4251.538,4193.462,4226.923,4226.923,4295.769,4256.154
1970-01-02 07:27:49.495753,4296.923,4281.026,4244.231,4224.231,4320.128,4294.487,4235.128,4260.513,4245.385,4196.538,4210.897,4233.846,4283.974,4234.231
1970-01-02 07:27:49.495780,4280.256,4279.744,4240.513,4227.692,4322.436,4291.282,4233.077,4254.872,4243.846,4223.205,4207.051,4244.744,4280.0,4214.615
1970-01-02 07:27:49.495807,4273.077,4289.103,4243.846,4234.615,4333.205,4294.103,4245.256,4258.974,4250.897,4261.795,4219.359,4260.641,4283.077,4208.462
1970-01-02 07:27:49.512252,4263.462,4291.41,4240.769,4230.256,4335.385,4289.487,4254.103,4261.923,4255.513,4286.41,4230.128,4270.0,4279.744,4208.59
1970-01-02 07:27:49.512303,4248.462,4281.154,4229.103,4215.641,4325.897,4276.282,4251.538,4260.128,4252.564,4286.667,4228.846,4270.513,4268.974,4208.333
1970-01-02 07:27:49.514843,4242.308,4274.359,4225.641,4209.744,4321.41,4271.282,4249.231,4264.487,4253.333,4277.436,4226.923,4275.0,4267.308,4212.051
1970-01-02 07:27:49.514883,4250.0,4280.513,4239.744,4220.256,4329.231,4282.692,4254.872,4277.564,4263.077,4272.949,4234.359,4288.333,4282.436,4220.897
1970-01-02 07:27:49.528936,4254.744,4286.667,4258.718,4231.154,4335.641,4296.154,4257.949,4282.436,4268.974,4271.41,4243.59,4297.308,4298.333,4224.359
1970-01-02 07:27:49.528990,4243.462,4281.154,4268.718,4228.333,4330.769,4298.718,4251.538,4269.744,4261.026,4268.462,4246.538,4292.692,4300.513,4217.436
1970-01-02 07:27:49.529019,4226.41,4272.564,4274.359,4221.41,4325.385,4297.821,4246.026,4255.256,4250.385,4269.744,4250.256,4286.154,4296.154,4212.051
1970-01-02 07:27:49.529048,4218.974,4272.692,4284.872,4223.333,4329.744,4302.949,4250.769,4256.282,4250.385,4275.897,4261.41,4288.59,4298.077,4219.615
1970-01-02 07:27:49.540753,4217.436,4274.872,4294.487,4228.077,4334.103,4305.513,4255.256,4264.744,4254.103,4273.077,4268.974,4289.615,4302.692,4231.923
1970-01-02 07:27:49.540803,4210.0,4266.923,4292.821,4222.692,4326.795,4295.641,4247.179,4261.795,4246.538,4253.718,4261.667,4276.282,4300.0,4235.641
1970-01-02 07:27:49.540831,4201.026,4254.103,4285.385,4211.41,4316.538,4283.718,4234.487,4249.359,4232.692,4235.128,4250.385,4260.897,4294.872,4234.487
1970-01-02 07:27:49.555751,4205.385,4251.154,4285.0,4208.718,4317.949,4285.897,4232.821,4244.615,4229.487,4238.718,4253.205,4265.385,4297.821,4241.154
1970-01-02 07:27:49.555806,4223.974,4258.333,4288.974,4214.231,4327.051,4296.282,4240.256,4251.154,4236.795,4258.462,4265.897,4286.026,4303.333,4253.462
1970-01-02 07:27:49.555838,4243.462,4264.487,4286.795,4216.667,4328.333,4295.897,4242.692,4256.667,4239.872,4271.41,4268.205,4298.077,4299.231,4259.744
1970-01-02 07:27:49.555867,4259.231,4268.974,4284.103,4217.051,4321.41,4284.487,4240.385,4257.436,4236.154,4272.308,4257.051,4292.692,4291.41,4263.205
1970-01-02 07:27:49.570898,4277.308,4281.923,4296.41,4226.795,4320.513,4280.0,4245.256,4262.179,4239.487,4277.692,4250.385,4284.103,4298.462,4277.179
1970-01-02 07:27:49.570948,4296.41,4301.41,4318.846,4242.821,4327.436,4286.667,4256.026,4270.0,4252.564,4293.205,4255.897,4280.385,4318.846,4297.436
1970-01-02 07:27:49.570975,4305.641,4311.41,4326.795,4247.308,4328.333,4288.333,4256.282,4266.923,4259.615,4302.564,4260.385,4271.026,4329.103,4302.308
1970-01-02 07:27:49.573392,4306.538,4306.667,4312.051,4236.026,4318.846,4277.179,4241.282,4251.026,4253.077,4295.256,4253.974,4250.256,4319.103,4286.41
1970-01-02 07:27:49.573422,4315.0,4300.641,4296.154,4227.179,4311.538,4268.077,4227.821,4239.872,4247.179,4282.179,4246.154,4231.923,4306.154,4270.769
1970-01-02 07:27:49.588461,4333.59,4302.564,4297.051,4231.795,4313.718,4273.205,4227.308,4244.872,4252.821,4274.615,4246.41,4227.821,4304.615,4270.256
1970-01-02 07:27:49.588513,4341.538,4303.205,4303.974,4237.051,4315.128,4282.949,4231.026,4252.692,4258.846,4264.359,4247.821,4229.231,4304.615,4272.308
1970-01-02 07:27:49.588542,4326.667,4294.231,4299.231,4229.359,4308.077,4283.59,4228.974,4248.59,4251.795,4242.308,4242.692,4223.205,4294.103,4263.205
1970-01-02 07:27:49.600891,4307.308,4285.385,4286.41,4216.923,4302.436,4278.974,4227.051,4239.744,4240.641,4219.103,4238.718,4213.205,4282.692,4253.077
1970-01-02 07:27:49.600939,4306.667,4287.051,4278.718,4214.487,4307.949,4279.487,4232.564,4240.897,4242.179,4211.026,4244.359,4209.744,4284.615,4256.667
1970-01-02 07:27:49.600962,4320.256,4291.923,4274.872,4218.974,4315.897,4281.667,4236.538,4248.974,4252.692,4216.41,4250.769,4209.872,4293.718,4264.615
1970-01-02 07:27:49.600985,4328.462,4290.385,4265.769,4218.846,4314.103,4277.436,4230.128,4251.154,4255.897,4221.923,4246.282,4204.872,4294.615,4258.333
1970-01-02 07:27:49.615841,4328.077,4291.026,4255.897,4217.564,4309.744,4273.333,4224.615,4249.487,4251.154,4224.103,4238.974,4200.897,4288.974,4241.667
1970-01-02 07:27:49.615897,4328.205,4306.538,4256.923,4225.897,4315.769,4280.897,4235.769,4256.41,4252.436,4228.462,4244.487,4211.795,4290.513,4234.487
1970-01-02 07:27:49.615928,4325.128,4325.641,4263.333,4238.59,4327.179,4292.949,4254.615,4269.872,4262.179,4232.179,4258.59,4233.718,4296.282,4239.872
1970-01-02 07:27:49.615957,4306.538,4324.744,4257.821,4239.231,4327.051,4291.795,4258.974,4273.846,4267.308,4228.462,4260.769,4247.564,4290.128,4240.769
1970-01-02 07:27:49.631297,4277.949,4305.128,4239.103,4227.564,4316.026,4277.949,4246.923,4265.385,4262.308,4224.487,4246.282,4246.923,4270.128,4228.846
1970-01-02 07:27:49.631346,4262.308,4292.949,4225.641,4220.0,4311.154,4270.513,4238.077,4259.359,4258.077,4235.256,4233.333,4244.744,4255.0,4215.897
1970-01-02 07:27:49.631377,4266.154,4301.026,4226.667,4220.897,4316.667,4276.538,4240.128,4261.538,4261.026,4259.231,4234.615,4248.974,4256.538,4212.179
1970-01-02 07:27:49.634013,4269.359,4312.949,4230.513,4216.282,4318.077,4282.179,4239.744,4259.744,4261.795,4275.897,4241.667,4251.41,4266.026,4211.923
1970-01-02 07:27:49.649116,4255.256,4311.923,4226.282,4200.641,4309.615,4278.59,4229.615,4248.333,4255.0,4274.231,4245.769,4247.179,4273.333,4207.949
1970-01-02 07:27:49.649170,4231.923,4302.179,4221.667,4189.103,4305.513,4276.667,4222.949,4241.154,4251.923,4265.128,4251.282,4247.179,4282.308,4205.385
1970-01-02 07:27:49.649200,4215.513,4294.103,4226.795,4193.205,4314.872,4285.256,4229.487,4249.103,4260.256,4261.41,4261.923,4257.692,4296.795,4210.128
1970-01-02 07:27:49.649228,4206.667,4286.282,4236.795,4201.538,4325.769,4293.59,4238.077,4260.256,4268.718,4260.641,4266.795,4265.641,4307.949,4218.205
1970-01-02 07:27:49.660867,4200.128,4275.385,4245.769,4200.256,4326.923,4291.282,4236.667,4260.513,4264.231,4258.846,4258.974,4261.667,4308.846,4225.769
1970-01-02 07:27:49.660915,4200.256,4270.128,4260.897,4195.0,4327.051,4287.308,4232.564,4257.821,4255.0,4264.487,4251.538,4259.744,4310.0,4240.769
1970-01-02 07:27:49.660943,4213.205,4277.051,4288.462,4198.077,4337.692,4293.974,4236.667,4267.179,4256.026,4282.821,4258.462,4275.769,4322.179,4267.949
1970-01-02 07:27:49.675883,4230.385,4284.359,4313.974,4204.487,4350.641,4302.949,4242.051,4283.077,4263.462,4299.615,4270.0,4297.436,4335.513,4292.308
1970-01-02 07:27:49.675932,4238.718,4277.692,4318.077,4201.795,4350.513,4298.205,4235.769,4287.308,4261.795,4298.462,4267.308,4300.385,4333.59,4296.795
1970-01-02 07:27:49.675961,4240.641,4264.744,4305.641,4194.103,4340.641,4284.615,4223.974,4278.59,4251.795,4286.026,4253.205,4285.641,4320.897,4287.564
1970-01-02 07:27:49.675989,4248.333,4264.744,4297.564,4196.154,4336.667,4281.282,4222.949,4272.436,4249.103,4282.179,4247.821,4276.538,4315.769,4285.0
1970-01-02 07:27:49.690852,4261.282,4279.231,4299.231,4206.667,4339.615,4288.974,4231.667,4274.231,4255.897,4287.949,4254.744,4279.872,4321.154,4291.538
1970-01-02 07:27:49.690897,4268.846,4289.744,4297.692,4209.744,4337.821,4290.769,4232.949,4272.308,4257.179,4286.667,4257.179,4278.462,4322.821,4291.923
1970-01-02 07:27:49.690925,4271.923,4287.179,4290.385,4202.821,4330.513,4281.282,4221.923,4262.308,4248.462,4274.872,4246.538,4262.692,4317.436,4283.333
1970-01-02 07:27:49.690953,4284.487,4281.923,4291.41,4200.897,4330.256,4275.385,4213.077,4255.897,4244.103,4269.359,4234.872,4244.872,4317.692,4281.923
1970-01-02 07:27:49.708360,4306.795,4283.333,4304.744,4209.103,4339.359,4281.795,4214.744,4258.718,4251.282,4278.205,4232.436,4236.538,4326.282,4292.564
1970-01-02 07:27:49.708410,4319.872,4287.436,4313.974,4213.462,4343.59,4289.359,4218.59,4260.641,4257.179,4287.436,4234.103,4230.513,4327.692,4298.462
1970-01-02 07:27:49.708442,4315.513,4291.923,4309.487,4207.564,4336.282,4289.359,4218.59,4256.154,4251.923,4283.974,4235.128,4219.359,4316.026,4290.769
1970-01-02 07:27:49.708469,4309.744,4303.974,4305.513,4206.667,4329.359,4290.641,4223.846,4257.051,4248.462,4276.282,4243.462,4210.769,4309.359,4284.103
1970-01-02 07:27:49.720903,4316.154,4322.436,4313.846,4222.821,4332.051,4301.41,4238.205,4271.667,4259.231,4276.026,4260.641,4212.564,4321.282,4290.385
1970-01-02 07:27:49.720952,4322.821,4328.846,4320.769,4241.667,4334.744,4311.154,4247.564,4285.769,4272.821,4276.923,4270.769,4215.513,4337.051,4295.256
1970-01-02 07:27:49.720980,4314.487,4313.333,4307.692,4243.462,4327.436,4307.179,4239.872,4282.051,4270.897,4266.154,4261.923,4207.436,4334.744,4281.538
1970-01-02 07:27:49.721007,4299.615,4293.333,4280.385,4231.923,4318.974,4296.154,4225.256,4266.923,4257.179,4245.769,4247.051,4196.154,4316.795,4258.846
1970-01-02 07:27:49.735843,4296.41,4289.872,4259.359,4225.0,4322.179,4292.949,4219.872,4258.718,4250.513,4227.179,4245.256,4198.462,4301.923,4248.846
1970-01-02 07:27:49.735883,4301.667,4295.769,4250.256,4225.513,4331.026,4296.282,4220.769,4260.256,4254.359,4213.205,4251.41,4214.744,4295.0,4251.538
1970-01-02 07:27:49.735909,4298.59,4291.667,4243.462,4223.077,4330.641,4293.846,4215.641,4259.359,4255.897,4202.179,4246.154,4230.0,4286.538,4247.692
1970-01-02 07:27:49.735934,4286.538,4280.128,4237.692,4217.436,4323.59,4286.538,4209.359,4254.487,4250.897,4202.949,4228.59,4239.872,4275.769,4232.051
1970-01-02 07:27:49.751347,4280.256,4279.872,4241.538,4217.821,4323.974,4286.667,4216.923,4256.41,4249.359,4225.513,4216.795,4252.821,4272.564,4219.231
1970-01-02 07:27:49.751387,4280.385,4291.667,4251.538,4222.692,4331.795,4294.359,4235.769,4265.385,4254.487,4259.487,4218.205,4269.487,4277.179,4218.333
1970-01-02 07:27:49.751414,4271.923,4295.769,4251.282,4219.231,4332.949,4296.154,4246.538,4268.333,4256.41,4280.641,4221.154,4277.692,4277.821,4221.154
1970-01-02 07:27:49.765944,4253.077,4287.179,4237.564,4208.333,4326.026,4289.872,4244.744,4263.077,4253.077,4281.795,4219.744,4273.846,4273.333,4219.615
1970-01-02 07:27:49.768434,4242.692,4283.462,4227.949,4206.538,4325.897,4289.487,4246.667,4264.872,4256.538,4278.205,4223.59,4271.41,4276.667,4217.692
1970-01-02 07:27:49.768466,4249.744,4293.462,4234.744,4218.077,4337.051,4300.769,4259.615,4279.103,4271.026,4281.538,4236.026,4278.333,4292.436,4218.205
1970-01-02 07:27:49.768489,4257.308,4300.513,4249.103,4224.744,4343.974,4309.103,4268.846,4289.359,4280.897,4285.0,4242.564,4284.359,4305.769,4214.359
1970-01-02 07:27:49.768512,4247.564,4288.59,4258.974,4214.487,4337.436,4303.974,4262.179,4282.949,4273.333,4281.282,4234.744,4281.667,4305.128,4204.744
1970-01-02 07:27:49.782366,4226.282,4267.436,4267.564,4200.513,4329.744,4295.385,4250.0,4271.795,4259.231,4277.179,4225.641,4280.256,4300.769,4201.282
1970-01-02 07:27:49.782417,4210.128,4254.231,4281.154,4199.872,4332.692,4295.0,4245.641,4271.41,4253.718,4278.333,4229.744,4288.718,4306.538,4212.949
1970-01-02 07:27:49.782448,4202.436,4248.846,4291.282,4206.795,4337.308,4296.026,4244.615,4275.0,4253.205,4275.641,4238.718,4294.744,4317.564,4229.231
1970-01-02 07:27:49.795985,4197.692,4242.692,4288.59,4205.385,4331.538,4288.462,4237.179,4266.667,4245.128,4262.051,4238.205,4284.487,4320.128,4235.897
1970-01-02 07:27:49.796033,4198.846,4238.462,4281.41,4197.821,4322.821,4280.641,4230.0,4251.026,4233.974,4251.154,4233.846,4270.385,4315.769,4237.436
1970-01-02 07:27:49.796061,4212.692,4244.359,4285.385,4197.949,4325.897,4286.923,4234.744,4245.256,4233.077,4259.359,4241.154,4274.487,4314.744,4246.923
1970-01-02 07:27:49.796087,4233.59,4254.231,4298.205,4206.923,4337.179,4300.513,4245.897,4251.026,4239.872,4278.462,4256.026,4293.462,4315.769,4261.41
1970-01-02 07:27:49.811132,4248.077,4255.513,4306.282,4214.615,4341.667,4303.333,4248.718,4254.872,4239.487,4286.538,4259.615,4302.949,4311.026,4267.949
1970-01-02 07:27:49.811178,4256.923,4252.692,4311.026,4220.385,4338.59,4296.026,4244.872,4253.462,4232.692,4281.923,4249.359,4293.846,4306.538,4268.59
1970-01-02 07:27:49.811205,4270.897,4261.667,4325.128,4232.692,4340.0,4296.154,4248.846,4257.692,4236.282,4283.077,4242.692,4281.154,4315.641,4277.179
1970-01-02 07:27:49.811232,4289.231,4282.692,4343.846,4246.923,4346.667,4306.795,4260.256,4268.462,4252.821,4294.615,4247.179,4274.615,4331.923,4291.538
1970-01-02 07:27:49.825953,4298.59,4296.538,4344.744,4246.41,4345.0,4310.513,4261.154,4271.282,4262.692,4298.462,4250.256,4264.744,4332.308,4292.308
1970-01-02 07:27:49.828496,4298.846,4293.333,4322.692,4231.154,4331.923,4298.846,4244.487,4261.282,4255.0,4283.974,4242.821,4245.385,4312.821,4276.154
1970-01-02 07:27:49.828532,4306.667,4285.513,4301.923,4222.564,4321.026,4285.769,4225.769,4253.462,4244.231,4266.154,4235.385,4228.462,4297.051,4264.103
1970-01-02 07:27:49.843414,4327.949,4285.513,4301.795,4232.436,4319.872,4284.487,4218.718,4257.692,4244.872,4261.026,4237.051,4224.615,4301.154,4268.333
1970-01-02 07:27:49.843462,4344.231,4288.846,4311.026,4245.256,4317.821,4287.564,4219.103,4262.692,4248.974,4261.795,4240.641,4225.385,4310.513,4272.692
1970-01-02 07:27:49.843490,4341.282,4287.821,4310.256,4243.59,4308.205,4284.359,4220.385,4256.026,4243.974,4254.872,4237.564,4218.846,4306.795,4262.564
1970-01-02 07:27:49.843518,4331.282,4288.59,4300.256,4233.59,4302.051,4280.641,4228.846,4246.282,4237.436,4243.205,4235.256,4209.872,4295.897,4250.385
1970-01-02 07:27:49.856064,4331.795,4296.667,4292.692,4230.641,4309.487,4285.513,4247.821,4247.949,4242.949,4237.949,4241.923,4208.846,4293.718,4253.718
1970-01-02 07:27:49.856111,4337.564,4302.051,4285.385,4234.103,4320.0,4292.436,4262.564,4256.41,4254.872,4237.564,4248.846,4211.923,4298.462,4263.974
1970-01-02 07:27:49.856140,4333.974,4295.0,4270.256,4234.103,4319.615,4290.641,4259.487,4258.333,4257.051,4233.462,4243.333,4208.59,4297.692,4260.256
1970-01-02 07:27:49.856166,4324.487,4285.897,4253.718,4232.949,4314.103,4286.538,4249.103,4256.026,4250.385,4227.821,4233.333,4203.59,4293.077,4243.077
1970-01-02 07:27:49.871103,4322.564,4290.897,4249.359,4239.231,4318.205,4292.692,4250.897,4262.308,4251.026,4228.59,4235.897,4210.897,4295.128,4231.923
1970-01-02 07:27:49.871150,4323.205,4302.692,4253.718,4247.051,4327.564,4302.692,4262.821,4275.128,4261.667,4232.436,4248.974,4228.974,4300.256,4232.564
1970-01-02 07:27:49.871178,4309.487,4300.385,4250.385,4241.41,4326.026,4298.462,4266.282,4277.564,4267.692,4229.615,4253.333,4242.821,4293.718,4231.667
1970-01-02 07:27:49.871206,4283.077,4283.333,4237.179,4225.128,4313.974,4280.0,4257.692,4266.41,4261.795,4225.128,4243.077,4247.564,4275.897,4222.051
1970-01-02 07:27:49.886497,4265.513,4273.462,4229.872,4216.667,4307.821,4267.821,4251.538,4256.795,4255.256,4233.462,4232.692,4254.487,4264.487,4213.333
1970-01-02 07:27:49.886544,4265.256,4280.641,4234.615,4221.667,4312.436,4271.41,4252.564,4256.538,4255.513,4254.359,4232.051,4267.949,4267.308,4212.692
1970-01-02 07:27:49.889080,4265.769,4290.256,4238.462,4224.359,4314.487,4278.077,4248.59,4255.256,4255.256,4269.231,4234.231,4276.795,4272.179,4212.949
1970-01-02 07:27:49.889113,4253.718,4290.0,4232.564,4215.385,4309.615,4278.205,4235.769,4247.179,4249.744,4268.462,4234.103,4275.513,4270.385,4208.718
1970-01-02 07:27:49.903781,4238.333,4287.308,4227.821,4206.795,4310.897,4279.872,4228.59,4244.231,4248.846,4263.205,4240.897,4276.154,4271.538,4207.692
1970-01-02 07:27:49.903829,4232.051,4290.128,4236.282,4209.872,4324.103,4289.615,4236.154,4253.59,4259.103,4264.359,4258.205,4285.897,4284.103,4216.538
1970-01-02 07:27:49.903856,4230.385,4290.641,4251.667,4215.897,4334.615,4296.154,4245.385,4261.667,4268.333,4266.538,4271.667,4293.205,4299.103,4228.205
1970-01-02 07:27:49.903883,4223.846,4281.667,4263.974,4213.59,4331.154,4290.513,4243.974,4255.769,4263.718,4264.231,4269.744,4288.077,4304.615,4235.256
1970-01-02 07:27:49.916594,4217.564,4273.462,4277.436,4209.615,4325.128,4284.359,4240.641,4248.077,4253.333,4266.026,4264.103,4283.718,4306.026,4243.846
1970-01-02 07:27:49.916688,4222.051,4277.436,4298.974,4214.744,4331.667,4290.385,4248.077,4256.026,4252.308,4279.103,4270.385,4296.282,4313.333,4260.897
1970-01-02 07:27:49.916720,4232.949,4284.359,4318.205,4221.667,4343.59,4298.718,4258.462,4272.949,4257.051,4291.923,4280.897,4314.872,4320.897,4276.282
1970-01-02 07:27:49.916748,4237.949,4278.205,4319.872,4216.795,4343.846,4291.154,4256.026,4276.41,4252.564,4289.231,4277.051,4316.923,4316.667,4275.897
1970-01-02 07:27:49.931062,4237.949,4262.564,4309.359,4204.487,4333.077,4273.077,4243.205,4262.692,4239.872,4277.692,4260.641,4302.179,4305.641,4265.0
1970-01-02 07:27:49.931108,4243.974,4255.769,4304.744,4201.282,4325.385,4265.385,4235.385,4248.718,4235.256,4275.0,4250.769,4290.769,4302.692,4261.026
1970-01-02 07:27:49.931134,4256.282,4263.718,4307.436,4207.179,4324.359,4271.923,4234.231,4243.59,4241.923,4280.897,4253.077,4289.231,4307.179,4264.359
1970-01-02 07:27:49.931160,4265.641,4275.641,4303.462,4206.923,4321.154,4276.667,4228.077,4240.769,4246.026,4279.487,4253.59,4284.231,4305.128,4261.538
1970-01-02 07:27:49.946085,4273.462,4285.769,4292.436,4197.949,4315.897,4273.205,4217.436,4237.564,4242.692,4268.974,4246.538,4270.0,4297.949,4252.949
1970-01-02 07:27:49.946121,4291.026,4300.128,4291.538,4195.769,4319.872,4273.59,4217.051,4243.205,4244.103,4266.923,4243.59,4259.487,4302.308,4256.026
1970-01-02 07:27:49.948399,4314.872,4317.821,4304.744,4205.641,4332.564,4283.59,4229.487,4257.179,4255.256,4279.359,4251.41,4259.744,4320.385,4274.103
1970-01-02 07:27:49.948432,4325.0,4326.282,4313.077,4213.462,4337.821,4290.769,4238.205,4263.333,4261.923,4288.333,4259.103,4257.436,4331.026,4287.949
1970-01-02 07:27:49.963413,4315.769,4322.821,4305.128,4211.026,4329.103,4287.308,4233.205,4255.0,4255.641,4279.487,4258.077,4242.179,4322.692,4285.897
1970-01-02 07:27:49.963462,4309.103,4322.179,4295.256,4211.667,4320.256,4284.103,4226.282,4248.718,4250.641,4263.462,4256.795,4224.359,4312.179,4282.179
1970-01-02 07:27:49.963494,4321.282,4332.051,4298.718,4225.513,4321.923,4291.154,4228.077,4258.846,4260.256,4256.795,4261.923,4217.821,4317.436,4290.128
1970-01-02 07:27:49.976214,4338.59,4337.308,4305.513,4239.231,4324.487,4298.333,4230.128,4273.59,4272.564,4256.282,4263.205,4217.308,4329.744,4296.923
1970-01-02 07:27:49.976261,4339.872,4324.487,4297.436,4235.897,4316.41,4292.564,4222.308,4273.974,4268.462,4249.615,4250.641,4210.897,4330.513,4286.026
1970-01-02 07:27:49.976290,4328.333,4305.513,4277.051,4221.026,4305.769,4280.385,4212.949,4262.308,4252.564,4237.821,4235.385,4202.821,4320.385,4266.154
1970-01-02 07:27:49.976317,4320.641,4299.103,4261.154,4212.692,4305.897,4276.923,4213.718,4256.41,4245.641,4230.0,4233.59,4205.641,4312.949,4258.205
1970-01-02 07:27:49.991183,4316.538,4301.795,4253.462,4213.462,4312.949,4280.769,4217.692,4259.872,4252.564,4226.154,4240.128,4217.692,4308.59,4261.41
1970-01-02 07:27:49.991231,4304.615,4298.205,4245.641,4213.718,4313.846,4280.385,4211.795,4261.923,4259.487,4220.769,4238.462,4225.385,4297.564,4257.692
1970-01-02 07:27:49.991260,4289.103,4291.026,4239.103,4214.231,4311.41,4276.795,4203.077,4260.513,4259.487,4219.487,4229.744,4227.949,4282.436,4242.179
1970-01-02 07:27:49.991288,4285.128,4296.41,4242.949,4223.974,4318.59,4281.538,4209.744,4264.487,4260.641,4232.949,4230.513,4236.667,4277.051,4228.974
1970-01-02 07:27:50.007971,4290.385,4313.333,4252.308,4236.795,4332.821,4293.077,4230.128,4272.692,4266.026,4255.256,4243.846,4253.077,4282.051,4226.538
1970-01-02 07:27:50.008018,4285.128,4321.923,4249.231,4235.256,4338.077,4296.667,4243.077,4272.564,4267.179,4268.077,4253.846,4264.231,4283.846,4227.051
1970-01-02 07:27:50.008041,4264.359,4315.769,4231.538,4218.205,4332.692,4290.897,4241.026,4263.846,4263.077,4267.564,4252.051,4266.667,4278.846,4224.103
1970-01-02 07:27:50.025569,4247.179,4311.026,4220.256,4205.128,4332.564,4291.41,4238.59,4263.077,4266.282,4268.333,4249.872,4273.462,4280.513,4223.205
1970-01-02 07:27:50.025620,4246.154,4316.667,4229.615,4205.769,4342.821,4304.744,4244.872,4276.282,4280.0,4277.949,4255.128,4289.487,4294.872,4227.308
1970-01-02 07:27:50.025648,4249.231,4318.333,4248.974,4206.667,4347.564,4314.615,4247.949,4286.282,4287.051,4285.128,4257.949,4300.128,4308.333,4228.077
1970-01-02 07:27:50.025673,4240.897,4303.333,4262.051,4196.923,4336.538,4308.333,4238.462,4278.333,4275.0,4281.026,4251.154,4294.231,4309.231,4220.256
1970-01-02 07:27:50.025699,4225.385,4281.667,4270.385,4187.949,4323.205,4295.641,4226.795,4263.333,4256.026,4274.487,4244.872,4283.462,4305.641,4214.615
1970-01-02 07:27:50.036367,4214.744,4268.974,4281.154,4193.333,4322.436,4290.769,4225.0,4258.718,4247.949,4275.256,4248.333,4281.282,4310.385,4221.282
1970-01-02 07:27:50.036417,4208.718,4263.205,4289.744,4205.256,4328.077,4289.744,4227.308,4261.538,4247.949,4277.051,4250.641,4280.256,4319.103,4233.974
1970-01-02 07:27:50.036445,4201.282,4255.641,4289.615,4206.795,4328.077,4283.974,4223.974,4259.231,4242.436,4271.282,4239.872,4268.59,4321.282,4241.667
1970-01-02 07:27:50.036472,4198.333,4251.41,4290.0,4198.974,4327.692,4280.513,4221.154,4254.231,4234.744,4266.795,4227.179,4257.692,4320.769,4248.077
1970-01-02 07:27:50.051241,4209.744,4260.256,4303.59,4195.0,4337.692,4291.026,4230.0,4258.59,4238.077,4276.538,4232.051,4266.923,4327.564,4261.795
1970-01-02 07:27:50.051288,4229.872,4275.0,4321.667,4197.051,4352.436,4306.667,4243.077,4268.974,4249.744,4292.692,4250.513,4289.615,4337.308,4275.897
1970-01-02 07:27:50.051316,4243.846,4279.231,4325.0,4197.179,4356.667,4308.462,4244.103,4270.641,4253.59,4296.154,4260.256,4300.385,4338.205,4276.923
1970-01-02 07:27:50.066372,4250.385,4273.59,4314.615,4198.59,4350.0,4297.949,4234.872,4262.436,4247.692,4287.692,4254.615,4291.923,4334.487,4271.026
1970-01-02 07:27:50.066423,4261.41,4273.974,4310.385,4211.667,4346.282,4295.128,4232.308,4259.231,4246.667,4286.282,4248.846,4281.795,4340.641,4276.282
1970-01-02 07:27:50.066453,4278.462,4284.487,4317.821,4230.256,4348.205,4305.128,4239.487,4265.385,4253.846,4296.41,4251.154,4279.103,4353.462,4290.769
1970-01-02 07:27:50.066480,4289.231,4291.282,4321.026,4233.846,4344.103,4310.385,4241.282,4267.692,4253.974,4300.385,4250.513,4271.41,4351.795,4292.821
1970-01-02 07:27:50.082561,4291.667,4286.282,4312.308,4219.359,4331.667,4300.0,4230.256,4260.0,4241.026,4287.692,4241.282,4250.128,4331.026,4277.051
1970-01-02 07:27:50.082611,4299.359,4279.359,4306.538,4208.846,4323.462,4286.41,4219.103,4254.359,4231.154,4271.538,4234.487,4227.949,4312.564,4265.0
1970-01-02 07:27:50.082640,4314.359,4278.974,4314.359,4217.692,4325.513,4282.821,4217.436,4258.462,4237.179,4265.385,4238.718,4218.077,4312.308,4270.897
1970-01-02 07:27:50.082667,4318.718,4278.846,4323.333,4233.333,4325.641,4283.974,4218.077,4261.282,4247.179,4261.923,4243.59,4214.359,4318.462,4279.103
1970-01-02 07:27:50.095320,4303.333,4275.641,4318.333,4237.692,4315.769,4281.154,4215.128,4253.077,4246.282,4250.0,4239.231,4206.538,4314.487,4272.692
1970-01-02 07:27:50.095367,4288.077,4280.513,4305.256,4234.103,4306.41,4280.769,4217.949,4245.0,4241.026,4235.641,4234.487,4200.385,4306.154,4260.897
1970-01-02 07:27:50.095394,4293.974,4299.231,4297.692,4235.128,4309.359,4291.026,4233.718,4251.026,4246.026,4231.026,4239.872,4205.897,4306.282,4259.615
1970-01-02 07:27:50.095420,4312.564,4314.744,4292.564,4239.231,4317.308,4303.59,4250.0,4263.974,4256.538,4232.821,4246.923,4216.923,4311.026,4261.538
1970-01-02 07:27:50.110311,4321.026,4311.282,4278.974,4237.308,4318.462,4305.769,4252.564,4267.308,4257.051,4230.513,4242.179,4220.513,4307.692,4249.872
1970-01-02 07:27:50.110361,4316.923,4300.0,4261.923,4232.564,4318.077,4302.179,4249.487,4262.949,4249.615,4225.128,4232.436,4220.641,4299.103,4230.513
1970-01-02 07:27:50.110391,4313.462,4302.692,4255.897,4235.0,4327.051,4305.769,4257.308,4266.026,4250.0,4225.0,4235.513,4231.026,4297.692,4223.974
1970-01-02 07:27:50.125759,4310.256,4315.0,4258.846,4239.231,4338.077,4312.692,4270.385,4276.154,4260.641,4227.308,4248.974,4249.615,4301.538,4231.923
1970-01-02 07:27:50.125804,4293.974,4313.59,4255.0,4231.795,4335.128,4306.923,4269.103,4277.308,4266.538,4223.59,4252.692,4258.974,4296.41,4235.128
1970-01-02 07:27:50.125830,4267.179,4293.462,4240.385,4216.795,4320.385,4288.846,4251.667,4266.154,4261.154,4218.974,4239.615,4253.846,4282.564,4223.333
1970-01-02 07:27:50.125857,4250.0,4275.0,4229.231,4212.564,4312.308,4276.795,4237.308,4258.077,4255.769,4228.077,4225.385,4248.718,4276.154,4208.462
1970-01-02 07:27:50.140275,4249.615,4271.154,4229.359,4222.564,4315.641,4278.846,4235.641,4260.385,4257.821,4249.487,4221.538,4253.718,4282.564,4202.308
1970-01-02 07:27:50.142665,4250.385,4273.077,4232.051,4228.077,4316.026,4282.692,4236.667,4261.923,4258.718,4264.103,4222.692,4261.667,4287.821,4201.41
1970-01-02 07:27:50.142698,4240.897,4272.564,4231.923,4219.615,4308.333,4280.0,4234.103,4256.026,4253.077,4263.077,4224.487,4266.538,4283.846,4200.897
1970-01-02 07:27:50.142721,4230.769,4276.154,4238.205,4211.795,4306.41,4279.487,4237.949,4254.359,4251.282,4259.487,4235.0,4276.41,4282.308,4206.667
1970-01-02 07:27:50.157014,4230.385,4286.538,4256.923,4218.077,4318.077,4287.308,4252.436,4264.231,4260.641,4264.872,4256.667,4294.103,4293.462,4221.795
1970-01-02 07:27:50.157065,4231.795,4290.128,4276.026,4228.974,4329.744,4293.077,4262.564,4272.051,4268.077,4272.436,4273.462,4304.615,4307.564,4235.513
1970-01-02 07:27:50.157095,4223.974,4278.077,4283.59,4229.872,4330.385,4289.103,4256.154,4263.846,4260.641,4273.333,4272.308,4297.051,4312.308,4238.846
1970-01-02 07:27:50.157124,4214.359,4263.974,4286.41,4224.359,4329.359,4287.821,4243.974,4250.0,4247.179,4273.462,4264.487,4286.154,4312.949,4239.872
1970-01-02 07:27:50.170428,4216.538,4264.103,4295.385,4223.846,4338.333,4301.154,4242.308,4248.846,4243.718,4280.128,4266.026,4290.897,4320.641,4248.718
1970-01-02 07:27:50.170478,4227.949,4271.154,4303.974,4224.872,4347.308,4315.256,4247.179,4256.41,4246.667,4283.718,4271.41,4304.231,4330.256,4258.333
1970-01-02 07:27:50.170506,4235.128,4267.179,4299.231,4217.436,4340.0,4309.359,4244.744,4255.385,4240.641,4273.205,4264.103,4304.872,4328.462,4255.128
1970-01-02 07:27:50.170532,4236.154,4253.077,4286.795,4207.692,4321.923,4287.949,4236.282,4244.744,4227.564,4258.718,4246.795,4291.538,4318.462,4244.103
1970-01-02 07:27:50.185495,4241.41,4246.41,4283.974,4210.256,4312.308,4274.103,4233.846,4240.128,4224.359,4260.128,4238.077,4282.692,4313.333,4242.564
1970-01-02 07:27:50.185538,4253.718,4254.359,4290.769,4222.051,4316.154,4274.487,4236.538,4246.282,4234.103,4275.385,4242.051,4283.59,4311.795,4252.179
1970-01-02 07:27:50.185565,4266.282,4266.41,4292.308,4226.154,4321.154,4275.385,4231.282,4250.256,4241.026,4283.59,4244.615,4280.256,4301.41,4259.744
1970-01-02 07:27:50.185593,4280.769,4275.0,4288.462,4220.641,4321.923,4270.897,4218.59,4247.051,4239.103,4278.077,4239.872,4266.026,4287.821,4263.718
1970-01-02 07:27:50.200361,4305.385,4285.0,4296.538,4221.667,4326.282,4271.923,4213.59,4247.436,4241.41,4275.769,4239.615,4252.949,4291.923,4277.051
1970-01-02 07:27:50.202850,4333.974,4297.051,4318.974,4234.744,4334.744,4282.564,4222.436,4256.282,4253.846,4286.154,4249.872,4249.615,4315.256,4298.974
1970-01-02 07:27:50.202885,4344.872,4302.436,4333.077,4243.333,4335.897,4290.0,4231.923,4261.282,4262.179,4295.128,4258.846,4246.282,4331.41,4308.462
1970-01-02 07:27:50.202908,4332.949,4300.641,4323.333,4237.051,4327.821,4286.923,4234.231,4255.0,4255.641,4288.333,4258.077,4234.103,4322.949,4296.154
1970-01-02 07:27:50.217238,4321.026,4304.615,4304.103,4228.462,4324.103,4285.256,4237.949,4249.615,4246.538,4272.308,4256.538,4221.667,4305.769,4281.667
1970-01-02 07:27:50.217289,4327.179,4318.462,4294.744,4231.667,4331.282,4294.103,4248.974,4255.641,4249.615,4260.128,4262.821,4218.846,4301.282,4282.308
1970-01-02 07:27:50.217317,4339.615,4325.256,4292.051,4238.846,4334.744,4301.795,4254.744,4261.538,4257.436,4250.385,4266.667,4218.718,4305.641,4286.795
1970-01-02 07:27:50.217344,4338.59,4312.692,4282.821,4236.026,4322.308,4294.231,4244.359,4253.077,4253.846,4237.051,4257.051,4211.154,4302.051,4276.282
1970-01-02 07:27:50.230617,4327.051,4294.615,4269.872,4226.667,4305.0,4279.103,4229.487,4238.205,4242.821,4226.282,4243.077,4202.436,4290.385,4256.538
1970-01-02 07:27:50.230683,4320.385,4291.538,4264.615,4222.821,4301.026,4273.974,4226.154,4234.744,4241.026,4227.179,4239.615,4205.513,4282.179,4246.667
1970-01-02 07:27:50.230730,4317.308,4299.487,4263.59,4223.077,4308.077,4278.718,4229.872,4242.564,4249.615,4233.205,4242.564,4216.538,4278.333,4247.692
1970-01-02 07:27:50.245470,4306.026,4300.385,4254.231,4218.846,4311.41,4280.385,4226.154,4246.667,4254.744,4232.308,4237.692,4220.385,4271.795,4244.103
1970-01-02 07:27:50.245520,4290.897,4293.718,4239.103,4215.0,4310.128,4277.692,4218.846,4245.256,4253.846,4228.59,4228.59,4217.179,4267.821,4232.564
1970-01-02 07:27:50.245549,4287.436,4294.872,4233.077,4223.846,4315.513,4281.026,4223.077,4250.641,4258.077,4236.154,4233.205,4221.923,4277.949,4225.256
1970-01-02 07:27:50.245575,4292.821,4305.0,4237.436,4239.231,4326.026,4288.974,4236.923,4263.846,4269.872,4254.231,4253.462,4239.231,4295.641,4227.564
1970-01-02 07:27:50.245601,4286.795,4308.205,4236.923,4240.0,4328.974,4288.205,4241.795,4270.256,4275.769,4267.051,4270.256,4256.026,4299.615,4229.231
1970-01-02 07:27:50.260990,4264.487,4299.487,4226.667,4222.821,4324.615,4278.846,4233.974,4264.615,4269.744,4269.231,4271.795,4264.487,4285.128,4225.0
1970-01-02 07:27:50.263599,4245.0,4293.974,4221.923,4207.564,4328.077,4277.564,4230.0,4260.897,4264.103,4272.308,4267.436,4272.308,4273.077,4223.59
1970-01-02 07:27:50.263637,4242.436,4299.487,4232.692,4206.923,4340.769,4290.128,4237.436,4266.538,4268.077,4281.795,4267.051,4282.821,4279.487,4230.513
1970-01-02 07:27:50.278788,4244.744,4302.564,4247.949,4208.718,4344.744,4299.744,4241.41,4268.974,4271.667,4286.923,4264.872,4284.872,4294.231,4236.154
1970-01-02 07:27:50.278840,4236.538,4292.051,4255.385,4200.128,4331.795,4293.462,4231.154,4258.205,4264.231,4280.256,4256.795,4274.487,4300.513,4231.923
1970-01-02 07:27:50.278870,4221.538,4278.333,4260.0,4188.974,4317.821,4281.538,4219.487,4246.795,4253.077,4272.436,4253.59,4267.564,4298.974,4225.769
1970-01-02 07:27:50.278898,4211.538,4275.256,4271.026,4187.949,4317.692,4278.333,4221.026,4249.872,4249.744,4272.564,4262.179,4275.641,4299.359,4228.974
1970-01-02 07:27:50.290558,4206.282,4277.436,4282.564,4192.564,4322.821,4278.59,4228.974,4259.872,4248.846,4272.949,4268.846,4285.128,4301.538,4238.974
1970-01-02 07:27:50.290605,4199.744,4272.308,4285.256,4192.692,4319.103,4272.179,4229.615,4261.667,4241.026,4265.513,4259.103,4278.59,4301.667,4248.333
1970-01-02 07:27:50.290633,4197.821,4264.103,4285.897,4193.205,4313.462,4266.795,4225.385,4259.359,4234.359,4262.051,4242.821,4266.41,4305.897,4260.897
1970-01-02 07:27:50.290659,4209.872,4265.385,4296.41,4204.231,4320.769,4276.282,4227.692,4267.308,4243.718,4276.538,4240.769,4271.41,4320.769,4282.436
1970-01-02 07:27:50.305542,4230.513,4274.359,4310.0,4218.59,4337.692,4293.462,4233.205,4282.308,4262.949,4298.59,4251.795,4290.128,4334.872,4302.436
1970-01-02 07:27:50.305603,4245.256,4278.718,4310.256,4220.256,4347.051,4298.59,4230.513,4286.026,4270.769,4304.103,4257.308,4297.564,4332.949,4305.641
1970-01-02 07:27:50.305633,4254.103,4279.744,4299.872,4211.026,4345.513,4291.154,4222.949,4274.744,4263.718,4291.154,4252.308,4285.128,4322.051,4298.718
1970-01-02 07:27:50.320583,4268.718,4290.0,4298.462,4208.462,4344.359,4288.59,4225.128,4264.231,4258.846,4281.282,4250.128,4269.615,4323.462,4301.538
1970-01-02 07:27:50.320628,4287.564,4308.462,4309.487,4214.872,4346.923,4295.897,4235.769,4263.333,4264.103,4284.487,4255.513,4262.308,4337.821,4313.333
1970-01-02 07:27:50.320657,4295.385,4317.179,4315.0,4214.103,4343.846,4297.949,4237.051,4262.692,4265.769,4287.308,4255.385,4253.59,4342.051,4311.923
1970-01-02 07:27:50.323190,4290.0,4308.333,4307.179,4200.897,4334.487,4287.179,4223.718,4256.41,4255.128,4279.359,4243.205,4235.897,4324.872,4291.154
1970-01-02 07:27:50.337005,4289.359,4295.0,4301.667,4192.436,4331.282,4277.692,4212.692,4253.333,4244.615,4271.026,4232.308,4219.615,4304.615,4273.59
1970-01-02 07:27:50.337053,4302.179,4289.487,4309.744,4200.256,4337.308,4280.641,4215.256,4259.359,4246.026,4272.692,4232.564,4214.487,4300.128,4275.769
1970-01-02 07:27:50.337081,4313.333,4287.308,4317.821,4212.692,4337.821,4287.436,4221.538,4264.103,4250.897,4275.897,4235.385,4212.564,4305.769,4284.615
1970-01-02 07:27:50.337108,4311.282,4284.487,4310.128,4215.385,4324.487,4287.051,4220.897,4259.615,4248.205,4268.718,4231.538,4204.487,4307.821,4282.949
1970-01-02 07:27:50.350633,4309.103,4290.385,4294.231,4214.615,4311.795,4285.769,4220.897,4257.179,4246.282,4255.897,4230.256,4198.333,4307.949,4276.41
1970-01-02 07:27:50.350684,4321.41,4308.718,4285.641,4222.308,4314.615,4293.462,4230.0,4268.205,4257.179,4247.949,4241.154,4204.872,4312.821,4277.051
1970-01-02 07:27:50.350712,4335.641,4321.923,4282.051,4232.949,4325.385,4303.462,4238.846,4281.538,4272.179,4243.077,4253.59,4216.41,4315.769,4276.795
1970-01-02 07:27:50.350738,4330.769,4313.077,4271.026,4234.744,4327.692,4303.846,4235.256,4278.718,4273.333,4234.615,4251.923,4218.846,4308.077,4260.897
1970-01-02 07:27:50.365499,4310.256,4294.487,4255.641,4232.051,4323.205,4298.718,4227.179,4263.462,4262.692,4228.077,4241.41,4216.667,4298.462,4236.923
1970-01-02 07:27:50.365542,4294.615,4289.487,4248.974,4236.795,4324.231,4300.513,4230.385,4255.641,4258.205,4233.077,4239.487,4226.538,4301.538,4226.795
1970-01-02 07:27:50.365572,4287.564,4296.538,4249.744,4243.718,4329.231,4306.026,4240.128,4260.769,4264.359,4243.205,4245.256,4248.974,4310.513,4233.077
1970-01-02 07:27:50.365599,4274.744,4294.872,4243.205,4236.282,4326.282,4301.538,4239.359,4265.385,4267.179,4243.974,4241.538,4266.154,4305.385,4237.564
1970-01-02 07:27:50.381061,4254.359,4280.385,4228.333,4215.769,4317.564,4288.974,4229.103,4262.949,4259.359,4237.692,4225.769,4269.487,4284.231,4230.128
1970-01-02 07:27:50.381106,4242.179,4271.795,4221.41,4202.051,4317.692,4285.385,4227.564,4262.179,4251.667,4240.256,4214.744,4269.103,4268.205,4220.897
1970-01-02 07:27:50.381132,4243.205,4278.462,4230.641,4203.333,4327.821,4295.256,4238.077,4266.282,4251.282,4255.256,4216.667,4271.795,4270.513,4218.333
1970-01-02 07:27:50.383488,4242.692,4287.179,4243.974,4205.641,4332.564,4302.949,4243.846,4265.128,4251.026,4267.692,4219.744,4270.641,4281.538,4215.897
1970-01-02 07:27:50.398104,4231.282,4287.821,4250.769,4200.0,4328.077,4298.974,4237.949,4257.436,4246.667,4268.974,4216.282,4264.744,4289.231,4209.103
1970-01-02 07:27:50.398151,4220.513,4287.692,4256.795,4197.436,4329.615,4294.487,4235.897,4258.974,4248.718,4268.462,4216.795,4267.051,4296.41,4207.564
1970-01-02 07:27:50.398179,4221.41,4292.821,4268.974,4207.051,4344.231,4298.462,4248.846,4277.692,4262.051,4274.744,4229.231,4282.179,4307.179,4219.359
1970-01-02 07:27:50.398211,4225.128,4292.564,4280.256,4217.436,4356.026,4301.41,4263.846,4295.256,4271.026,4280.128,4241.282,4293.462,4313.59,4235.897
1970-01-02 07:27:50.410696,4219.103,4279.231,4284.231,4215.897,4351.282,4294.103,4264.103,4293.333,4261.538,4277.308,4240.641,4287.179,4309.615,4245.897
1970-01-02 07:27:50.410746,4208.462,4265.0,4290.256,4210.0,4341.41,4287.436,4254.231,4279.872,4244.103,4275.0,4236.795,4277.564,4306.282,4252.436
1970-01-02 07:27:50.410775,4206.923,4263.846,4308.205,4212.949,4342.051,4293.59,4248.077,4274.744,4237.692,4281.667,4244.103,4284.872,4314.359,4262.564
1970-01-02 07:27:50.410801,4213.205,4267.821,4327.564,4219.231,4348.205,4302.949,4246.282,4277.436,4240.128,4287.436,4255.769,4302.308,4324.103,4269.231
1970-01-02 07:27:50.425664,4216.923,4260.256,4331.282,4215.0,4344.231,4297.949,4241.026,4272.179,4235.513,4279.103,4255.256,4307.308,4320.641,4262.692
1970-01-02 07:27:50.425713,4219.103,4244.615,4323.077,4204.487,4331.154,4283.077,4236.282,4257.308,4224.103,4265.385,4245.0,4296.923,4310.769,4251.923
1970-01-02 07:27:50.425741,4230.641,4240.0,4320.0,4204.487,4323.974,4277.692,4241.154,4247.436,4221.667,4265.769,4242.179,4287.949,4312.821,4253.205
1970-01-02 07:27:50.425769,4251.795,4252.179,4322.821,4215.385,4325.385,4284.231,4249.103,4247.821,4230.513,4279.359,4248.59,4285.897,4325.256,4262.564
1970-01-02 07:27:50.440734,4271.667,4267.949,4317.051,4221.41,4325.897,4286.795,4245.128,4248.718,4235.897,4285.385,4248.59,4277.436,4328.974,4261.795
1970-01-02 07:27:50.440774,4288.846,4278.59,4303.59,4218.462,4324.487,4280.641,4231.923,4247.692,4233.205,4277.436,4238.077,4258.59,4320.256,4251.795
1970-01-02 07:27:50.440801,4311.795,4288.846,4302.436,4220.385,4330.897,4280.256,4229.359,4254.615,4236.538,4273.333,4232.308,4243.846,4316.026,4254.359
1970-01-02 07:27:50.458043,4336.795,4299.615,4318.974,4233.205,4343.59,4292.564,4243.59,4270.385,4250.769,4283.59,4239.615,4242.436,4322.051,4275.897
1970-01-02 07:27:50.458093,4345.897,4301.795,4331.795,4243.205,4346.282,4303.333,4257.564,4278.205,4259.872,4294.103,4247.436,4242.564,4322.051,4293.846
1970-01-02 07:27:50.458124,4334.872,4295.385,4323.846,4240.256,4333.846,4301.41,4257.051,4270.0,4252.821,4288.462,4244.231,4232.436,4307.179,4291.41
1970-01-02 07:27:50.470770,4324.615,4295.128,4306.026,4234.487,4322.436,4296.154,4249.615,4260.769,4243.205,4270.641,4238.333,4219.103,4294.359,4280.385
1970-01-02 07:27:50.470821,4330.897,4305.769,4295.0,4236.282,4323.59,4298.718,4246.41,4265.0,4247.308,4253.59,4241.026,4213.462,4299.487,4277.179
1970-01-02 07:27:50.470848,4341.795,4309.744,4287.692,4238.846,4326.154,4301.667,4243.846,4272.564,4256.41,4238.333,4245.128,4210.641,4311.154,4274.744
1970-01-02 07:27:50.470874,4338.974,4293.718,4273.718,4232.436,4317.179,4293.59,4235.897,4265.897,4253.077,4222.308,4239.744,4201.282,4309.615,4259.872
1970-01-02 07:27:50.485717,4327.821,4273.205,4259.487,4225.641,4303.974,4281.154,4231.282,4248.077,4239.872,4212.949,4230.385,4192.949,4296.667,4240.385
1970-01-02 07:27:50.485765,4323.718,4270.513,4257.179,4230.769,4301.154,4278.077,4239.487,4236.282,4234.359,4218.205,4230.0,4200.0,4286.923,4233.974
1970-01-02 07:27:50.485794,4322.436,4281.795,4260.897,4241.154,4306.282,4282.051,4250.256,4234.872,4240.385,4228.462,4235.897,4220.897,4281.667,4238.462
1970-01-02 07:27:50.485821,4308.846,4287.179,4254.872,4240.897,4307.308,4281.667,4248.846,4235.513,4246.154,4229.872,4236.795,4240.513,4271.795,4236.282
1970-01-02 07:27:50.485847,4286.154,4284.103,4239.744,4232.051,4306.282,4279.872,4241.154,4238.974,4248.718,4227.436,4235.641,4254.103,4261.667,4224.487
1970-01-02 07:27:50.502889,4273.333,4287.564,4231.795,4230.513,4314.744,4287.821,4244.872,4253.846,4256.923,4237.564,4246.154,4269.231,4265.385,4217.564
1970-01-02 07:27:50.502935,4273.205,4298.718,4234.615,4237.436,4329.487,4300.128,4258.205,4273.974,4270.641,4259.615,4266.154,4284.872,4279.872,4221.026
1970-01-02 07:27:50.502959,4268.462,4301.41,4234.103,4236.538,4334.487,4297.051,4261.154,4279.872,4275.128,4275.128,4276.282,4289.103,4285.128,4223.333
1970-01-02 07:27:50.502982,4251.923,4291.282,4223.846,4222.949,4328.333,4276.538,4248.718,4268.333,4265.513,4275.128,4269.615,4281.923,4273.974,4218.077
1970-01-02 07:27:50.520341,4238.205,4284.231,4217.308,4210.897,4326.667,4260.256,4238.846,4259.103,4256.026,4269.744,4262.051,4280.256,4262.821,4215.0
1970-01-02 07:27:50.520429,4237.436,4289.103,4225.128,4209.615,4333.205,4262.308,4242.308,4263.718,4257.564,4267.821,4265.128,4291.282,4265.256,4220.897
1970-01-02 07:27:50.520498,4238.718,4293.846,4239.231,4208.077,4332.051,4270.513,4246.923,4269.231,4260.513,4263.846,4268.718,4299.231,4274.103,4226.282
1970-01-02 07:27:50.520536,4229.487,4287.308,4249.103,4197.692,4315.897,4270.769,4240.897,4262.179,4253.59,4255.897,4261.154,4292.179,4278.333,4222.564
1970-01-02 07:27:50.530901,4216.923,4278.205,4259.231,4188.974,4301.667,4268.462,4232.564,4251.41,4243.333,4254.744,4249.744,4281.282,4282.436,4218.333
1970-01-02 07:27:50.530949,4214.103,4277.436,4275.769,4193.205,4305.0,4272.692,4233.205,4250.769,4240.897,4265.641,4246.026,4281.41,4294.487,4226.538
1970-01-02 07:27:50.530977,4219.359,4277.949,4291.026,4201.667,4316.667,4276.026,4236.923,4254.615,4241.026,4274.615,4245.641,4285.0,4308.333,4245.0
1970-01-02 07:27:50.545835,4223.205,4268.59,4296.026,4201.923,4320.128,4269.615,4234.615,4250.769,4234.487,4269.872,4240.513,4278.59,4313.333,4264.231
1970-01-02 07:27:50.545880,4227.179,4256.538,4298.59,4200.0,4317.949,4263.974,4233.205,4245.385,4230.0,4264.231,4239.103,4270.769,4313.974,4283.077
1970-01-02 07:27:50.545907,4239.103,4257.692,4309.872,4208.718,4322.179,4274.359,4243.462,4253.59,4241.795,4275.256,4253.333,4278.846,4320.128,4302.564
1970-01-02 07:27:50.545932,4254.872,4271.154,4320.513,4221.41,4330.641,4292.308,4256.538,4270.641,4262.564,4295.0,4272.949,4296.026,4325.641,4310.513
1970-01-02 07:27:50.560908,4262.949,4282.308,4312.949,4220.128,4331.41,4296.154,4254.231,4276.667,4269.872,4299.487,4275.769,4297.564,4318.077,4296.026
1970-01-02 07:27:50.560957,4265.513,4287.308,4292.821,4206.923,4326.282,4285.128,4238.077,4266.538,4259.615,4285.385,4261.667,4278.462,4304.359,4273.462
1970-01-02 07:27:50.560985,4275.385,4295.385,4283.718,4201.538,4328.205,4278.718,4226.282,4256.154,4250.769,4273.846,4251.667,4259.359,4304.615,4270.256
1970-01-02 07:27:50.561013,4291.538,4307.564,4292.179,4210.128,4336.923,4284.744,4224.487,4253.974,4253.718,4276.282,4255.769,4252.436,4318.59,4288.333
1970-01-02 07:27:50.575817,4299.615,4312.308,4299.744,4217.179,4338.205,4288.59,4220.256,4251.282,4256.795,4279.615,4260.513,4246.923,4322.949,4301.282
1970-01-02 07:27:50.578260,4298.205,4306.538,4295.0,4212.821,4328.974,4281.282,4209.231,4243.974,4251.026,4272.436,4255.641,4232.564,4306.282,4294.359
1970-01-02 07:27:50.578292,4303.846,4302.821,4290.128,4208.462,4323.59,4274.487,4204.872,4243.718,4246.795,4262.821,4250.0,4218.077,4286.667,4282.308
1970-01-02 07:27:50.578314,4322.051,4307.051,4295.897,4213.333,4328.077,4278.974,4214.103,4255.897,4253.333,4260.769,4251.923,4213.846,4283.205,4280.256
1970-01-02 07:27:50.593040,4334.359,4308.59,4301.282,4217.949,4329.615,4285.641,4224.615,4266.282,4260.128,4260.128,4253.462,4213.333,4291.538,4280.128
1970-01-02 07:27:50.593086,4327.821,4301.667,4294.872,4213.59,4319.231,4283.846,4225.769,4262.949,4256.538,4252.051,4247.179,4207.051,4299.359,4271.282
1970-01-02 07:27:50.593112,4317.436,4300.128,4285.256,4209.744,4309.359,4279.487,4226.154,4256.538,4252.564,4241.795,4243.59,4201.154,4307.692,4262.949
1970-01-02 07:27:50.605890,4321.026,4314.231,4284.872,4217.821,4312.949,4283.59,4234.744,4262.308,4262.308,4237.949,4252.564,4205.769,4320.513,4267.179
1970-01-02 07:27:50.605936,4329.872,4329.487,4286.026,4228.718,4322.179,4290.897,4241.282,4273.59,4277.564,4236.282,4263.462,4215.128,4327.179,4273.462
1970-01-02 07:27:50.605964,4323.718,4326.41,4274.359,4227.436,4322.308,4290.0,4234.103,4273.333,4278.59,4230.256,4260.0,4217.179,4315.256,4262.949
1970-01-02 07:27:50.605989,4304.359,4311.538,4255.256,4217.821,4316.667,4284.359,4223.846,4263.462,4265.897,4227.949,4246.154,4216.154,4294.231,4240.0
1970-01-02 07:27:50.621394,4289.231,4305.128,4246.154,4215.641,4318.462,4284.615,4227.179,4260.513,4258.333,4240.0,4239.359,4226.154,4283.333,4225.897
1970-01-02 07:27:50.621441,4281.154,4307.949,4246.41,4220.128,4325.385,4287.179,4238.205,4267.436,4262.308,4258.077,4240.641,4245.256,4283.205,4227.564
1970-01-02 07:27:50.621474,4268.077,4304.103,4239.359,4216.667,4324.487,4279.615,4236.41,4270.0,4264.615,4263.333,4236.154,4256.538,4278.077,4230.769
1970-01-02 07:27:50.621501,4250.385,4291.923,4222.949,4203.846,4317.179,4266.282,4221.41,4262.821,4257.949,4254.359,4224.615,4254.744,4265.641,4226.795
1970-01-02 07:27:50.635889,4243.333,4288.077,4215.513,4196.795,4318.462,4266.154,4214.103,4257.436,4252.051,4248.846,4221.923,4252.821,4261.667,4222.821
1970-01-02 07:27:50.635925,4249.615,4297.051,4226.154,4200.256,4329.231,4282.821,4223.205,4260.128,4253.846,4255.641,4233.205,4258.333,4272.564,4222.949
1970-01-02 07:27:50.638286,4251.41,4302.564,4242.179,4201.41,4334.231,4297.051,4233.846,4262.436,4255.769,4265.897,4243.333,4263.077,4284.231,4220.128
1970-01-02 07:27:50.638320,4239.231,4294.615,4250.769,4194.615,4329.487,4297.179,4235.513,4261.026,4253.846,4272.179,4242.436,4263.974,4285.256,4211.667
1970-01-02 07:27:50.653436,4226.538,4285.0,4257.308,4192.692,4331.154,4294.487,4237.308,4268.205,4258.205,4280.897,4240.641,4272.179,4284.744,4210.0
1970-01-02 07:27:50.653485,4226.41,4284.231,4269.872,4203.205,4347.051,4299.744,4246.41,4287.949,4273.077,4294.359,4246.923,4291.154,4293.718,4223.718
1970-01-02 07:27:50.653513,4230.128,4283.718,4281.667,4212.564,4360.897,4303.846,4251.795,4300.513,4281.667,4300.897,4250.897,4301.667,4306.923,4242.949
1970-01-02 07:27:50.653546,4223.974,4273.077,4284.744,4206.923,4356.923,4295.769,4243.205,4289.359,4269.103,4293.846,4242.436,4290.0,4314.615,4254.615
1970-01-02 07:27:50.666045,4211.795,4261.41,4287.051,4195.256,4344.231,4284.615,4230.897,4267.436,4246.667,4285.385,4232.821,4272.051,4319.872,4261.026
1970-01-02 07:27:50.666095,4207.436,4261.795,4297.564,4193.718,4339.231,4283.974,4229.103,4259.487,4235.897,4287.179,4237.179,4272.308,4328.205,4268.974
1970-01-02 07:27:50.666123,4212.051,4268.718,4305.897,4198.846,4340.513,4288.846,4232.949,4266.538,4236.923,4288.974,4248.974,4287.179,4331.538,4271.667
1970-01-02 07:27:50.666149,4217.179,4267.436,4297.179,4196.667,4336.026,4286.282,4229.231,4269.744,4234.231,4276.026,4249.615,4293.974,4321.538,4260.641
1970-01-02 07:27:50.680942,4223.846,4260.0,4279.744,4189.744,4327.692,4281.282,4221.154,4262.051,4226.795,4256.795,4240.385,4286.667,4310.385,4247.179
1970-01-02 07:27:50.680986,4240.513,4261.41,4275.641,4192.308,4327.051,4288.59,4221.667,4254.231,4227.949,4253.462,4238.077,4278.974,4317.436,4250.256
1970-01-02 07:27:50.681012,4263.718,4274.103,4287.564,4203.846,4333.077,4304.359,4228.846,4252.564,4239.487,4267.692,4245.256,4274.744,4337.051,4266.154
1970-01-02 07:27:50.681039,4280.769,4285.385,4297.436,4210.0,4333.974,4308.462,4227.949,4251.026,4246.923,4279.231,4247.692,4263.205,4344.872,4273.333
1970-01-02 07:27:50.696029,4291.923,4290.513,4298.333,4209.359,4329.872,4297.051,4218.462,4249.487,4245.897,4279.103,4241.154,4244.231,4334.872,4268.718
1970-01-02 07:27:50.696070,4309.872,4297.308,4303.846,4216.795,4333.077,4288.718,4217.179,4257.436,4249.615,4280.769,4239.615,4234.487,4326.667,4271.667
1970-01-02 07:27:50.698589,4332.564,4306.795,4319.872,4235.513,4342.821,4294.103,4229.744,4273.077,4262.564,4291.795,4248.846,4240.769,4331.538,4288.462
1970-01-02 07:27:50.698621,4340.641,4306.795,4331.026,4247.564,4342.692,4300.897,4241.026,4278.59,4268.846,4297.692,4254.103,4245.769,4335.513,4299.615
1970-01-02 07:27:50.713375,4327.821,4294.872,4325.0,4241.795,4327.051,4296.282,4239.487,4267.308,4257.436,4284.103,4245.256,4234.615,4325.769,4292.051
1970-01-02 07:27:50.713422,4314.872,4286.667,4312.051,4232.179,4312.308,4288.077,4233.718,4256.667,4242.821,4258.846,4234.103,4216.282,4312.821,4279.744
1970-01-02 07:27:50.713449,4318.077,4291.282,4306.026,4233.205,4312.436,4287.949,4233.974,4262.436,4242.308,4237.436,4233.59,4206.538,4310.769,4277.949
1970-01-02 07:27:50.713477,4325.256,4295.385,4302.051,4237.308,4318.333,4291.154,4234.359,4272.949,4249.487,4223.333,4235.897,4204.231,4313.846,4276.154
1970-01-02 07:27:50.726049,4318.333,4285.769,4289.103,4231.282,4316.923,4288.077,4228.077,4268.59,4247.692,4213.333,4227.692,4200.641,4308.974,4258.974
1970-01-02 07:27:50.726096,4303.462,4273.846,4272.949,4220.641,4312.308,4283.846,4225.0,4252.436,4238.846,4212.308,4215.128,4200.256,4300.128,4235.641
1970-01-02 07:27:50.726123,4297.436,4276.538,4266.026,4219.872,4315.385,4287.949,4236.282,4242.949,4237.564,4223.462,4212.692,4214.359,4297.949,4226.538
1970-01-02 07:27:50.726149,4297.179,4287.436,4265.0,4225.897,4321.41,4294.615,4251.667,4244.872,4244.615,4235.0,4218.846,4237.821,4298.205,4231.538
1970-01-02 07:27:50.741017,4287.179,4289.487,4256.923,4225.513,4318.974,4292.051,4254.103,4248.333,4247.179,4234.487,4221.41,4253.59,4289.103,4231.538
1970-01-02 07:27:50.741064,4269.744,4286.538,4243.59,4219.359,4313.077,4285.0,4247.949,4252.308,4243.718,4230.385,4222.308,4258.077,4275.769,4220.513
1970-01-02 07:27:50.741092,4262.436,4296.41,4239.744,4220.513,4317.821,4289.231,4251.282,4264.615,4246.795,4241.923,4234.359,4262.821,4275.769,4211.026
1970-01-02 07:27:50.756487,4266.667,4316.538,4246.154,4227.949,4329.744,4302.821,4264.103,4280.769,4259.231,4267.821,4253.846,4271.282,4289.615,4210.641
1970-01-02 07:27:50.756530,4263.974,4323.462,4247.308,4226.538,4331.667,4307.308,4267.436,4283.718,4267.436,4285.897,4260.256,4273.205,4298.462,4211.538
1970-01-02 07:27:50.756557,4247.051,4308.205,4236.923,4213.974,4321.154,4296.795,4254.872,4271.282,4265.0,4284.103,4247.051,4267.308,4292.821,4208.333
1970-01-02 07:27:50.759052,4231.026,4288.59,4228.718,4206.538,4315.256,4287.179,4242.436,4262.051,4263.462,4272.949,4232.821,4266.923,4286.026,4207.949
1970-01-02 07:27:50.774498,4226.923,4280.128,4234.103,4212.564,4321.282,4289.103,4241.538,4266.154,4268.974,4264.359,4232.692,4276.795,4289.103,4213.846
1970-01-02 07:27:50.774549,4225.385,4276.538,4246.026,4218.718,4325.385,4291.795,4242.821,4269.359,4269.487,4256.41,4239.231,4281.923,4294.359,4216.282
1970-01-02 07:27:50.774580,4216.667,4268.205,4254.487,4214.487,4318.333,4285.897,4236.538,4258.974,4255.0,4248.205,4241.026,4273.333,4292.051,4209.615
1970-01-02 07:27:50.786174,4209.359,4261.41,4263.59,4210.385,4312.692,4280.385,4230.256,4246.282,4236.923,4249.872,4243.077,4266.41,4289.359,4205.513
1970-01-02 07:27:50.786230,4214.744,4262.436,4278.462,4218.59,4320.128,4285.513,4232.564,4246.538,4230.128,4264.487,4252.179,4276.667,4296.282,4216.538
1970-01-02 07:27:50.786261,4226.41,4262.308,4290.0,4231.154,4330.513,4291.923,4236.154,4252.821,4229.744,4276.154,4258.59,4293.205,4307.308,4236.667
1970-01-02 07:27:50.786292,4230.769,4251.795,4290.641,4234.359,4329.487,4288.205,4232.308,4249.359,4223.846,4271.923,4252.308,4295.513,4313.333,4253.333
1970-01-02 07:27:50.801052,4230.256,4242.179,4293.205,4232.821,4322.436,4283.205,4229.744,4240.256,4219.359,4264.744,4243.974,4286.795,4319.744,4267.692
1970-01-02 07:27:50.801098,4237.564,4250.641,4311.538,4238.974,4323.974,4291.667,4240.641,4242.308,4230.769,4273.974,4250.897,4285.128,4334.359,4285.513
1970-01-02 07:27:50.801127,4253.077,4272.051,4333.205,4247.179,4332.051,4306.026,4255.769,4255.128,4252.051,4293.205,4267.051,4291.538,4345.0,4296.923
1970-01-02 07:27:50.801152,4267.051,4285.641,4333.59,4241.41,4333.59,4305.769,4255.256,4261.41,4260.513,4298.462,4269.615,4289.103,4332.949,4287.308
1970-01-02 07:27:50.801177,4279.744,4285.641,4313.718,4223.846,4328.59,4290.256,4239.744,4255.641,4250.769,4286.154,4254.103,4273.59,4305.385,4265.0
1970-01-02 07:27:50.816097,4299.487,4286.026,4300.0,4213.333,4329.487,4279.231,4228.846,4249.744,4240.769,4276.667,4239.231,4259.615,4289.744,4254.615
1970-01-02 07:27:50.816138,4320.128,4295.0,4303.718,4216.282,4335.641,4280.256,4229.872,4249.487,4241.026,4280.128,4236.923,4254.872,4294.615,4261.795
1970-01-02 07:27:50.816164,4324.103,4304.615,4308.718,4218.205,4332.821,4280.385,4230.513,4245.897,4241.538,4281.923,4238.59,4248.333,4301.154,4266.282
1970-01-02 07:27:50.818860,4310.769,4308.59,4301.923,4211.667,4318.718,4272.179,4223.59,4237.179,4235.513,4270.385,4236.282,4233.846,4296.41,4257.308
1970-01-02 07:27:50.833306,4303.333,4312.564,4292.949,4208.974,4309.487,4267.692,4219.359,4236.923,4234.487,4255.256,4236.923,4222.308,4291.667,4249.231
1970-01-02 07:27:50.833354,4315.128,4318.077,4291.923,4218.718,4313.333,4276.282,4224.872,4251.154,4246.667,4249.487,4245.128,4222.179,4298.974,4253.462
1970-01-02 07:27:50.833382,4331.026,4314.231,4290.385,4229.872,4317.949,4287.051,4230.897,4263.846,4258.974,4249.103,4250.513,4223.077,4308.846,4258.974
1970-01-02 07:27:50.833407,4333.974,4299.103,4278.846,4231.923,4313.205,4287.179,4230.769,4260.513,4257.436,4244.487,4246.41,4213.205,4309.615,4255.0
1970-01-02 07:27:50.846126,4330.513,4290.128,4267.051,4233.077,4308.59,4282.692,4233.846,4250.513,4250.513,4237.949,4244.231,4200.897,4307.436,4252.821
1970-01-02 07:27:50.846174,4333.077,4299.744,4267.308,4243.462,4314.872,4284.359,4246.538,4251.026,4254.615,4235.0,4255.0,4201.41,4311.538,4264.615
1970-01-02 07:27:50.846201,4333.846,4313.462,4270.897,4252.949,4323.462,4287.692,4254.615,4258.59,4265.641,4230.641,4268.077,4213.333,4313.333,4277.308
1970-01-02 07:27:50.861051,4319.231,4311.923,4262.308,4246.026,4320.897,4283.077,4244.231,4258.462,4267.051,4221.282,4266.154,4225.0,4299.487,4268.462
1970-01-02 07:27:50.861098,4297.179,4301.41,4245.897,4228.846,4311.795,4276.667,4227.179,4250.769,4257.564,4218.462,4252.949,4235.641,4277.949,4240.385
1970-01-02 07:27:50.861124,4287.051,4302.564,4238.846,4220.256,4309.615,4280.513,4224.231,4248.974,4252.436,4234.872,4246.282,4252.051,4268.077,4217.308
1970-01-02 07:27:50.861150,4287.821,4314.744,4241.282,4222.564,4311.154,4288.077,4232.308,4254.487,4256.538,4260.256,4249.487,4267.436,4271.282,4211.41
1970-01-02 07:27:50.876502,4280.0,4318.846,4237.179,4221.026,4304.487,4282.436,4231.667,4255.0,4259.103,4271.538,4249.231,4266.923,4271.667,4213.333
1970-01-02 07:27:50.876543,4258.462,4309.359,4222.949,4210.769,4295.0,4265.769,4219.744,4249.615,4255.641,4264.103,4242.308,4252.308,4263.205,4214.487
1970-01-02 07:27:50.876570,4240.128,4301.154,4214.231,4203.077,4300.385,4259.487,4215.128,4252.179,4255.641,4256.282,4240.769,4243.846,4258.974,4218.205
1970-01-02 07:27:50.876595,4235.513,4302.179,4221.41,4202.179,4320.385,4271.795,4224.744,4264.872,4262.949,4260.256,4249.231,4250.513,4266.795,4225.0
1970-01-02 07:27:50.893481,4234.231,4302.179,4235.0,4198.205,4333.205,4286.795,4234.359,4272.051,4266.41,4269.615,4255.897,4259.872,4278.205,4225.897
1970-01-02 07:27:50.893534,4226.923,4295.0,4245.256,4188.846,4328.205,4291.538,4234.872,4266.154,4261.667,4277.308,4255.128,4263.205,4287.564,4219.231
1970-01-02 07:27:50.893565,4220.0,4290.769,4257.308,4188.59,4320.897,4293.205,4236.41,4261.923,4261.026,4286.923,4258.205,4270.128,4302.051,4218.718
1970-01-02 07:27:50.906166,4220.513,4294.872,4275.513,4203.846,4325.256,4299.744,4245.385,4270.641,4271.41,4297.949,4271.282,4285.256,4323.974,4233.718
1970-01-02 07:27:50.906214,4220.0,4293.974,4290.385,4218.077,4333.462,4302.179,4249.487,4279.744,4278.077,4297.949,4279.487,4291.795,4338.333,4253.333
1970-01-02 07:27:50.906243,4210.513,4277.692,4293.59,4215.128,4333.205,4292.692,4237.949,4273.077,4265.641,4282.564,4269.744,4276.923,4332.949,4263.718
1970-01-02 07:27:50.906269,4202.436,4258.846,4294.487,4203.59,4330.0,4283.205,4222.436,4258.333,4244.359,4268.846,4253.462,4257.821,4318.205,4268.462
1970-01-02 07:27:50.906296,4210.641,4256.41,4304.103,4201.026,4334.231,4286.923,4218.974,4253.333,4234.744,4272.179,4249.615,4258.718,4312.179,4276.026
1970-01-02 07:27:50.921255,4230.769,4267.564,4313.718,4205.769,4340.256,4295.128,4224.103,4257.308,4237.436,4282.308,4255.128,4275.641,4314.744,4280.513
1970-01-02 07:27:50.921307,4247.564,4275.769,4309.103,4205.128,4337.179,4290.769,4224.487,4256.154,4238.077,4279.615,4254.615,4284.615,4315.256,4273.205
1970-01-02 07:27:50.936271,4257.949,4277.564,4297.821,4200.769,4330.256,4278.077,4221.923,4248.974,4235.513,4267.564,4248.205,4279.103,4315.641,4263.846
1970-01-02 07:27:50.936319,4270.385,4283.462,4299.231,4205.0,4332.436,4276.282,4227.436,4248.59,4241.538,4266.026,4249.615,4272.821,4325.128,4269.744
1970-01-02 07:27:50.936345,4283.59,4295.256,4311.923,4216.026,4341.026,4287.179,4236.538,4255.769,4254.872,4278.205,4258.333,4270.385,4336.538,4285.897
1970-01-02 07:27:50.936370,4288.59,4303.59,4315.385,4218.846,4341.667,4293.974,4233.077,4258.333,4259.359,4286.282,4258.718,4260.256,4332.821,4290.513
1970-01-02 07:27:50.936395,4289.872,4307.949,4304.872,4212.949,4333.846,4290.513,4217.949,4254.359,4251.923,4282.949,4248.077,4239.487,4316.41,4281.41
1970-01-02 07:27:50.951108,4302.436,4317.692,4298.718,4214.487,4332.692,4289.744,4210.769,4257.308,4250.0,4281.026,4242.179,4223.974,4310.641,4279.872
1970-01-02 07:27:50.953486,4322.949,4330.256,4306.538,4227.051,4341.282,4297.949,4219.487,4270.128,4261.41,4288.59,4248.333,4223.333,4323.846,4293.974
1970-01-02 07:27:50.953517,4328.077,4327.821,4313.718,4233.333,4343.59,4301.538,4228.59,4275.769,4270.0,4292.692,4252.436,4226.154,4335.641,4303.59
1970-01-02 07:27:50.953539,4310.0,4306.667,4307.051,4222.821,4331.026,4291.154,4225.769,4264.103,4261.795,4280.128,4243.846,4220.0,4328.59,4292.949
1970-01-02 07:27:50.968535,4292.308,4287.436,4295.513,4209.103,4317.051,4278.462,4219.359,4249.872,4248.462,4257.436,4233.333,4210.769,4312.564,4274.744
1970-01-02 07:27:50.968583,4296.154,4286.795,4291.282,4207.436,4315.128,4277.436,4219.615,4250.0,4246.923,4238.333,4233.205,4208.333,4305.0,4265.897
1970-01-02 07:27:50.968611,4310.513,4294.359,4287.308,4211.41,4318.974,4282.949,4220.897,4258.846,4252.949,4224.744,4236.026,4207.179,4304.231,4260.385
1970-01-02 07:27:50.968638,4313.59,4294.744,4272.179,4208.974,4317.308,4284.615,4216.538,4260.641,4251.923,4214.359,4229.744,4199.615,4300.0,4245.128
1970-01-02 07:27:50.981205,4305.897,4293.974,4253.718,4205.385,4314.487,4286.795,4216.538,4256.795,4246.026,4213.974,4220.641,4194.744,4295.769,4227.051
1970-01-02 07:27:50.981254,4300.256,4304.231,4247.051,4212.821,4320.0,4297.821,4230.641,4258.974,4249.487,4228.333,4223.205,4208.333,4299.615,4222.308
1970-01-02 07:27:50.981281,4293.462,4316.795,4248.333,4226.026,4327.821,4309.744,4247.436,4265.513,4261.154,4245.128,4233.462,4235.769,4303.974,4228.718
1970-01-02 07:27:50.981306,4274.231,4313.846,4241.538,4229.615,4326.667,4307.692,4248.333,4265.256,4266.923,4249.103,4236.795,4257.051,4294.487,4228.846
1970-01-02 07:27:50.996285,4249.615,4299.487,4226.538,4224.744,4322.692,4296.923,4237.949,4260.385,4263.974,4245.897,4234.487,4264.231,4276.923,4218.59
1970-01-02 07:27:50.996328,4240.385,4293.974,4219.872,4225.513,4329.615,4296.026,4236.154,4264.872,4264.487,4253.462,4240.897,4266.923,4271.538,4211.538
1970-01-02 07:27:50.996355,4247.692,4300.128,4227.692,4232.308,4341.538,4306.923,4245.513,4278.077,4271.41,4272.949,4255.513,4270.128,4283.333,4213.462
1970-01-02 07:27:50.996382,4249.744,4299.487,4236.667,4230.128,4338.974,4311.667,4248.077,4282.436,4272.436,4285.769,4260.128,4267.436,4296.026,4214.359
1970-01-02 07:27:51.012784,4235.0,4285.0,4238.59,4215.513,4320.513,4302.308,4237.179,4272.692,4262.436,4282.051,4247.692,4260.256,4299.744,4208.333
1970-01-02 07:27:51.015311,4216.667,4272.179,4241.923,4203.974,4307.821,4292.436,4227.564,4264.359,4254.615,4271.154,4234.487,4262.179,4303.974,4204.615
1970-01-02 07:27:51.015346,4208.59,4271.154,4253.333,4203.846,4313.205,4292.436,4229.615,4267.821,4256.795,4263.077,4233.077,4275.256,4315.256,4210.385
1970-01-02 07:27:51.030650,4205.897,4271.923,4264.231,4203.462,4323.718,4294.103,4234.103,4270.897,4257.692,4255.128,4235.128,4282.051,4323.077,4218.462
1970-01-02 07:27:51.030705,4201.282,4265.385,4268.59,4194.103,4326.538,4289.744,4232.436,4261.923,4246.538,4247.564,4231.538,4274.231,4318.59,4222.051
1970-01-02 07:27:51.030735,4202.308,4260.513,4276.795,4187.949,4328.59,4288.718,4231.923,4251.667,4233.333,4252.051,4230.256,4270.385,4311.026,4227.564
1970-01-02 07:27:51.030761,4217.821,4266.41,4297.179,4197.692,4338.718,4298.077,4240.385,4254.231,4231.795,4271.667,4239.359,4287.692,4312.436,4241.667
1970-01-02 07:27:51.030789,4238.846,4272.051,4317.051,4214.103,4347.821,4306.026,4248.974,4262.949,4236.154,4287.692,4247.821,4312.051,4317.949,4255.385
1970-01-02 07:27:51.041314,4249.872,4264.359,4320.641,4220.769,4344.359,4299.615,4247.308,4262.308,4233.718,4284.615,4242.179,4318.333,4317.949,4258.846
1970-01-02 07:27:51.041363,4251.538,4251.795,4314.487,4220.641,4334.872,4289.231,4243.718,4256.667,4229.744,4274.744,4231.795,4306.795,4318.462,4259.615
1970-01-02 07:27:51.041392,4255.513,4252.436,4315.256,4226.538,4333.333,4293.077,4250.256,4261.538,4238.718,4279.103,4235.385,4296.41,4328.59,4269.231
1970-01-02 07:27:51.055263,4263.59,4265.641,4320.256,4235.513,4337.051,4307.051,4258.846,4275.0,4255.0,4293.846,4249.359,4291.154,4337.179,4279.615
1970-01-02 07:27:51.055311,4268.205,4273.59,4313.718,4233.59,4333.59,4310.385,4251.41,4278.718,4258.462,4296.41,4253.59,4277.692,4326.923,4274.103
1970-01-02 07:27:51.055340,4272.564,4270.385,4298.333,4221.538,4324.615,4298.462,4230.769,4267.179,4245.897,4282.051,4243.846,4254.615,4304.744,4257.692
1970-01-02 07:27:51.055368,4286.667,4266.795,4294.359,4216.154,4323.333,4287.821,4218.077,4254.103,4235.897,4270.0,4237.051,4237.436,4296.538,4252.436
1970-01-02 07:27:51.070420,4305.769,4269.487,4306.667,4221.538,4329.359,4287.436,4221.154,4247.949,4238.205,4271.282,4241.026,4233.59,4308.077,4261.923
1970-01-02 07:27:51.070469,4311.795,4273.205,4316.026,4224.359,4327.949,4288.205,4226.667,4241.795,4241.282,4273.846,4243.846,4231.026,4317.821,4265.769
1970-01-02 07:27:51.072830,4303.718,4278.205,4310.0,4219.615,4316.282,4283.974,4225.256,4234.744,4236.41,4266.026,4238.333,4221.282,4311.154,4254.744
1970-01-02 07:27:51.072930,4302.692,4293.718,4299.744,4221.154,4310.256,4284.103,4225.0,4239.487,4234.744,4254.744,4234.359,4213.59,4301.154,4245.641
1970-01-02 07:27:51.087545,4319.103,4315.897,4296.282,4236.026,4317.821,4293.462,4231.795,4258.333,4245.128,4249.359,4238.718,4214.103,4302.179,4250.769
1970-01-02 07:27:51.087596,4336.154,4323.205,4291.282,4249.615,4325.513,4300.513,4236.538,4271.795,4255.128,4245.0,4240.897,4212.436,4307.949,4257.692
1970-01-02 07:27:51.087626,4337.179,4306.667,4276.154,4248.077,4321.282,4296.41,4234.103,4264.359,4251.41,4235.641,4233.333,4200.0,4307.308,4252.436
1970-01-02 07:27:51.100357,4331.026,4286.923,4261.41,4240.897,4313.846,4291.538,4235.641,4248.846,4243.333,4227.051,4228.846,4189.744,4305.769,4244.744
1970-01-02 07:27:51.100407,4331.282,4286.026,4260.513,4242.692,4315.385,4297.308,4248.333,4246.41,4247.179,4225.513,4240.769,4199.744,4310.641,4248.846
1970-01-02 07:27:51.100435,4329.231,4295.513,4265.256,4248.718,4319.744,4305.128,4257.179,4255.256,4258.846,4223.077,4258.59,4225.385,4312.051,4255.769
1970-01-02 07:27:51.100462,4309.359,4293.59,4258.462,4245.641,4314.872,4300.128,4246.026,4257.692,4261.154,4213.205,4261.667,4246.538,4297.308,4246.923
1970-01-02 07:27:51.115322,4278.974,4280.0,4242.179,4236.282,4305.641,4286.923,4225.513,4250.897,4252.308,4208.077,4250.385,4255.641,4276.026,4225.513
1970-01-02 07:27:51.115371,4260.0,4272.436,4232.051,4234.359,4304.359,4281.41,4218.077,4246.41,4247.051,4223.59,4241.538,4260.897,4269.231,4212.308
1970-01-02 07:27:51.115398,4256.282,4275.513,4230.385,4237.949,4307.436,4283.205,4225.128,4246.795,4250.128,4251.923,4240.769,4265.513,4278.462,4213.462
1970-01-02 07:27:51.115424,4251.923,4278.59,4224.872,4232.821,4303.205,4279.359,4229.231,4243.333,4251.154,4268.974,4238.974,4263.846,4285.0,4215.256
1970-01-02 07:27:51.115451,4240.897,4280.128,4214.103,4218.333,4296.795,4270.769,4226.538,4238.077,4246.795,4266.026,4235.897,4259.487,4280.513,4209.615
1970-01-02 07:27:51.130763,4233.846,4290.256,4213.205,4210.0,4305.256,4272.821,4230.769,4245.256,4247.692,4257.564,4243.333,4265.641,4276.538,4205.513
1970-01-02 07:27:51.130804,4235.641,4305.897,4229.231,4213.333,4326.923,4286.667,4245.256,4264.615,4257.051,4256.026,4261.795,4281.667,4280.897,4210.385
1970-01-02 07:27:51.133301,4235.0,4308.718,4249.615,4215.128,4339.359,4294.103,4254.487,4276.026,4261.795,4258.974,4273.462,4290.385,4286.026,4218.846
1970-01-02 07:27:51.148003,4225.897,4292.821,4263.205,4208.974,4332.949,4287.308,4250.513,4269.744,4256.282,4264.103,4268.974,4285.513,4287.179,4226.667
1970-01-02 07:27:51.148054,4218.974,4276.154,4274.487,4207.051,4324.744,4281.667,4245.769,4261.154,4253.077,4277.051,4261.282,4283.462,4293.333,4239.744
1970-01-02 07:27:51.148082,4222.564,4273.718,4288.462,4216.538,4329.359,4288.205,4250.641,4265.0,4260.385,4295.385,4263.077,4294.872,4308.718,4258.974
1970-01-02 07:27:51.148110,4226.795,4275.641,4296.154,4223.333,4337.179,4293.462,4254.615,4271.026,4263.718,4301.538,4266.026,4304.103,4319.103,4270.128
1970-01-02 07:27:51.160443,4220.641,4266.667,4291.41,4214.231,4334.359,4282.692,4246.026,4263.462,4248.333,4287.821,4258.462,4294.872,4312.821,4263.333
1970-01-02 07:27:51.160491,4213.077,4251.538,4286.538,4199.744,4325.641,4265.385,4232.179,4248.333,4225.385,4271.795,4247.821,4278.846,4300.769,4251.282
1970-01-02 07:27:51.160519,4219.744,4246.026,4294.487,4197.308,4323.077,4260.128,4226.41,4242.308,4217.308,4272.821,4247.308,4277.564,4300.256,4251.026
1970-01-02 07:27:51.160545,4239.103,4252.436,4305.513,4203.846,4324.359,4265.0,4225.641,4244.615,4225.769,4283.077,4252.436,4287.692,4307.949,4258.462
1970-01-02 07:27:51.175363,4257.436,4262.436,4302.564,4204.744,4320.256,4266.538,4221.026,4242.308,4234.487,4282.564,4249.872,4288.077,4310.256,4260.0
1970-01-02 07:27:51.175411,4271.667,4275.769,4291.41,4201.923,4315.513,4266.026,4217.949,4235.897,4238.59,4271.795,4243.718,4273.205,4309.487,4259.615
1970-01-02 07:27:51.175440,4288.462,4297.949,4292.308,4208.59,4321.026,4276.41,4227.308,4238.462,4247.692,4269.615,4249.744,4258.462,4318.077,4271.795
1970-01-02 07:27:51.175468,4304.487,4321.923,4306.154,4223.205,4332.308,4293.846,4240.385,4250.0,4260.385,4280.0,4266.667,4250.641,4331.667,4291.282
1970-01-02 07:27:51.190424,4308.718,4331.795,4312.949,4229.744,4334.103,4299.744,4236.538,4255.641,4262.308,4286.923,4275.641,4240.897,4331.923,4296.154
1970-01-02 07:27:51.190470,4304.872,4327.308,4305.641,4225.513,4326.41,4291.026,4215.256,4251.41,4252.821,4281.667,4270.0,4225.897,4317.949,4283.333
1970-01-02 07:27:51.190499,4309.615,4324.103,4300.256,4225.513,4323.974,4285.385,4198.846,4251.026,4249.872,4275.513,4263.718,4217.308,4310.385,4273.718
1970-01-02 07:27:51.207701,4322.949,4327.308,4306.154,4234.615,4330.0,4292.821,4201.154,4260.513,4261.795,4276.026,4265.641,4220.385,4318.974,4278.59
1970-01-02 07:27:51.207751,4324.615,4324.359,4309.872,4236.923,4328.718,4299.615,4210.385,4265.641,4271.538,4273.205,4265.128,4222.692,4327.436,4282.949
1970-01-02 07:27:51.207780,4307.179,4310.513,4298.974,4222.821,4312.692,4292.692,4214.103,4257.179,4264.359,4258.205,4253.846,4214.487,4321.026,4273.846
1970-01-02 07:27:51.207807,4292.051,4300.513,4282.949,4206.282,4297.179,4279.487,4216.282,4247.821,4250.897,4240.385,4242.436,4205.641,4308.205,4261.795
1970-01-02 07:27:51.220442,4297.821,4304.231,4274.615,4202.564,4296.41,4272.949,4222.179,4251.538,4248.974,4231.026,4241.41,4207.179,4303.205,4260.0
1970-01-02 07:27:51.220492,4312.436,4308.718,4269.359,4205.641,4303.333,4271.282,4223.077,4261.026,4255.641,4226.026,4242.308,4212.179,4302.179,4260.256
1970-01-02 07:27:51.220521,4314.359,4301.154,4257.949,4203.846,4306.282,4267.949,4214.615,4261.795,4257.179,4219.103,4233.974,4210.128,4295.385,4248.333
1970-01-02 07:27:51.235508,4305.513,4292.949,4247.436,4203.333,4309.359,4269.103,4211.923,4257.564,4254.103,4218.333,4225.0,4208.718,4287.436,4230.769
1970-01-02 07:27:51.235558,4299.744,4301.026,4249.359,4215.256,4321.026,4281.923,4227.949,4262.051,4258.077,4232.564,4230.0,4222.564,4288.205,4224.872
1970-01-02 07:27:51.235583,4294.744,4317.436,4254.615,4231.282,4333.462,4295.769,4248.846,4272.821,4266.795,4252.179,4244.231,4247.179,4291.41,4230.769
1970-01-02 07:27:51.235607,4277.821,4319.872,4245.128,4232.179,4333.974,4294.872,4251.538,4275.0,4267.179,4259.872,4250.128,4263.59,4282.949,4233.718
1970-01-02 07:27:51.251000,4253.846,4306.795,4223.462,4218.333,4328.718,4285.0,4238.462,4267.821,4259.487,4257.436,4247.308,4266.154,4267.821,4229.615
1970-01-02 07:27:51.251055,4242.692,4296.795,4212.821,4207.051,4333.974,4285.769,4231.923,4265.769,4258.974,4260.256,4250.769,4267.051,4266.026,4228.205
1970-01-02 07:27:51.251082,4247.308,4296.923,4224.231,4204.103,4346.923,4299.487,4238.462,4271.923,4269.359,4271.154,4261.41,4271.282,4281.538,4232.564
1970-01-02 07:27:51.251107,4248.846,4294.359,4243.846,4198.333,4348.333,4306.923,4241.154,4272.949,4275.385,4276.923,4261.923,4270.256,4296.41,4231.923
1970-01-02 07:27:51.251134,4235.897,4282.436,4256.667,4186.282,4333.974,4298.462,4230.641,4263.974,4268.077,4272.949,4245.769,4263.462,4297.949,4222.436
1970-01-02 07:27:51.268817,4220.0,4272.564,4263.718,4181.795,4322.308,4286.795,4219.359,4258.462,4257.564,4270.641,4229.615,4264.615,4294.744,4216.41
1970-01-02 07:27:51.268870,4214.615,4273.333,4270.256,4192.436,4324.487,4283.333,4217.949,4263.718,4252.308,4274.872,4227.308,4276.154,4298.974,4224.359
1970-01-02 07:27:51.268898,4215.256,4276.795,4274.103,4205.513,4329.872,4281.667,4219.744,4267.949,4245.385,4275.128,4232.051,4280.641,4308.59,4240.128
1970-01-02 07:27:51.268925,4211.923,4275.128,4275.385,4207.949,4328.59,4276.538,4217.692,4262.179,4232.308,4268.077,4233.59,4269.103,4317.949,4254.359
1970-01-02 07:27:51.280576,4206.667,4274.615,4284.615,4204.103,4327.949,4277.564,4219.103,4259.615,4227.564,4268.718,4237.179,4259.872,4329.231,4267.051
1970-01-02 07:27:51.280627,4206.282,4279.744,4303.59,4201.282,4335.385,4291.41,4229.744,4272.821,4242.051,4286.538,4246.667,4269.231,4341.154,4277.692
1970-01-02 07:27:51.280655,4209.744,4279.231,4314.487,4193.077,4341.41,4303.462,4237.821,4288.718,4260.513,4305.769,4248.974,4281.667,4339.872,4275.128
1970-01-02 07:27:51.280683,4214.872,4264.359,4303.462,4174.872,4335.385,4298.462,4231.154,4285.641,4260.256,4305.513,4232.436,4272.564,4319.231,4255.897
1970-01-02 07:27:51.295517,4229.487,4248.718,4284.487,4162.179,4325.385,4286.41,4217.051,4265.641,4243.846,4290.385,4211.667,4246.154,4298.462,4238.462
1970-01-02 07:27:51.295561,4256.667,4251.282,4279.744,4172.436,4325.128,4286.41,4209.103,4249.231,4232.179,4280.513,4210.256,4227.949,4298.718,4240.513
1970-01-02 07:27:51.295590,4278.205,4267.308,4286.154,4196.538,4330.0,4295.0,4202.692,4244.231,4230.769,4280.0,4226.282,4226.923,4311.538,4249.744
1970-01-02 07:27:51.310660,4272.308,4274.872,4283.462,4208.846,4325.769,4292.564,4185.256,4241.154,4227.051,4277.051,4235.897,4228.846,4310.385,4241.282
1970-01-02 07:27:51.310708,4246.41,4267.564,4270.769,4203.718,4314.231,4277.051,4163.974,4236.667,4219.231,4269.872,4229.872,4225.128,4292.179,4217.949
1970-01-02 07:27:51.310735,4230.897,4259.615,4268.718,4198.333,4310.897,4268.077,4161.41,4238.846,4221.154,4269.872,4222.949,4223.718,4279.359,4208.333
1970-01-02 07:27:51.310763,4239.103,4260.256,4285.513,4202.051,4317.564,4275.128,4182.436,4247.051,4235.128,4276.41,4225.0,4226.923,4284.231,4223.59
1970-01-02 07:27:51.325559,4256.538,4263.974,4303.462,4205.641,4319.872,4285.513,4206.923,4248.077,4243.846,4271.282,4228.462,4223.718,4294.744,4243.718
1970-01-02 07:27:51.327975,4270.641,4269.103,4307.308,4204.231,4313.077,4288.462,4219.359,4240.0,4238.462,4246.923,4228.077,4209.872,4300.256,4252.308
1970-01-02 07:27:51.328013,4288.333,4284.231,4302.821,4208.718,4311.026,4290.256,4225.385,4240.128,4233.59,4220.641,4231.667,4199.872,4306.667,4256.795
1970-01-02 07:27:51.328040,4312.179,4306.667,4298.333,4224.231,4321.282,4296.667,4232.436,4257.179,4242.308,4211.667,4242.821,4203.974,4317.564,4264.231
1970-01-02 07:27:51.342037,4326.538,4317.051,4287.692,4237.308,4331.282,4299.615,4235.128,4274.359,4254.231,4216.923,4248.077,4211.795,4320.897,4262.692
1970-01-02 07:27:51.342099,4321.154,4307.308,4267.051,4237.564,4330.0,4293.333,4231.282,4274.359,4254.103,4223.59,4239.359,4211.026,4309.487,4243.974
1970-01-02 07:27:51.342130,4310.0,4296.667,4251.026,4235.641,4325.897,4288.718,4232.692,4264.615,4247.436,4228.205,4230.513,4209.103,4297.692,4225.0
1970-01-02 07:27:51.342159,4307.821,4302.436,4251.923,4243.718,4329.487,4296.282,4246.795,4262.564,4249.359,4231.538,4236.154,4220.256,4299.615,4225.0
1970-01-02 07:27:51.355565,4305.0,4311.41,4257.692,4252.179,4332.949,4305.769,4258.205,4267.051,4257.821,4227.821,4246.41,4240.256,4304.615,4235.256
1970-01-02 07:27:51.355621,4286.154,4302.308,4248.974,4245.385,4325.256,4301.538,4251.795,4264.615,4258.205,4215.128,4241.667,4253.718,4294.103,4232.692
1970-01-02 07:27:51.355654,4261.795,4280.897,4230.256,4229.615,4313.59,4288.846,4237.692,4255.0,4249.615,4208.846,4224.231,4258.462,4273.462,4215.641
1970-01-02 07:27:51.371093,4255.0,4270.385,4222.179,4223.077,4312.179,4283.846,4236.923,4250.513,4245.385,4224.615,4213.462,4264.872,4264.103,4202.308
1970-01-02 07:27:51.371151,4264.103,4274.744,4229.359,4226.154,4316.538,4286.795,4247.308,4252.179,4249.615,4253.718,4215.897,4273.846,4270.897,4201.026
1970-01-02 07:27:51.371182,4264.872,4276.923,4236.667,4222.821,4312.051,4284.103,4249.615,4250.128,4252.051,4271.667,4221.026,4275.897,4279.231,4202.051
1970-01-02 07:27:51.371213,4247.564,4271.538,4237.436,4211.795,4302.949,4275.641,4240.385,4246.154,4250.256,4271.282,4225.128,4272.308,4282.308,4200.128
1970-01-02 07:27:51.385628,4228.718,4271.667,4242.949,4209.487,4308.205,4277.436,4236.667,4255.128,4254.359,4266.795,4237.179,4277.179,4289.487,4203.462
1970-01-02 07:27:51.385682,4221.667,4282.051,4258.974,4220.385,4328.974,4292.692,4245.769,4276.282,4265.513,4268.205,4256.41,4291.795,4303.718,4215.513
1970-01-02 07:27:51.388248,4219.359,4288.205,4274.872,4227.564,4342.949,4303.846,4254.744,4288.077,4268.846,4269.487,4265.769,4299.103,4312.821,4226.154
1970-01-02 07:27:51.388286,4213.333,4281.154,4282.692,4219.615,4338.077,4300.641,4253.59,4278.974,4257.308,4267.821,4258.077,4292.051,4310.641,4229.231
1970-01-02 07:27:51.403168,4210.256,4271.795,4290.385,4208.718,4328.333,4294.615,4250.897,4265.0,4245.385,4272.564,4248.59,4287.436,4308.718,4235.0
1970-01-02 07:27:51.403225,4217.564,4270.641,4303.333,4208.846,4328.205,4296.667,4254.487,4263.077,4245.385,4285.256,4251.282,4297.308,4315.897,4251.538
1970-01-02 07:27:51.403258,4227.308,4269.231,4310.513,4214.615,4331.282,4298.718,4255.769,4265.128,4247.564,4289.744,4257.564,4307.179,4321.795,4268.974
1970-01-02 07:27:51.403289,4228.974,4257.179,4302.949,4214.744,4326.41,4291.154,4246.41,4256.026,4237.692,4276.026,4254.103,4299.615,4315.897,4274.615
1970-01-02 07:27:51.415699,4228.205,4243.718,4292.949,4213.974,4319.103,4283.205,4236.026,4239.872,4223.974,4260.256,4247.051,4282.821,4307.692,4272.308
1970-01-02 07:27:51.415750,4236.923,4245.256,4296.026,4221.154,4319.872,4287.308,4236.538,4232.308,4223.59,4261.538,4249.615,4276.154,4310.513,4270.513
1970-01-02 07:27:51.415778,4253.462,4260.897,4305.0,4229.359,4323.846,4295.641,4241.538,4234.103,4234.231,4273.205,4257.051,4278.077,4318.077,4264.615
1970-01-02 07:27:51.415803,4268.077,4278.077,4302.821,4226.538,4321.41,4292.308,4237.821,4234.615,4239.615,4275.128,4254.615,4272.436,4315.513,4248.077
1970-01-02 07:27:51.430617,4281.667,4293.333,4293.077,4219.103,4317.564,4282.179,4229.872,4235.0,4238.846,4268.205,4244.231,4258.462,4307.436,4235.513
1970-01-02 07:27:51.430670,4302.179,4311.026,4292.949,4224.487,4323.718,4283.846,4232.179,4245.0,4245.513,4270.897,4241.538,4251.026,4310.256,4246.795
1970-01-02 07:27:51.430702,4322.821,4325.769,4302.051,4240.513,4334.359,4298.462,4242.051,4259.744,4259.359,4287.051,4248.846,4252.949,4321.923,4274.359
1970-01-02 07:27:51.430733,4328.718,4325.641,4302.308,4247.692,4333.333,4307.308,4243.077,4262.308,4264.103,4297.692,4251.923,4249.231,4322.564,4288.718
1970-01-02 07:27:51.445695,4322.692,4314.231,4289.615,4240.256,4320.385,4301.795,4232.179,4251.667,4255.128,4290.897,4247.179,4233.205,4307.821,4280.385
1970-01-02 07:27:51.445763,4324.103,4308.59,4281.923,4234.359,4312.436,4294.103,4224.359,4246.538,4249.615,4276.667,4246.923,4217.821,4296.538,4269.231
1970-01-02 07:27:51.448269,4336.026,4312.179,4288.59,4239.103,4314.872,4293.077,4226.282,4255.128,4257.051,4265.256,4255.641,4212.692,4299.744,4270.128
1970-01-02 07:27:51.448304,4337.821,4308.846,4294.359,4242.308,4313.462,4290.897,4226.667,4261.026,4263.333,4252.692,4259.231,4209.744,4304.487,4271.795
1970-01-02 07:27:51.463073,4318.205,4291.923,4285.385,4233.462,4300.385,4281.538,4218.846,4251.282,4256.026,4235.128,4249.231,4202.051,4298.462,4262.179
1970-01-02 07:27:51.463125,4295.128,4277.692,4270.513,4221.41,4289.359,4274.872,4214.615,4237.564,4245.513,4221.538,4238.846,4198.718,4289.231,4250.769
1970-01-02 07:27:51.463153,4288.846,4279.487,4263.077,4218.077,4292.821,4279.103,4221.795,4237.308,4247.308,4218.846,4240.769,4208.718,4288.462,4249.615
1970-01-02 07:27:51.463182,4293.462,4286.538,4258.974,4218.333,4302.692,4284.744,4228.59,4247.436,4256.154,4218.59,4246.795,4222.308,4290.128,4250.513
1970-01-02 07:27:51.475723,4293.718,4285.513,4248.846,4214.231,4306.282,4281.41,4224.231,4254.359,4257.436,4213.462,4243.59,4226.154,4285.128,4240.513
1970-01-02 07:27:51.475774,4290.513,4285.0,4238.846,4213.462,4308.333,4276.923,4220.769,4258.077,4252.692,4213.718,4237.821,4225.769,4280.641,4226.026
1970-01-02 07:27:51.475805,4292.949,4299.744,4240.0,4225.256,4317.821,4282.692,4232.821,4267.051,4255.385,4231.282,4243.846,4236.154,4288.077,4223.077
1970-01-02 07:27:51.475833,4293.333,4321.538,4244.615,4238.205,4327.436,4290.897,4250.385,4276.026,4265.641,4256.923,4258.333,4255.0,4298.974,4229.615
1970-01-02 07:27:51.490711,4277.436,4329.487,4236.154,4233.205,4324.744,4286.282,4252.436,4272.051,4269.615,4270.0,4265.641,4266.41,4295.0,4229.744
1970-01-02 07:27:51.490765,4252.051,4322.308,4216.923,4213.205,4317.179,4274.487,4240.128,4258.59,4264.615,4267.051,4264.103,4267.051,4277.949,4220.256
1970-01-02 07:27:51.490796,4239.231,4316.282,4207.949,4199.103,4321.667,4275.513,4233.59,4253.205,4261.923,4262.179,4266.41,4268.846,4268.462,4214.103
1970-01-02 07:27:51.490825,4243.718,4316.026,4217.564,4197.949,4335.769,4290.513,4238.462,4258.205,4264.487,4262.692,4273.077,4273.462,4274.872,4217.179
1970-01-02 07:27:51.507810,4246.41,4309.487,4232.692,4196.667,4339.487,4298.974,4240.385,4258.205,4261.026,4262.692,4270.256,4269.872,4284.103,4220.641
1970-01-02 07:27:51.507862,4234.615,4293.846,4243.077,4188.846,4328.462,4291.795,4233.462,4248.077,4248.462,4261.538,4255.769,4258.59,4286.795,4219.231
1970-01-02 07:27:51.510231,4217.949,4283.333,4254.615,4185.128,4320.513,4283.205,4230.0,4243.59,4240.897,4268.333,4246.667,4257.179,4290.128,4221.41
1970-01-02 07:27:51.525075,4208.333,4284.231,4271.667,4191.667,4326.154,4284.359,4236.923,4253.333,4246.154,4282.564,4252.308,4270.641,4300.128,4231.795
1970-01-02 07:27:51.525128,4203.333,4283.077,4284.231,4197.308,4333.462,4286.026,4241.923,4262.949,4252.436,4289.872,4259.103,4279.103,4307.564,4241.41
1970-01-02 07:27:51.525158,4199.103,4270.513,4286.41,4195.385,4331.795,4280.769,4236.154,4258.846,4249.103,4285.128,4255.256,4269.231,4306.538,4244.231
1970-01-02 07:27:51.525189,4204.103,4259.744,4289.744,4197.692,4330.513,4279.359,4230.0,4250.897,4246.154,4284.231,4251.026,4257.564,4307.051,4249.744
1970-01-02 07:27:51.535832,4224.359,4265.641,4303.333,4214.103,4339.359,4290.769,4233.333,4255.0,4256.154,4297.821,4258.333,4264.487,4317.821,4264.487
1970-01-02 07:27:51.535887,4248.333,4281.923,4314.872,4231.282,4349.103,4301.795,4237.051,4266.154,4269.872,4311.795,4267.179,4281.41,4328.205,4275.897
1970-01-02 07:27:51.535920,4261.667,4292.564,4309.359,4231.538,4346.795,4296.282,4229.615,4268.846,4270.513,4307.949,4261.41,4285.385,4326.41,4271.795
1970-01-02 07:27:51.550740,4268.205,4296.154,4296.026,4219.744,4337.949,4283.205,4219.103,4263.846,4261.538,4293.333,4247.051,4274.744,4322.692,4264.103
1970-01-02 07:27:51.550791,4279.872,4302.051,4294.359,4212.949,4335.641,4282.821,4219.487,4263.205,4259.359,4288.59,4242.692,4266.154,4332.821,4271.026
1970-01-02 07:27:51.550821,4292.949,4307.949,4302.051,4212.179,4337.179,4293.718,4224.103,4266.026,4264.231,4294.487,4249.359,4263.077,4348.974,4285.385
1970-01-02 07:27:51.550852,4294.487,4304.103,4300.256,4206.154,4330.897,4295.769,4215.0,4259.744,4261.154,4293.59,4250.513,4252.564,4348.846,4285.513
1970-01-02 07:27:51.565842,4288.59,4294.359,4287.051,4197.821,4319.615,4283.974,4193.59,4245.0,4248.59,4280.256,4242.436,4232.436,4331.795,4271.154
1970-01-02 07:27:51.565891,4292.051,4293.205,4281.154,4202.692,4317.436,4275.0,4180.513,4237.564,4242.949,4267.821,4238.205,4217.179,4320.513,4265.128
1970-01-02 07:27:51.565918,4305.256,4300.897,4290.0,4220.513,4323.718,4277.949,4186.026,4242.821,4249.872,4264.231,4242.308,4214.103,4325.513,4274.744
1970-01-02 07:27:51.565945,4310.0,4302.692,4298.462,4231.154,4322.692,4282.692,4199.359,4249.231,4254.615,4260.513,4242.436,4213.205,4332.308,4281.667
1970-01-02 07:27:51.583058,4302.692,4296.667,4295.897,4225.256,4311.154,4281.795,4211.923,4251.41,4248.59,4250.513,4233.077,4206.282,4328.462,4274.359
1970-01-02 07:27:51.583112,4303.205,4298.846,4291.667,4217.308,4306.154,4283.205,4228.077,4260.769,4244.744,4242.692,4227.564,4201.667,4321.795,4265.641
1970-01-02 07:27:51.583142,4320.897,4314.872,4293.718,4220.0,4317.051,4292.179,4246.923,4280.769,4253.846,4241.795,4233.974,4206.41,4321.154,4266.41
1970-01-02 07:27:51.583170,4335.641,4325.513,4292.051,4224.615,4330.128,4298.718,4254.359,4293.077,4264.359,4239.231,4240.128,4211.667,4319.103,4264.487
1970-01-02 07:27:51.583198,4327.692,4316.538,4276.667,4220.641,4331.154,4294.744,4244.615,4282.564,4261.667,4229.615,4234.744,4208.59,4308.077,4247.821
1970-01-02 07:27:51.595853,4307.051,4301.923,4258.077,4215.897,4326.154,4290.128,4234.231,4261.41,4252.821,4224.231,4227.564,4206.667,4297.179,4227.436
1970-01-02 07:27:51.595905,4293.59,4299.615,4250.897,4221.154,4325.769,4295.769,4237.564,4251.538,4253.846,4232.949,4231.538,4218.718,4297.179,4221.667
1970-01-02 07:27:51.595935,4285.641,4302.821,4250.513,4228.205,4325.0,4302.564,4244.487,4254.615,4262.308,4245.385,4239.103,4238.205,4299.872,4227.436
1970-01-02 07:27:51.595962,4270.0,4294.487,4242.949,4222.436,4315.897,4296.282,4238.846,4257.051,4263.205,4247.051,4234.359,4247.692,4291.282,4227.692
1970-01-02 07:27:51.610826,4250.385,4279.231,4230.897,4208.846,4307.436,4282.821,4227.051,4255.897,4255.0,4242.949,4221.282,4246.026,4277.308,4220.0
1970-01-02 07:27:51.610877,4242.179,4275.513,4229.615,4203.333,4313.077,4280.128,4227.821,4260.128,4250.897,4247.949,4217.949,4246.538,4275.128,4216.154
1970-01-02 07:27:51.610909,4244.103,4284.487,4240.641,4205.385,4326.41,4289.872,4240.513,4267.564,4254.359,4261.923,4227.179,4253.077,4286.026,4218.205
1970-01-02 07:27:51.626349,4240.0,4290.641,4250.256,4201.154,4329.231,4298.333,4247.308,4266.154,4255.769,4271.026,4235.0,4256.923,4294.615,4215.513
1970-01-02 07:27:51.626404,4226.795,4289.615,4253.59,4191.41,4322.308,4302.051,4244.103,4258.462,4253.462,4272.179,4237.564,4258.974,4296.41,4206.538
1970-01-02 07:27:51.626435,4219.744,4292.692,4260.513,4193.077,4323.59,4310.513,4243.846,4261.026,4258.462,4275.769,4245.769,4270.513,4303.205,4203.846
1970-01-02 07:27:51.626463,4224.487,4300.641,4274.487,4209.872,4337.308,4322.821,4251.41,4276.667,4271.026,4282.564,4260.256,4289.615,4318.462,4214.359
1970-01-02 07:27:51.643167,4226.282,4297.564,4284.744,4222.949,4346.41,4322.692,4254.103,4285.641,4273.077,4280.256,4264.487,4296.154,4328.333,4227.564
1970-01-02 07:27:51.643222,4215.0,4277.564,4286.026,4219.615,4341.795,4306.282,4246.026,4276.795,4256.667,4267.821,4251.538,4283.333,4323.846,4235.128
1970-01-02 07:27:51.643253,4202.051,4257.821,4290.0,4210.513,4336.41,4292.436,4239.744,4265.0,4238.718,4262.436,4237.436,4271.538,4315.0,4242.692
1970-01-02 07:27:51.643282,4203.205,4253.974,4302.308,4208.974,4341.538,4295.0,4243.974,4266.538,4236.154,4272.949,4236.538,4278.077,4312.308,4254.359
1970-01-02 07:27:51.655946,4215.513,4257.564,4309.615,4210.0,4347.564,4302.051,4248.077,4273.333,4240.385,4283.718,4240.128,4290.256,4309.615,4260.641
1970-01-02 07:27:51.655998,4227.821,4254.231,4301.026,4205.641,4342.051,4298.205,4241.282,4270.128,4236.026,4279.231,4235.513,4288.462,4300.513,4254.103
1970-01-02 07:27:51.656027,4239.872,4247.949,4289.615,4203.846,4331.538,4290.0,4232.436,4260.641,4227.949,4268.974,4229.744,4276.41,4295.385,4246.282
1970-01-02 07:27:51.656055,4255.769,4251.538,4292.179,4214.744,4328.077,4291.154,4233.846,4258.59,4230.897,4269.872,4235.769,4270.769,4303.974,4249.359
1970-01-02 07:27:51.670879,4269.872,4264.359,4302.308,4229.103,4328.974,4297.051,4238.462,4262.308,4241.923,4277.949,4247.308,4270.769,4314.744,4254.872
1970-01-02 07:27:51.670928,4275.513,4275.769,4302.949,4231.154,4325.641,4293.59,4232.949,4260.128,4245.513,4277.051,4248.59,4262.564,4311.795,4249.872
1970-01-02 07:27:51.670956,4282.692,4285.897,4298.333,4225.769,4322.692,4285.256,4223.333,4254.487,4242.436,4270.0,4242.051,4247.564,4304.231,4244.231
1970-01-02 07:27:51.686031,4305.0,4301.154,4306.923,4230.385,4330.769,4288.462,4226.667,4258.974,4247.821,4274.744,4244.103,4241.667,4312.436,4257.692
1970-01-02 07:27:51.686084,4332.436,4315.128,4327.564,4245.0,4342.949,4302.308,4241.538,4271.154,4261.538,4292.051,4255.385,4246.795,4332.051,4283.974
1970-01-02 07:27:51.686111,4340.128,4313.077,4337.179,4251.154,4341.923,4307.692,4248.974,4273.59,4265.128,4300.0,4258.718,4245.897,4335.769,4294.615
1970-01-02 07:27:51.686139,4324.231,4297.949,4325.385,4242.821,4327.179,4297.308,4242.821,4261.923,4252.436,4286.154,4248.077,4231.154,4315.0,4280.385
1970-01-02 07:27:51.700906,4307.821,4289.744,4307.179,4234.615,4316.41,4285.256,4236.667,4252.821,4240.897,4262.949,4237.821,4214.744,4292.179,4262.949
1970-01-02 07:27:51.703461,4306.282,4295.385,4296.026,4235.769,4317.692,4282.308,4238.59,4255.769,4242.692,4246.154,4237.821,4207.436,4286.795,4258.846
1970-01-02 07:27:51.703497,4309.615,4298.974,4285.641,4235.641,4317.949,4281.154,4238.718,4257.949,4246.154,4234.744,4237.821,4203.077,4292.308,4257.564
1970-01-02 07:27:51.703520,4306.795,4291.282,4270.0,4226.154,4308.974,4274.872,4231.667,4247.821,4238.974,4223.205,4229.487,4195.641,4294.744,4246.538
1970-01-02 07:27:51.718160,4304.744,4285.513,4259.103,4217.692,4301.41,4271.667,4229.359,4235.769,4230.128,4215.897,4222.436,4194.744,4295.641,4234.487
1970-01-02 07:27:51.718213,4310.0,4292.821,4261.667,4221.282,4305.897,4278.718,4239.103,4236.026,4233.462,4217.051,4226.795,4209.359,4298.846,4233.077
1970-01-02 07:27:51.718243,4309.487,4301.41,4266.282,4228.59,4314.231,4285.641,4248.718,4244.231,4243.974,4218.462,4234.231,4230.385,4295.897,4234.487
1970-01-02 07:27:51.718271,4291.923,4297.564,4257.692,4228.59,4315.897,4282.308,4246.538,4248.974,4247.179,4215.256,4232.692,4243.846,4279.615,4225.128
1970-01-02 07:27:51.730955,4270.513,4290.641,4242.051,4227.692,4316.795,4278.205,4242.821,4253.718,4245.128,4218.59,4229.487,4252.436,4263.462,4210.897
1970-01-02 07:27:51.731006,4264.487,4297.051,4235.641,4236.538,4325.513,4286.282,4251.923,4266.923,4249.872,4239.487,4238.462,4266.667,4264.487,4207.051
1970-01-02 07:27:51.731034,4268.462,4310.0,4237.821,4246.923,4332.436,4298.205,4264.615,4280.128,4259.615,4266.026,4254.103,4281.538,4277.436,4212.949
1970-01-02 07:27:51.731062,4261.923,4309.231,4235.128,4241.667,4323.718,4295.128,4261.026,4276.41,4260.897,4276.923,4258.59,4282.692,4282.821,4213.462
1970-01-02 07:27:51.746067,4243.077,4294.231,4226.795,4223.718,4307.821,4279.615,4242.949,4260.0,4253.077,4270.0,4250.769,4272.051,4277.821,4205.513
1970-01-02 07:27:51.746118,4229.872,4283.846,4225.769,4212.436,4304.872,4271.667,4231.41,4252.564,4250.385,4261.667,4246.923,4266.795,4277.051,4201.282
1970-01-02 07:27:51.746148,4229.487,4285.0,4234.487,4212.949,4314.872,4277.436,4233.846,4259.615,4256.538,4260.256,4252.436,4270.513,4285.128,4206.154
1970-01-02 07:27:51.746178,4228.846,4285.256,4240.0,4210.769,4318.718,4282.179,4237.308,4263.846,4257.949,4258.974,4255.128,4269.744,4289.487,4212.179
1970-01-02 07:27:51.761427,4219.872,4277.308,4238.077,4199.103,4310.385,4277.692,4234.872,4256.026,4248.205,4256.026,4249.615,4261.923,4285.0,4215.641
1970-01-02 07:27:51.763835,4212.051,4270.385,4241.923,4190.385,4305.513,4274.615,4235.256,4248.974,4239.487,4260.641,4248.077,4263.718,4283.974,4225.641
1970-01-02 07:27:51.763870,4213.846,4270.128,4258.718,4193.077,4313.077,4279.103,4242.821,4253.974,4240.513,4273.205,4256.538,4281.667,4295.0,4245.256
1970-01-02 07:27:51.763894,4218.462,4267.308,4276.667,4197.821,4321.282,4280.385,4246.282,4260.385,4242.051,4279.872,4261.923,4297.179,4308.077,4263.077
1970-01-02 07:27:51.777358,4219.359,4257.949,4285.128,4197.308,4320.128,4272.436,4239.359,4256.795,4236.667,4275.641,4254.487,4295.128,4313.59,4270.769
1970-01-02 07:27:51.777410,4225.0,4255.128,4291.41,4201.667,4318.718,4269.103,4233.718,4251.41,4235.897,4276.41,4246.923,4287.179,4318.077,4278.077
1970-01-02 07:27:51.777440,4243.59,4269.744,4303.333,4219.487,4326.282,4281.538,4239.103,4256.282,4250.769,4292.564,4252.949,4289.487,4327.949,4293.462
1970-01-02 07:27:51.777468,4266.026,4289.872,4310.513,4237.564,4334.359,4295.513,4244.872,4264.103,4268.205,4308.846,4263.974,4294.231,4332.821,4306.282
1970-01-02 07:27:51.791028,4279.744,4296.667,4302.308,4238.718,4330.769,4292.051,4237.692,4260.641,4268.205,4305.641,4262.179,4283.462,4322.051,4303.333
1970-01-02 07:27:51.791075,4288.846,4291.282,4291.282,4227.308,4322.308,4277.436,4225.513,4249.744,4254.359,4288.59,4250.513,4262.051,4308.077,4293.333
1970-01-02 07:27:51.791103,4304.359,4288.718,4296.282,4219.487,4322.821,4272.692,4223.846,4246.41,4247.051,4278.974,4245.128,4249.744,4309.103,4292.821
1970-01-02 07:27:51.806017,4320.0,4292.564,4310.128,4216.154,4328.974,4280.513,4230.128,4250.0,4250.256,4279.872,4248.205,4249.487,4318.462,4297.692
1970-01-02 07:27:51.806065,4321.154,4294.615,4309.615,4206.154,4327.564,4284.872,4228.462,4247.051,4249.872,4276.282,4247.436,4244.615,4313.974,4291.026
1970-01-02 07:27:51.806093,4311.667,4294.359,4293.077,4193.59,4320.0,4281.154,4218.462,4237.821,4242.436,4264.487,4241.026,4228.846,4295.0,4274.359
1970-01-02 07:27:51.806120,4311.026,4300.641,4282.308,4196.154,4320.0,4281.41,4215.128,4237.564,4242.179,4257.692,4241.538,4214.872,4284.103,4267.692
1970-01-02 07:27:51.821042,4322.436,4310.897,4287.051,4214.872,4328.077,4290.385,4222.436,4250.641,4253.462,4261.667,4251.154,4210.641,4292.179,4275.897
1970-01-02 07:27:51.821083,4329.103,4311.795,4291.538,4229.359,4328.974,4296.923,4228.333,4261.41,4261.41,4263.974,4256.154,4207.821,4304.872,4281.154
1970-01-02 07:27:51.823576,4325.128,4303.205,4283.333,4227.949,4319.487,4294.487,4228.974,4261.538,4257.179,4256.026,4251.026,4200.769,4309.359,4274.103
1970-01-02 07:27:51.823618,4326.282,4302.308,4271.795,4222.436,4315.513,4293.205,4236.41,4262.821,4253.846,4244.872,4248.333,4199.103,4311.795,4268.462
1970-01-02 07:27:51.838528,4339.615,4314.359,4267.821,4224.744,4326.026,4299.487,4253.077,4274.103,4263.205,4237.949,4255.385,4209.231,4317.436,4273.974
1970-01-02 07:27:51.838576,4345.385,4320.641,4263.59,4227.179,4337.051,4302.821,4260.769,4283.077,4274.487,4231.41,4258.718,4220.128,4315.128,4276.667
1970-01-02 07:27:51.838602,4326.154,4308.974,4250.128,4221.41,4334.872,4294.487,4247.692,4276.026,4272.436,4224.103,4246.667,4222.051,4296.923,4261.154
1970-01-02 07:27:51.838635,4294.487,4295.128,4236.154,4216.41,4326.795,4285.128,4228.077,4261.282,4262.179,4227.692,4231.538,4224.231,4277.308,4237.051
1970-01-02 07:27:51.851085,4273.462,4298.077,4233.462,4222.564,4324.872,4286.41,4219.615,4254.872,4259.231,4247.949,4231.026,4239.615,4273.974,4224.744
1970-01-02 07:27:51.851134,4263.846,4309.744,4234.615,4230.256,4324.615,4290.641,4217.692,4255.769,4263.333,4268.974,4240.641,4260.385,4281.538,4225.641
1970-01-02 07:27:51.851162,4252.436,4309.487,4225.641,4224.103,4316.923,4284.359,4209.359,4251.538,4261.667,4271.538,4243.59,4267.564,4282.051,4226.41
1970-01-02 07:27:51.866038,4240.385,4297.949,4212.436,4209.487,4310.128,4273.462,4201.026,4244.231,4254.103,4260.769,4238.462,4261.154,4274.487,4223.077
1970-01-02 07:27:51.866080,4239.359,4292.949,4213.846,4203.077,4317.821,4274.615,4208.59,4246.154,4252.821,4256.282,4237.821,4257.308,4273.205,4222.564
1970-01-02 07:27:51.866106,4245.769,4297.821,4231.667,4203.846,4334.103,4286.538,4227.949,4255.385,4259.231,4263.462,4243.718,4262.051,4281.538,4223.974
1970-01-02 07:27:51.866133,4242.179,4298.974,4249.103,4196.538,4340.897,4292.692,4238.846,4257.692,4261.41,4271.667,4246.282,4266.538,4288.718,4218.718
1970-01-02 07:27:51.881530,4225.128,4292.692,4257.949,4181.026,4337.308,4290.256,4237.179,4252.949,4257.051,4276.282,4245.897,4270.256,4291.795,4210.641
1970-01-02 07:27:51.881571,4211.026,4290.0,4267.821,4175.0,4339.231,4293.59,4237.821,4258.205,4257.949,4283.462,4254.359,4282.949,4301.538,4215.513
1970-01-02 07:27:51.881597,4209.744,4293.462,4283.462,4184.231,4349.231,4305.385,4246.282,4276.538,4266.795,4290.897,4268.974,4300.385,4319.872,4236.667
1970-01-02 07:27:51.884123,4211.667,4289.744,4293.462,4192.692,4351.282,4309.744,4249.744,4287.949,4267.949,4286.538,4269.744,4301.667,4332.308,4257.564
1970-01-02 07:27:51.898375,4208.462,4274.359,4291.154,4188.846,4339.231,4298.59,4241.154,4279.872,4253.846,4271.026,4249.615,4281.667,4329.487,4266.41
1970-01-02 07:27:51.898425,4207.692,4261.923,4287.179,4183.333,4329.103,4287.436,4232.692,4266.923,4239.872,4263.974,4229.103,4264.744,4321.026,4270.256
1970-01-02 07:27:51.898453,4217.564,4262.949,4290.641,4186.667,4333.462,4289.231,4234.231,4266.795,4240.897,4274.231,4227.051,4270.897,4317.051,4276.538
1970-01-02 07:27:51.898480,4231.026,4267.308,4293.205,4191.282,4341.923,4294.487,4236.282,4274.487,4248.462,4285.128,4234.487,4287.051,4312.949,4277.692
1970-01-02 07:27:51.911233,4238.718,4263.462,4287.949,4188.077,4340.769,4290.385,4229.231,4275.513,4247.179,4280.769,4234.872,4289.359,4304.103,4268.718
1970-01-02 07:27:51.911277,4246.026,4259.615,4286.667,4186.41,4335.256,4284.359,4221.282,4271.41,4241.41,4271.923,4231.282,4278.077,4302.436,4264.487
1970-01-02 07:27:51.911303,4262.179,4269.359,4301.795,4198.718,4337.051,4289.744,4224.487,4272.179,4244.615,4277.692,4236.282,4269.872,4317.692,4278.333
1970-01-02 07:27:51.911328,4281.154,4287.051,4321.538,4216.795,4342.821,4300.769,4232.179,4274.359,4252.821,4293.205,4245.385,4266.154,4336.154,4296.41
1970-01-02 07:27:51.926184,4291.026,4296.667,4325.256,4223.718,4342.308,4302.051,4230.897,4267.308,4251.923,4298.846,4245.128,4254.872,4338.333,4296.154
1970-01-02 07:27:51.926233,4296.538,4297.051,4315.769,4222.051,4339.615,4295.641,4225.0,4256.282,4244.744,4293.333,4238.333,4236.41,4329.231,4282.308
1970-01-02 07:27:51.926260,4309.615,4299.359,4314.231,4227.564,4344.872,4297.564,4229.744,4256.795,4247.821,4293.077,4240.385,4224.872,4329.744,4278.462
1970-01-02 07:27:51.926286,4323.974,4303.59,4324.359,4240.128,4352.436,4307.949,4243.59,4267.821,4260.769,4301.538,4250.769,4223.59,4341.026,4287.436
1970-01-02 07:27:51.941203,4321.026,4299.359,4327.821,4241.795,4346.41,4310.256,4249.744,4271.026,4264.103,4301.282,4252.436,4220.641,4341.795,4287.949
1970-01-02 07:27:51.941243,4301.923,4288.718,4315.513,4227.564,4327.821,4298.205,4243.846,4260.897,4251.026,4282.564,4240.769,4210.897,4323.333,4271.154
1970-01-02 07:27:51.941268,4290.897,4286.923,4300.897,4214.231,4315.385,4286.026,4239.744,4252.949,4238.718,4257.692,4231.154,4205.256,4302.564,4253.974
1970-01-02 07:27:51.943668,4300.0,4295.0,4294.359,4213.333,4316.923,4284.103,4243.333,4257.179,4240.385,4240.256,4232.051,4209.103,4294.744,4249.103
1970-01-02 07:27:51.957230,4312.949,4295.641,4287.821,4216.795,4318.333,4285.128,4243.077,4262.436,4245.641,4227.949,4231.538,4211.154,4294.231,4245.897
1970-01-02 07:27:51.957279,4313.846,4282.821,4272.436,4216.41,4310.769,4282.308,4234.103,4257.949,4242.436,4216.154,4221.282,4204.231,4291.795,4234.744
1970-01-02 07:27:51.957308,4308.718,4275.385,4257.051,4219.103,4305.769,4283.205,4229.744,4252.179,4238.59,4209.359,4213.974,4201.667,4290.897,4225.897
1970-01-02 07:27:51.957334,4306.538,4285.769,4251.026,4230.641,4313.846,4293.718,4238.846,4257.051,4246.41,4210.769,4222.692,4217.051,4295.128,4230.897
1970-01-02 07:27:51.971283,4298.718,4299.103,4247.436,4239.744,4325.769,4302.436,4248.718,4266.41,4259.487,4211.538,4238.333,4242.564,4293.718,4239.744
1970-01-02 07:27:51.971331,4276.795,4296.667,4236.667,4235.128,4329.359,4298.333,4245.897,4269.103,4262.949,4207.436,4245.256,4261.282,4279.103,4236.026
1970-01-02 07:27:51.971358,4254.872,4287.051,4226.923,4226.282,4329.744,4290.256,4239.231,4269.231,4258.846,4211.795,4246.41,4272.051,4265.385,4222.821
1970-01-02 07:27:51.985186,4251.923,4288.718,4231.667,4228.846,4336.538,4292.308,4243.462,4277.436,4259.487,4236.923,4253.333,4284.487,4270.513,4215.897
1970-01-02 07:27:51.985230,4260.897,4297.436,4244.744,4236.923,4342.692,4299.487,4252.436,4286.795,4263.846,4269.615,4261.154,4296.795,4288.333,4217.436
1970-01-02 07:27:51.985259,4258.59,4293.846,4248.462,4232.436,4335.256,4295.769,4249.231,4280.897,4259.359,4285.0,4254.872,4297.564,4297.051,4216.154
1970-01-02 07:27:51.985286,4240.0,4277.564,4241.795,4215.128,4320.769,4283.462,4236.923,4263.077,4247.051,4278.077,4236.795,4289.231,4292.436,4209.231
1970-01-02 07:27:51.985311,4221.923,4267.051,4240.769,4203.077,4317.179,4279.231,4234.359,4253.205,4242.564,4265.385,4225.769,4285.641,4290.385,4206.667
1970-01-02 07:27:52.001797,4214.359,4269.487,4251.923,4203.974,4324.487,4286.154,4245.513,4257.821,4249.359,4258.333,4227.949,4287.821,4297.692,4212.051
1970-01-02 07:27:52.001841,4209.744,4271.026,4264.487,4207.179,4326.667,4289.487,4254.359,4261.923,4252.821,4254.487,4230.513,4282.179,4303.077,4216.154
1970-01-02 07:27:52.015263,4204.231,4263.718,4272.179,4206.154,4320.128,4284.231,4252.308,4257.436,4244.872,4254.103,4227.051,4269.487,4299.487,4215.641
1970-01-02 07:27:52.017661,4207.821,4256.795,4283.718,4209.487,4320.513,4283.59,4249.615,4256.026,4237.308,4264.487,4228.59,4270.256,4296.282,4219.487
1970-01-02 07:27:52.017697,4224.615,4256.923,4302.051,4221.026,4334.359,4293.077,4253.333,4265.0,4238.846,4282.179,4241.154,4292.308,4300.513,4231.923
1970-01-02 07:27:52.017723,4241.154,4255.256,4314.487,4229.231,4346.154,4298.846,4254.615,4271.795,4239.872,4289.744,4251.41,4314.231,4304.359,4243.077
1970-01-02 07:27:52.017749,4245.385,4247.179,4312.949,4226.795,4343.462,4291.667,4247.821,4264.872,4231.667,4281.41,4249.359,4315.256,4303.333,4247.692
1970-01-02 07:27:52.032590,4244.103,4245.641,4309.487,4225.641,4334.744,4285.128,4243.333,4255.0,4226.282,4274.872,4245.897,4303.846,4308.077,4256.026
1970-01-02 07:27:52.032640,4249.744,4261.795,4314.359,4235.256,4332.436,4292.436,4248.846,4256.41,4237.308,4284.359,4253.205,4298.077,4324.744,4273.718
1970-01-02 07:27:52.032670,4260.769,4283.462,4316.026,4244.359,4332.436,4302.051,4252.692,4262.308,4254.487,4296.538,4262.308,4295.128,4338.077,4285.385
1970-01-02 07:27:52.032698,4270.128,4291.538,4300.769,4237.692,4325.769,4296.538,4241.282,4257.051,4258.205,4291.41,4257.692,4281.026,4332.692,4276.795
1970-01-02 07:27:52.045427,4282.692,4286.41,4280.769,4222.436,4318.077,4280.897,4223.333,4243.974,4249.615,4274.487,4244.744,4258.205,4319.231,4261.282
1970-01-02 07:27:52.045479,4305.128,4282.692,4279.103,4217.051,4318.974,4274.359,4216.538,4238.974,4245.0,4266.795,4241.538,4243.59,4317.436,4261.41
1970-01-02 07:27:52.045509,4326.154,4285.128,4294.487,4221.538,4322.949,4278.718,4220.641,4242.949,4247.308,4271.795,4249.103,4240.385,4322.949,4274.359
1970-01-02 07:27:52.045536,4328.59,4286.538,4305.128,4220.641,4317.821,4279.487,4220.897,4243.205,4243.846,4272.692,4252.564,4236.026,4316.282,4277.564
1970-01-02 07:27:52.060544,4317.949,4288.205,4303.333,4212.949,4308.333,4273.333,4216.41,4238.59,4233.718,4263.59,4247.051,4226.154,4297.051,4266.923
1970-01-02 07:27:52.060601,4317.179,4298.462,4301.795,4212.436,4310.256,4272.308,4220.385,4242.436,4232.051,4256.795,4243.974,4220.641,4287.308,4261.026
1970-01-02 07:27:52.060634,4332.436,4313.205,4305.769,4222.308,4322.564,4279.872,4234.615,4256.026,4243.077,4259.103,4247.179,4221.667,4296.154,4266.795
1970-01-02 07:27:52.060664,4346.026,4316.538,4301.923,4228.205,4326.923,4283.59,4244.359,4263.205,4251.026,4259.872,4246.667,4217.821,4307.436,4268.974
1970-01-02 07:27:52.077209,4346.41,4307.692,4284.359,4224.231,4317.436,4279.103,4244.359,4257.051,4246.538,4250.641,4239.487,4205.641,4307.692,4258.974
1970-01-02 07:27:52.077259,4343.718,4304.744,4267.821,4223.205,4309.359,4278.718,4246.538,4251.795,4242.949,4237.436,4238.077,4199.744,4304.103,4250.385
1970-01-02 07:27:52.077287,4345.385,4314.872,4264.103,4232.436,4312.821,4288.718,4255.897,4258.205,4252.179,4226.667,4247.692,4209.744,4303.974,4254.231
1970-01-02 07:27:52.077312,4339.872,4319.872,4262.949,4238.718,4316.795,4295.641,4257.436,4264.872,4264.231,4215.641,4252.949,4224.231,4298.59,4257.949
1970-01-02 07:27:52.090380,4318.333,4305.641,4252.179,4230.513,4310.641,4288.333,4242.564,4257.692,4263.462,4206.41,4241.026,4228.846,4281.282,4246.154
1970-01-02 07:27:52.090428,4295.513,4285.897,4238.462,4217.949,4303.333,4277.179,4227.179,4244.872,4254.744,4214.231,4223.205,4229.103,4264.744,4226.41
1970-01-02 07:27:52.090456,4288.205,4280.513,4234.231,4215.641,4306.795,4276.41,4228.205,4242.179,4253.077,4245.128,4218.59,4238.205,4263.333,4217.051
1970-01-02 07:27:52.105378,4288.462,4286.41,4234.231,4217.564,4313.846,4279.744,4237.308,4248.333,4258.077,4278.846,4226.667,4252.436,4270.0,4219.487
1970-01-02 07:27:52.105425,4277.692,4287.564,4225.0,4210.897,4312.692,4273.59,4237.179,4250.513,4258.846,4290.641,4233.846,4258.59,4268.974,4221.41
1970-01-02 07:27:52.105453,4257.179,4283.462,4210.769,4200.641,4309.487,4262.949,4230.385,4249.872,4256.026,4281.923,4238.974,4258.077,4263.59,4219.487
