Timestamp,Cz,Fz,Fp1,F3,C1,C3,T7,C5,CP5,CP3,CP1,P1,P3,O1,CPz,Pz,Oz,O2,P4,P2,CP2,CP4,CP6,C6,T8,C4,C2,F4,Fp2
0.0,-33.668,-22.558,-224.747,51.1,-35.673,-48.281,-38.258,-41.842,-70.06,-44.52,-65.835,-42.887,-35.355,8.98,-28.861,-8.88,-34.648,28.517,-50.979,-39.911,-40.894,-36.099,-14.097,-54.763,-51.156,-72.343,-25.914,-22.224,-208.861
6.870005745440722e-05,-42.856,-26.121,-224.01,44.389,-40.761,-52.843,-70.496,-40.263,-77.162,-53.185,-74.478,-57.189,-47.103,-19.719,-38.566,-21.679,-53.569,12.607,-64.761,-53.191,-50.587,-48.358,-22.28,-64.442,-71.085,-77.394,-37.671,-22.714,-239.903
0.015086400089785457,-48.449,-38.39,-222.249,37.685,-45.843,-61.499,-37.637,-47.907,-81.184,-58.255,-78.502,-58.156,-49.105,-19.187,-46.212,-25.756,-54.54,6.959,-69.819,-55.187,-56.684,-51.896,-22.77,-61.816,-87.407,-83.976,-46.343,-42.159,-243.761
0.016840600059367716,-48.913,-37.327,-231.761,42.77,-45.285,-58.876,-14.034,-48.372,-71.881,-51.537,-71.252,-52.463,-42.396,-5.847,-45.141,-22.656,-49.874,13.1,-65.651,-47.959,-54.066,-46.721,-19.674,-54.582,-86.808,-81.331,-41.686,-43.142,-238.907
0.030097200069576502,-39.642,-27.044,-233.066,54.51,-39.092,-47.034,-46.295,-31.929,-60.538,-45.85,-64.52,-47.799,-34.157,-3.28,-39.973,-16.486,-45.726,19.235,-56.364,-39.714,-45.815,-40.526,-13.506,-49.916,-74.425,-71.003,-31.398,-22.606,-238.156
0.030162200098857284,-33.455,-25.48,-217.976,57.018,-34.954,-48.524,-47.273,-28.824,-63.552,-46.829,-65.993,-42.116,-34.123,1.846,-33.273,-9.809,-35.434,25.363,-49.135,-35.576,-41.671,-34.85,-11.443,-50.891,-54.883,-67.858,-29.83,-24.633,-228.184
0.045026800013147295,-54.426,-41.848,-228.517,39.03,-46.19,-67.944,-35.443,-51.849,-79.37,-59.077,-77.71,-54.882,-47.921,-1.229,-42.461,-25.169,-43.083,13.555,-61.893,-49.373,-57.511,-47.623,-23.215,-62.623,-59.952,-83.16,-44.657,-48.174,-232.054
0.045099600101821125,-71.79,-58.2,-254.416,25.671,-57.415,-80.683,-63.072,-60.506,-84.926,-72.338,-89.927,-73.27,-54.533,-14.036,-58.3,-45.124,-59.946,-5.414,-78.225,-64.693,-73.335,-66.019,-33.438,-75.368,-88.069,-95.884,-58.957,-49.151,-258.974
0.06000400008633733,-63.009,-57.63,-244.94,37.94,-53.259,-75.992,-66.595,-48.15,-78.181,-67.655,-86.764,-67.561,-47.818,-9.923,-57.218,-37.906,-51.69,3.3,-75.073,-57.968,-65.577,-62.367,-29.818,-74.268,-92.079,-92.202,-58.898,-41.929,-270.498
0.060078500071540475,-62.946,-56.548,-231.375,42.513,-54.23,-72.842,-39.376,-49.127,-78.103,-60.415,-80.529,-62.371,-47.771,-0.692,-61.259,-32.233,-42.929,20.203,-70.387,-52.787,-61.413,-58.206,-26.715,-70.608,-76.105,-92.11,-58.327,-51.109,-257.932
0.07493140001315624,-73.129,-63.151,-247.537,30.688,-62.885,-76.868,-30.628,-57.274,-80.074,-65.99,-84.035,-71.017,-51.309,-5.302,-74.518,-44.496,-51.083,16.085,-73.903,-59.394,-69.036,-65.832,-29.25,-72.074,-77.054,-97.141,-63.391,-46.959,-247.941
0.09001090005040169,-69.982,-63.6,-252.413,30.145,-60.261,-77.303,-43.917,-54.143,-76.407,-67.973,-85.488,-72.996,-48.696,-8.37,-67.271,-45.988,-54.618,7.872,-72.292,-60.872,-67.43,-63.717,-28.708,-69.953,-85.686,-91.921,-63.84,-39.228,-244.107
0.09009010007139295,-71.961,-63.537,-234.742,34.213,-58.151,-82.349,-66.415,-54.089,-80.942,-69.442,-87.452,-74.972,-52.234,-8.362,-57.47,-48.504,-54.563,7.351,-74.269,-63.373,-69.412,-62.629,-30.729,-69.37,-84.576,-88.243,-64.289,-54.046,-244.887
0.10536730010062456,-82.648,-69.108,-229.384,32.13,-68.339,-91.488,-73.521,-58.646,-85.472,-78.082,-95.561,-80.02,-58.329,-9.891,-69.707,-59.726,-58.095,8.369,-80.855,-70.481,-79.589,-70.251,-33.259,-74.424,-79.88,-92.765,-69.348,-50.405,-252.839
0.10542830009944737,-77.955,-64.941,-239.913,38.757,-69.295,-87.298,-61.152,-51.927,-77.702,-75.955,-96.49,-75.842,-53.66,-4.758,-74.761,-53.006,-51.377,12.971,-76.676,-66.825,-74.898,-67.107,-30.152,-74.35,-75.702,-91.135,-68.254,-25.764,-265.394
0.11999300005845726,-77.364,-64.364,-257.092,42.817,-61.542,-85.162,-58.529,-49.314,-78.649,-72.293,-94.344,-78.84,-54.631,-3.728,-70.075,-49.367,-47.227,11.933,-77.111,-64.709,-71.749,-68.576,-32.171,-75.812,-79.212,-91.557,-67.673,-36.497,-276.912
0.12005090003367513,-90.607,-79.669,-268.618,33.553,-67.628,-99.933,-47.712,-66.683,-92.914,-86.053,-102.959,-90.544,-66.359,-10.385,-82.301,-66.224,-56.913,4.749,-87.28,-72.841,-83.461,-81.316,-38.287,-83.421,-92.453,-101.199,-76.315,-60.539,-274.586
0.13505410007201135,-84.369,-76.003,-244.271,35.056,-70.634,-100.858,-26.147,-70.715,-91.797,-85.454,-99.782,-83.281,-63.731,-4.226,-83.755,-63.084,-55.319,11.404,-78.996,-67.133,-78.767,-72.525,-31.589,-76.678,-87.238,-97.512,-74.701,-44.085,-249.72
0.13510840001981705,-67.378,-58.508,-214.825,45.78,-57.243,-81.802,-46.101,-50.152,-77.361,-67.95,-83.801,-70.902,-48.299,9.098,-63.179,-44.578,-41.432,25.225,-64.06,-54.77,-63.319,-60.157,-21.823,-63.281,-62.56,-86.143,-63.356,-23.036,-241.274
0.1501714000478387,-79.606,-68.696,-238.688,40.611,-59.748,-85.818,-78.331,-49.077,-80.869,-74.03,-90.89,-81.078,-53.886,4.478,-64.141,-57.853,-46.001,20.589,-78.341,-65.986,-73.501,-78.028,-32.56,-76.025,-64.546,-95.791,-72.002,-32.747,-273.308
0.15023470006417483,-96.945,-87.583,-270.725,32.373,-77.619,-106.737,-94.646,-69.52,-98.719,-90.35,-107.705,-94.829,-71.762,-11.92,-82.007,-79.825,-66.447,4.175,-97.73,-84.876,-92.383,-92.807,-46.359,-94.905,-93.171,-110.04,-88.324,-46.546,-283.793
0.16519379999954253,-86.602,-79.81,-252.011,43.099,-72.418,-100.483,-91.478,-64.327,-96.059,-80.013,-99.4,-90.123,-66.568,-14.982,-71.167,-73.085,-65.869,3.146,-86.362,-78.131,-84.606,-79.394,-37.092,-84.564,-92.566,-100.708,-79.526,-47.012,-250.721
0.1652616000501439,-70.121,-64.361,-222.046,57.913,-49.804,-81.427,-58.598,-42.746,-72.397,-62.003,-81.37,-72.615,-45.496,1.939,-47.017,-54.569,-44.286,22.611,-66.295,-57.048,-66.079,-67.531,-20.661,-66.036,-66.858,-84.214,-62.54,-36.206,-239.712
0.18009530007839203,-69.539,-61.735,-225.41,53.757,-48.217,-81.345,-25.752,-41.679,-63.615,-59.891,-78.727,-63.833,-41.353,13.72,-45.433,-50.416,-41.168,30.785,-65.717,-54.429,-64.476,-69.001,-22.177,-66.482,-68.84,-80.543,-61.453,-21.313,-268.162
0.180153000052087,-79.716,-70.383,-234.406,40.383,-65.075,-89.461,-58.002,-48.809,-77.384,-71.615,-87.87,-77.601,-54.119,-0.126,-54.609,-62.661,-61.107,9.237,-76.409,-72.306,-76.706,-76.104,-32.913,-73.588,-92.85,-87.635,-70.101,-24.366,-270.967
0.1951820000540465,-95.517,-86.706,-237.758,38.806,-76.793,-96.032,-90.219,-52.859,-88.065,-84.863,-102.127,-95.454,-65.848,-18.569,-63.264,-77.967,-68.73,-4.604,-88.116,-86.578,-88.925,-90.373,-43.126,-85.81,-104.54,-101.892,-85.4,-46.883,-259.426
0.19524860009551048,-101.057,-92.255,-242.643,44.402,-75.692,-101.571,-57.341,-59.979,-90.538,-84.266,-108.172,-93.822,-67.319,-15.477,-70.373,-80.963,-60.464,7.696,-92.126,-82.393,-91.398,-97.967,-48.719,-96.483,-100.849,-110.499,-92.487,-50.935,-271.974
0.2102051000110805,-87.124,-75.257,-232.154,48.456,-65.37,-94.297,-44.988,-52.234,-84.812,-71.374,-93.719,-80.92,-57.005,-6.24,-61.593,-69.099,-57.33,14.86,-80.251,-70.015,-80.548,-84.036,-39.961,-84.603,-86.404,-96.044,-77.025,-22.194,-272.214
0.2102693000342697,-74.229,-61.861,-221.676,54.043,-58.645,-81.907,-77.219,-36.813,-70.895,-66.179,-77.744,-74.18,-45.678,-5.209,-45.65,-57.247,-55.224,14.845,-68.9,-61.748,-68.684,-69.096,-26.601,-65.563,-72.997,-78.53,-65.165,-1.168,-248.888
0.22524030006024987,-81.327,-69.996,-234.262,55.526,-64.221,-89.51,-56.137,-46.51,-72.874,-70.724,-84.839,-77.692,-49.73,-3.154,-45.092,-59.751,-48.508,24.052,-73.442,-63.223,-72.202,-73.125,-28.623,-70.621,-82.658,-83.062,-71.248,-16.023,-240.955
0.2253072999883443,-88.418,-79.66,-237.614,46.249,-70.817,-105.302,-32.002,-64.906,-86.121,-77.826,-95.512,-84.274,-57.365,0.947,-52.732,-69.938,-44.874,24.028,-76.955,-69.82,-78.79,-78.175,-33.206,-76.698,-88.211,-89.639,-73.226,-28.303,-249.423
0.24059160007163882,-80.645,-74.458,-222.007,41.592,-66.648,-101.098,-54.512,-59.206,-81.936,-79.285,-89.269,-81.116,-53.209,-0.078,-54.728,-64.232,-45.853,17.344,-67.656,-64.115,-68.465,-72.461,-26.0,-61.764,-67.63,-78.279,-65.98,-10.344,-254.297
0.24065360007807612,-73.904,-65.162,-225.371,46.161,-61.458,-91.776,-72.388,-47.876,-76.219,-72.033,-81.495,-75.912,-49.57,0.946,-52.624,-54.434,-47.857,20.913,-63.49,-54.829,-61.224,-68.803,-22.9,-54.018,-61.927,-70.516,-63.865,-0.6,-247.895
0.25518340000417084,-79.466,-66.633,-234.879,50.726,-61.909,-95.782,-82.562,-48.34,-81.778,-69.399,-86.537,-83.52,-51.057,2.995,-50.01,-62.577,-53.444,19.867,-71.624,-63.484,-72.946,-72.832,-30.562,-65.234,-76.722,-78.13,-66.875,-14.944,-233.814
0.25524210010189563,-86.046,-71.177,-228.497,51.187,-61.847,-100.297,-82.992,-47.267,-75.549,-74.965,-91.061,-91.121,-48.957,-0.082,-48.936,-73.273,-55.44,10.626,-77.187,-75.203,-81.582,-77.37,-34.118,-73.878,-74.596,-82.662,-71.419,-12.367,-234.605
0.2703579000663012,-90.059,-72.643,-233.904,46.013,-62.81,-97.123,-58.318,-47.22,-66.252,-75.915,-89.433,-90.518,-48.396,-3.668,-54.01,-71.662,-56.409,10.615,-79.159,-75.128,-80.476,-82.928,-33.571,-75.341,-68.886,-81.555,-77.495,-2.621,-254.351
0.28530710004270077,-100.215,-80.768,-247.502,35.209,-71.968,-100.612,-61.846,-50.759,-74.894,-77.888,-94.467,-97.087,-56.544,-8.275,-60.103,-78.763,-64.038,12.142,-88.302,-82.738,-91.154,-92.579,-41.222,-82.951,-86.236,-92.232,-87.664,-21.574,-262.805
0.2853760001016781,-110.361,-95.031,-245.718,28.513,-82.143,-110.758,-85.35,-53.27,-81.48,-87.544,-105.131,-108.261,-64.173,-19.538,-63.117,-93.541,-72.683,8.543,-99.997,-97.0,-104.895,-103.245,-53.476,-94.139,-106.642,-109.558,-99.872,-42.557,-261.518
0.3003165000118315,-112.3,-99.035,-248.546,30.022,-81.036,-113.721,-65.797,-55.778,-76.787,-90.018,-108.612,-111.739,-65.133,-25.666,-62.542,-94.985,-73.122,9.047,-101.434,-98.439,-103.765,-107.753,-57.009,-100.704,-113.195,-115.596,-102.845,-38.928,-267.917
0.3003797000274062,-110.138,-93.3,-257.007,36.139,-76.344,-104.898,-45.751,-50.599,-69.538,-80.707,-104.405,-109.578,-60.969,-18.468,-60.43,-87.205,-68.438,12.112,-96.209,-92.193,-98.026,-101.497,-51.829,-96.505,-108.471,-106.772,-96.595,-29.155,-270.722
0.3142955000512302,-105.417,-92.182,-252.651,39.177,-77.292,-97.621,-69.272,-41.327,-66.395,-74.991,-98.665,-106.395,-57.835,-12.302,-60.882,-84.556,-66.321,11.075,-94.064,-88.515,-95.879,-95.248,-49.728,-88.212,-96.068,-101.029,-95.474,-26.052,-271.989
0.31435340002644807,-110.435,-102.336,-255.472,31.453,-81.826,-109.819,-80.985,-54.606,-79.136,-84.137,-102.665,-111.411,-63.924,-19.462,-67.481,-90.619,-69.841,4.916,-98.068,-93.55,-100.906,-102.325,-52.752,-91.197,-90.336,-107.076,-101.014,-30.637,-281.451
0.32931260007899255,-120.058,-112.48,-265.463,19.127,-87.379,-129.176,-69.121,-79.142,-94.426,-95.324,-113.321,-121.034,-71.033,-25.59,-72.537,-95.652,-68.746,5.424,-99.507,-101.653,-108.49,-106.833,-51.675,-99.816,-88.709,-109.531,-104.499,-36.242,-284.755
0.3310444999951869,-112.254,-107.245,-250.853,20.644,-86.267,-122.387,-78.274,-73.427,-84.598,-90.105,-107.06,-113.228,-62.765,-14.806,-64.779,-86.335,-59.456,17.201,-89.673,-92.33,-98.648,-94.944,-41.377,-89.982,-75.812,-96.101,-97.734,-24.935,-268.077
0.344398400047794,-96.26,-93.817,-234.72,37.018,-76.447,-97.674,-93.565,-47.739,-68.12,-74.134,-87.997,-98.258,-47.845,2.115,-49.858,-69.854,-52.736,24.357,-74.727,-77.38,-80.618,-82.553,-33.138,-72.986,-68.052,-81.66,-85.853,-10.565,-244.242
0.34446560009382665,-97.188,-91.162,-247.293,49.276,-71.248,-94.503,-84.25,-42.055,-69.588,-72.01,-88.934,-101.233,-44.211,3.65,-47.759,-69.785,-54.221,15.111,-76.701,-84.475,-85.661,-84.52,-39.253,-73.937,-81.304,-84.652,-84.743,-18.239,-241.949
0.3598277000710368,-110.411,-98.243,-258.317,38.98,-80.91,-110.29,-74.944,-51.747,-74.642,-83.209,-104.214,-114.452,-55.95,-10.186,-64.105,-85.596,-62.363,5.362,-98.142,-100.785,-106.58,-99.292,-54.071,-92.306,-95.567,-99.937,-99.515,-26.93,-273.982
0.35989160009194165,-123.108,-109.928,-256.009,19.986,-92.613,-118.889,-86.14,-57.843,-79.178,-92.348,-111.282,-125.609,-67.165,-18.885,-80.947,-98.831,-72.035,4.844,-115.462,-109.393,-118.768,-115.075,-64.263,-110.145,-103.156,-116.231,-116.834,-26.903,-303.422
0.3744298000819981,-130.158,-119.04,-258.315,23.04,-96.106,-120.307,-77.857,-58.81,-82.685,-94.304,-114.757,-132.655,-66.073,-14.768,-85.989,-100.269,-71.963,7.401,-112.273,-111.333,-118.65,-117.009,-63.686,-112.084,-110.225,-121.238,-121.84,-33.024,-288.774
0.37449110008310527,-124.392,-113.285,-253.446,36.337,-93.961,-120.186,-47.04,-54.653,-75.43,-90.112,-113.618,-132.01,-60.884,-10.655,-82.317,-94.021,-65.231,8.93,-102.427,-106.099,-111.871,-106.646,-56.962,-100.701,-102.943,-112.92,-113.009,-35.552,-257.747
0.3895187000744045,-117.095,-107.024,-245.508,34.251,-91.305,-116.992,-57.239,-51.012,-72.793,-87.972,-107.869,-133.927,-63.385,-15.767,-81.21,-91.365,-71.313,5.335,-102.324,-103.431,-111.759,-105.514,-57.418,-97.527,-89.52,-107.684,-109.822,-28.857,-258.002
0.39122009999118745,-118.003,-112.553,-257.558,32.68,-90.189,-114.826,-89.458,-54.547,-81.429,-89.934,-108.785,-142.503,-67.42,-23.436,-82.665,-95.372,-81.488,0.719,-106.833,-108.963,-117.283,-110.02,-59.41,-106.138,-93.017,-111.162,-114.836,-27.291,-273.625
0.4045136000495404,-112.249,-107.829,-259.862,48.017,-84.976,-111.125,-75.536,-54.492,-75.713,-82.671,-104.578,-135.188,-62.741,-20.339,-77.972,-91.691,-76.284,6.354,-101.603,-103.219,-110.505,-101.2,-50.129,-103.471,-91.899,-103.879,-106.012,-18.555,-270.79
0.4045795000856742,-103.94,-94.401,-235.523,53.092,-76.182,-105.891,-51.382,-49.315,-64.878,-73.367,-93.715,-121.733,-56.531,-10.072,-72.259,-79.304,-68.523,12.495,-94.329,-93.894,-100.149,-92.39,-43.931,-88.51,-74.389,-91.992,-94.635,-6.753,-250.539
0.4195371000096202,-111.521,-103.016,-228.115,36.645,-79.179,-114.494,-77.458,-58.487,-75.572,-83.028,-100.281,-128.783,-59.036,-9.55,-81.92,-81.786,-72.553,8.384,-97.308,-100.46,-108.246,-98.957,-51.572,-86.373,-77.9,-95.998,-104.786,-20.579,-237.481
0.41960290004499257,-121.656,-120.332,-250.941,21.751,-90.883,-130.773,-106.07,-76.872,-88.304,-95.752,-114.526,-139.925,-69.735,-16.713,-96.183,-91.95,-74.017,5.302,-101.822,-107.02,-119.408,-108.592,-58.692,-101.143,-107.536,-108.198,-113.391,-40.026,-253.125
0.43458710005506873,-121.022,-122.773,-271.183,18.656,-91.305,-131.155,-101.865,-77.307,-83.605,-91.558,-112.362,-135.175,-70.178,-14.647,-89.939,-86.223,-69.844,11.957,-99.158,-103.326,-115.19,-110.533,-58.634,-109.751,-118.7,-111.676,-108.667,-30.252,-285.147
0.44953650003299117,-114.753,-113.429,-275.01,29.908,-83.529,-115.142,-86.907,-61.348,-70.714,-78.147,-98.93,-127.355,-55.763,-6.435,-73.455,-74.866,-70.799,16.555,-95.473,-100.661,-106.366,-107.349,-54.989,-101.957,-99.113,-104.904,-107.533,-10.754,-300.744
0.44959520001430064,-104.904,-100.508,-254.755,54.981,-77.298,-101.707,-76.574,-47.455,-58.86,-66.798,-84.998,-119.031,-44.949,-0.281,-68.771,-70.693,-69.704,17.563,-90.254,-94.925,-101.136,-99.044,-50.323,-91.609,-81.083,-93.016,-102.815,-6.645,-272.266
0.46464010002091527,-101.213,-98.87,-232.471,65.684,-74.147,-101.093,-91.866,-46.383,-59.826,-66.219,-84.401,-115.838,-47.978,-0.793,-72.801,-68.573,-68.097,18.57,-87.603,-92.781,-104.621,-97.921,-53.347,-94.591,-86.125,-92.411,-97.077,-15.347,-239.206
0.46470550005324185,-111.358,-106.456,-247.095,52.299,-77.659,-110.726,-104.582,-55.558,-71.549,-77.935,-97.124,-125.456,-54.078,-8.989,-74.777,-70.553,-74.177,14.966,-94.175,-102.422,-111.689,-106.02,-59.953,-102.693,-93.724,-101.54,-104.152,-21.992,-245.114
0.4807024000911042,-108.685,-98.665,-260.168,50.71,-78.093,-109.591,-71.69,-52.428,-65.842,-76.321,-92.929,-123.793,-50.95,-7.443,-69.067,-69.971,-72.566,15.975,-92.544,-98.734,-105.942,-99.766,-51.184,-93.369,-82.872,-93.241,-101.999,-13.261,-266.899
0.48077260004356503,-93.72,-86.271,-234.293,66.54,-70.33,-95.649,-38.83,-35.47,-48.87,-62.412,-78.491,-110.35,-44.751,3.323,-60.801,-59.654,-61.735,24.156,-79.644,-85.827,-97.127,-87.883,-42.424,-79.443,-74.08,-77.266,-88.064,-0.44,-263.045
0.49465090001467615,-106.434,-100.529,-230.472,61.863,-78.457,-103.238,-71.067,-40.557,-58.555,-75.157,-91.733,-123.559,-55.977,-8.976,-71.499,-66.767,-75.505,15.935,-90.323,-101.623,-110.862,-103.164,-57.238,-91.659,-91.936,-89.485,-100.272,-8.124,-252.536
0.4947178000584245,-127.844,-117.847,-260.98,41.309,-94.772,-126.701,-103.271,-65.108,-82.575,-98.648,-113.67,-147.002,-76.926,-31.509,-91.407,-91.291,-96.434,-3.548,-111.749,-124.063,-128.682,-126.115,-72.038,-116.158,-110.8,-112.961,-121.176,-25.022,-262.018
0.5097002000547945,-119.007,-112.094,-261.232,40.243,-89.042,-123.5,-70.38,-63.506,-78.394,-90.353,-104.335,-137.121,-75.312,-22.768,-88.754,-89.663,-81.993,5.677,-107.027,-115.23,-122.918,-121.378,-67.867,-119.628,-109.664,-110.799,-115.42,-28.071,-276.613
0.5097644000779837,-108.13,-104.809,-250.724,53.01,-77.17,-105.958,-58.015,-42.95,-57.823,-72.844,-89.374,-122.127,-55.257,-2.765,-78.932,-70.106,-61.419,30.774,-95.649,-102.819,-114.598,-106.912,-61.652,-110.287,-110.067,-98.905,-106.083,-21.383,-284.533
0.5247615000698715,-110.071,-102.655,-253.035,62.691,-76.581,-103.803,-79.986,-35.734,-49.056,-69.697,-87.747,-123.029,-47.517,-1.225,-82.439,-65.425,-66.993,29.719,-93.504,-102.716,-114.483,-103.732,-60.566,-101.468,-107.908,-94.708,-107.001,-12.14,-272.465
0.5248578999890015,-100.227,-89.745,-234.339,73.387,-70.356,-98.576,-51.217,-34.162,-47.982,-61.43,-79.975,-111.636,-44.395,0.313,-73.647,-60.236,-68.463,22.004,-82.14,-93.392,-104.635,-99.017,-52.308,-89.583,-86.283,-85.904,-98.185,-1.881,-243.504
0.5397121000569314,-95.516,-88.118,-222.321,70.24,-67.725,-94.891,-27.599,-35.665,-48.959,-57.271,-76.309,-107.426,-39.228,7.485,-61.791,-50.442,-61.734,30.692,-79.496,-89.712,-101.457,-97.381,-48.67,-86.42,-83.123,-82.232,-93.988,-4.953,-241.723
0.5397792999865487,-117.962,-110.572,-248.739,49.677,-83.538,-115.289,-59.847,-49.461,-60.693,-72.583,-92.626,-128.323,-50.972,0.305,-78.635,-64.736,-71.919,29.636,-97.347,-109.09,-120.31,-111.628,-59.892,-106.826,-104.044,-100.593,-114.899,-23.904,-271.195
0.5546849000966176,-131.164,-122.757,-259.761,41.943,-93.189,-129.518,-84.89,-55.559,-69.854,-83.781,-104.317,-138.441,-64.241,-11.991,-95.975,-81.578,-80.556,18.336,-98.275,-117.691,-129.412,-120.738,-65.467,-122.6,-97.28,-113.3,-129.641,-31.565,-280.146
0.5547473999904469,-116.688,-110.851,-245.157,48.561,-85.411,-116.581,-52.018,-45.258,-59.026,-73.963,-92.942,-125.494,-53.93,-4.806,-84.096,-69.713,-66.643,28.051,-82.295,-101.691,-114.938,-107.81,-54.643,-108.133,-76.69,-99.354,-117.728,-20.262,-265.521
0.5697174000088125,-101.715,-98.444,-242.862,52.099,-74.055,-104.681,-36.084,-34.966,-42.061,-59.032,-76.967,-114.61,-36.458,14.154,-68.13,-48.639,-50.183,46.979,-73.503,-87.245,-101.503,-92.845,-44.855,-87.02,-89.421,-83.886,-101.217,-12.557,-253.472
0.5697755001019686,-99.051,-96.809,-243.132,53.583,-71.931,-103.04,-64.737,-32.882,-40.994,-54.875,-72.28,-109.885,-36.421,16.701,-65.5,-44.492,-54.231,39.247,-69.844,-86.645,-100.377,-91.215,-46.859,-88.983,-103.164,-80.728,-98.042,-12.032,-252.194
0.5848383000120521,-110.223,-107.471,-248.524,46.87,-82.106,-106.523,-64.672,-40.534,-52.224,-64.041,-81.429,-119.509,-48.168,-2.271,-75.681,-54.181,-72.62,15.642,-79.508,-97.83,-112.572,-103.932,-56.546,-104.263,-98.963,-89.869,-108.19,-12.02,-270.897
0.5849059000611305,-130.605,-124.782,-271.842,32.991,-93.807,-118.199,-44.115,-51.252,-59.344,-76.785,-94.667,-139.882,-55.292,-14.564,-95.073,-63.861,-82.281,11.528,-100.433,-114.126,-129.365,-120.734,-70.322,-117.479,-110.135,-108.734,-125.5,-21.23,-289.069
0.5998563000466675,-132.011,-127.731,-278.742,36.032,-94.737,-121.155,-51.244,-46.59,-54.674,-76.196,-94.573,-141.279,-53.188,-4.303,-99.589,-58.161,-72.465,26.373,-98.283,-114.524,-127.699,-122.15,-71.788,-119.923,-116.684,-115.798,-129.473,-31.967,-273.923
0.5999248999869451,-114.461,-112.234,-258.996,53.926,-84.397,-108.226,-53.242,-32.199,-45.397,-66.898,-82.695,-130.379,-46.987,5.947,-81.558,-43.759,-61.634,33.519,-78.717,-99.552,-113.739,-108.708,-57.372,-108.02,-100.174,-100.313,-114.486,-24.763,-255.719
0.6151597000425681,-110.76,-105.974,-246.954,62.582,-77.14,-104.019,-32.696,-31.654,-45.352,-66.319,-79.539,-133.835,-45.915,2.355,-76.354,-45.764,-62.085,31.949,-80.175,-95.867,-113.625,-105.013,-52.704,-99.715,-99.049,-92.015,-108.737,-20.64,-267.246
0.6152217000490054,-126.019,-118.676,-243.121,56.884,-83.723,-114.674,-43.422,-42.381,-55.041,-74.962,-91.242,-146.509,-54.066,-7.381,-98.819,-61.6,-69.195,29.867,-94.44,-108.578,-124.782,-116.691,-65.459,-111.398,-110.733,-106.268,-123.997,-37.013,-275.688
0.6298317000037059,-135.627,-129.828,-247.488,46.068,-96.447,-123.781,-68.481,-47.974,-62.158,-83.084,-103.446,-157.121,-66.308,-16.083,-113.065,-70.247,-77.835,24.202,-98.444,-118.204,-134.391,-125.284,-72.566,-124.607,-109.085,-116.408,-134.119,-43.124,-269.265
0.6298903001006693,-132.929,-128.161,-266.196,46.022,-95.326,-123.145,-54.068,-45.877,-60.046,-82.488,-100.781,-160.55,-65.729,-16.579,-103.73,-68.128,-78.782,21.104,-95.784,-114.499,-133.745,-123.109,-67.882,-119.359,-107.952,-110.656,-128.35,-27.711,-274.631
0.6449079000158235,-123.063,-120.348,-264.905,55.198,-84.472,-114.312,-37.62,-39.683,-51.277,-73.697,-89.922,-154.754,-54.392,-6.829,-91.331,-61.4,-69.482,26.718,-91.589,-103.626,-122.852,-115.814,-61.667,-108.993,-103.233,-101.324,-121.561,-21.536,-282.041
0.6599778000963852,-116.792,-112.543,-233.902,57.192,-83.363,-107.538,-53.464,-35.033,-46.615,-67.988,-85.221,-151.013,-49.727,4.449,-89.19,-54.166,-60.19,33.864,-81.764,-95.326,-119.143,-111.087,-54.945,-101.2,-84.687,-95.587,-119.391,-28.174,-270.488
0.660044000018388,-120.261,-109.357,-228.545,55.085,-83.279,-108.455,-67.243,-35.51,-50.667,-65.87,-81.038,-151.886,-47.628,14.691,-87.564,-47.452,-50.396,46.125,-71.436,-92.669,-119.024,-105.341,-48.743,-90.34,-76.917,-89.856,-117.734,-23.535,-254.336
0.6750010000541806,-116.555,-108.735,-253.419,60.666,-73.975,-103.736,-61.541,-32.913,-50.104,-59.657,-74.297,-148.148,-41.433,20.311,-79.28,-41.769,-42.661,53.252,-69.315,-90.015,-108.147,-98.575,-46.645,-86.664,-79.914,-86.18,-110.957,-8.143,-259.205
0.6750620000530034,-106.192,-105.04,-256.752,63.167,-70.827,-97.997,-39.45,-28.781,-43.394,-57.548,-72.685,-153.123,-42.416,9.532,-77.151,-43.264,-53.377,37.317,-73.345,-89.925,-106.502,-103.6,-50.184,-94.774,-84.445,-87.119,-107.772,-5.061,-272.266
0.689896900090389,-116.332,-110.571,-242.663,54.394,-79.465,-110.194,-20.967,-38.487,-48.474,-66.712,-79.785,-167.827,-51.595,-6.359,-89.882,-54.492,-69.718,26.521,-83.517,-99.569,-122.277,-115.792,-59.868,-102.876,-106.902,-96.253,-117.91,-31.696,-262.772
0.6899517000420019,-131.585,-126.342,-247.544,45.118,-85.021,-125.965,-42.976,-51.768,-58.671,-74.33,-86.878,-174.319,-54.105,-5.328,-102.087,-59.56,-67.599,35.204,-90.094,-105.105,-123.691,-116.188,-65.443,-108.409,-123.189,-105.891,-128.038,-50.619,-255.337
0.7051225000759587,-119.67,-123.141,-256.005,47.122,-80.325,-118.155,-75.208,-43.007,-54.002,-67.596,-81.155,-170.047,-47.391,3.899,-90.714,-50.279,-60.359,35.681,-81.807,-95.266,-112.809,-106.338,-57.693,-108.3,-103.598,-97.076,-117.664,-25.465,-279.672
0.7072828999953344,-107.255,-107.137,-249.089,54.247,-72.56,-104.204,-76.157,-27.595,-46.775,-58.819,-70.828,-170.389,-43.245,3.895,-73.205,-43.057,-63.885,27.961,-75.065,-90.56,-114.233,-105.72,-53.025,-104.093,-92.224,-86.732,-107.813,-10.071,-285.54
0.7200327999889851,-124.054,-117.276,-256.012,46.509,-76.074,-110.248,-74.544,-33.203,-52.364,-64.908,-76.905,-181.489,-50.374,-2.256,-81.329,-48.649,-69.968,25.883,-88.822,-102.764,-125.39,-116.885,-66.292,-112.699,-116.21,-104.064,-123.074,-37.213,-265.275
0.720097600016743,-139.299,-132.528,-275.224,40.314,-88.293,-122.945,-71.396,-41.879,-57.435,-75.089,-89.636,-192.578,-57.496,-5.328,-99.178,-57.31,-71.435,24.833,-99.492,-110.859,-133.461,-125.477,-76.984,-127.443,-127.365,-123.428,-138.32,-44.348,-278.329
0.7354412000859156,-134.549,-126.248,-270.85,52.057,-90.766,-124.871,-44.172,-41.324,-56.353,-75.526,-90.058,-197.509,-52.828,-4.298,-96.005,-58.277,-69.827,27.37,-93.757,-107.674,-134.865,-125.864,-71.784,-127.315,-112.893,-115.62,-134.596,-27.91,-296.494
0.7355017000809312,-133.902,-123.56,-256.235,45.857,-86.577,-127.82,-44.64,-49.48,-61.419,-78.524,-88.431,-202.435,-55.337,-5.831,-92.323,-59.243,-71.294,29.391,-94.688,-108.078,-132.169,-125.226,-68.638,-122.065,-113.805,-110.893,-131.9,-43.251,-278.267
0.7500630000140518,-133.256,-129.584,-257.516,26.344,-88.028,-128.717,-76.871,-53.529,-63.407,-80.495,-89.88,-206.331,-63.478,-3.775,-96.842,-60.209,-72.247,23.727,-97.155,-108.483,-129.475,-124.588,-70.106,-118.357,-123.425,-115.393,-131.768,-54.991,-264.156
0.7501259000273421,-121.852,-120.745,-257.258,45.273,-81.28,-115.781,-80.38,-35.032,-51.048,-64.021,-80.056,-199.977,-51.119,9.036,-85.474,-51.439,-63.978,29.338,-84.762,-99.665,-124.222,-116.267,-61.839,-103.381,-114.08,-104.519,-121.902,-36.493,-260.306
0.7650853000814095,-121.73,-113.964,-250.853,67.769,-71.464,-106.956,-55.197,-24.239,-41.776,-54.223,-73.828,-198.24,-37.748,13.125,-73.093,-43.703,-59.304,38.018,-79.042,-96.491,-119.487,-111.027,-55.118,-95.593,-103.719,-96.218,-117.682,-34.92,-257.484
0.7667879000073299,-132.367,-122.047,-252.652,51.308,-80.614,-116.583,-35.674,-40.609,-47.882,-70.563,-85.538,-213.411,-51.543,0.817,-86.34,-53.906,-68.978,26.197,-90.746,-107.153,-130.126,-121.162,-63.772,-114.966,-106.69,-111.491,-128.323,-41.545,-278.231
0.7801330999936908,-138.382,-125.511,-250.862,38.961,-92.317,-128.249,-25.392,-55.425,-58.592,-84.324,-95.186,-227.03,-64.299,-7.381,-100.598,-65.635,-77.618,14.388,-97.315,-116.268,-143.828,-131.8,-73.442,-128.683,-105.046,-125.212,-139.977,-34.331,-282.564
0.7951636000070721,-138.756,-122.312,-240.365,48.656,-88.126,-131.195,-43.81,-51.783,-59.558,-83.215,-94.578,-228.339,-60.136,-5.837,-95.375,-60.958,-72.93,18.984,-93.12,-110.516,-139.074,-128.082,-70.294,-119.333,-99.818,-122.525,-140.35,-42.493,-253.592
0.7952344000805169,-129.396,-117.067,-233.465,49.119,-81.89,-124.404,-56.574,-40.461,-49.253,-80.571,-88.848,-225.55,-53.928,-1.732,-89.132,-51.164,-65.172,25.113,-88.416,-98.623,-127.664,-118.22,-61.515,-108.967,-104.329,-110.619,-126.889,-45.525,-253.338
0.7952780000632629,-115.947,-107.216,-229.133,45.484,-78.735,-110.959,-33.976,-31.199,-43.568,-70.756,-80.563,-221.738,-47.727,3.393,-86.481,-45.477,-64.083,27.137,-86.278,-95.962,-124.975,-113.491,-59.404,-102.711,-109.347,-99.238,-117.541,-27.548,-257.696
0.810130099998787,-117.88,-109.158,-230.953,44.926,-76.094,-106.75,-50.848,-29.118,-48.135,-63.001,-78.433,-223.565,-45.63,-1.734,-79.735,-45.432,-72.215,20.45,-86.192,-104.576,-127.411,-115.939,-63.956,-100.046,-109.75,-102.213,-123.059,-31.619,-233.872
0.8250360999954864,-122.373,-117.245,-239.943,41.808,-76.531,-111.766,-83.072,-33.188,-50.136,-68.061,-82.965,-232.563,-53.269,-14.028,-75.556,-48.972,-78.291,11.72,-89.692,-106.008,-128.309,-121.971,-65.429,-109.68,-105.03,-112.869,-125.497,-43.371,-249.52
0.8250919000711292,-112.517,-112.005,-239.703,46.889,-74.917,-112.167,-50.202,-39.814,-47.525,-70.042,-79.808,-234.892,-53.216,-9.915,-72.407,-47.899,-72.065,21.442,-91.651,-98.73,-126.643,-122.361,-64.339,-114.693,-94.679,-110.194,-118.712,-33.081,-274.373
0.8401799000566825,-112.404,-108.819,-233.316,55.039,-75.867,-111.542,-17.364,-48.996,-49.014,-66.898,-77.167,-234.657,-48.039,1.878,-68.748,-44.777,-66.87,33.716,-90.023,-99.143,-126.004,-117.628,-63.25,-104.333,-92.023,-104.449,-118.081,-38.684,-241.311
0.8402416000608355,-119.976,-115.883,-235.644,45.25,-83.476,-115.529,-49.622,-47.41,-47.94,-68.88,-81.188,-241.595,-51.065,-1.198,-69.704,-47.294,-70.389,27.535,-84.297,-102.118,-128.952,-117.51,-59.088,-97.568,-96.029,-103.832,-119.5,-55.039,-234.41
0.8555016000755131,-114.221,-113.718,-238.995,35.983,-78.269,-111.315,-71.601,-33.531,-41.745,-63.689,-75.984,-240.841,-47.428,-3.758,-66.048,-43.148,-67.757,23.409,-78.065,-91.77,-125.237,-115.856,-54.418,-101.057,-93.371,-99.63,-114.257,-38.59,-266.451
0.8555643000872806,-104.885,-107.456,-240.293,44.656,-63.846,-100.445,-50.013,-26.837,-38.629,-54.403,-65.15,-231.379,-39.696,5.467,-55.224,-31.834,-61.542,32.095,-75.938,-84.506,-115.89,-109.592,-56.413,-98.907,-93.278,-94.407,-109.532,-25.744,-262.086
0.8700656000291929,-105.293,-110.423,-242.102,51.784,-64.295,-98.808,-48.426,-27.835,-36.541,-55.374,-63.548,-234.734,-42.218,9.048,-52.095,-32.314,-63.529,33.087,-77.911,-91.081,-117.824,-111.532,-59.43,-93.172,-99.845,-98.411,-109.935,-44.673,-229.036
0.870126000023447,-109.798,-112.874,-236.736,48.146,-70.89,-105.881,-42.23,-28.319,-38.042,-58.392,-69.119,-242.696,-44.737,1.354,-55.117,-38.942,-71.663,23.833,-81.932,-96.625,-127.44,-120.642,-62.445,-98.715,-100.77,-105.485,-114.436,-54.362,-244.176
0.8851120000472292,-115.324,-106.613,-234.963,55.27,-70.819,-106.288,-17.597,-28.291,-43.127,-57.821,-74.173,-243.99,-42.643,-7.356,-49.938,-39.416,-80.813,13.05,-84.411,-94.48,-127.312,-121.546,-64.431,-106.3,-97.595,-106.404,-118.932,-38.939,-263.912
0.8851675000041723,-107.524,-92.674,-235.24,77.757,-66.138,-96.448,-12.456,-22.115,-35.399,-53.153,-65.902,-244.771,-41.576,-1.714,-38.618,-33.741,-78.683,16.111,-78.692,-91.311,-116.939,-112.715,-55.658,-95.948,-93.399,-93.49,-107.542,-16.871,-238.033
0.9001973000122234,-90.51,-79.262,-216.562,89.974,-58.387,-85.593,-21.153,-9.285,-21.019,-44.39,-52.516,-241.452,-36.411,11.096,-32.431,-27.047,-64.259,28.903,-71.441,-84.048,-110.162,-103.893,-48.43,-83.044,-86.133,-78.54,-91.553,-7.12,-210.13
0.9002635000506416,-95.543,-83.281,-200.976,83.737,-56.792,-87.044,-33.939,-9.276,-25.096,-47.42,-57.587,-240.186,-33.813,8.523,-36.497,-29.581,-64.707,24.263,-75.98,-83.451,-117.224,-107.375,-58.628,-92.183,-88.096,-86.658,-99.146,-17.359,-212.994
0.9152190000750124,-109.792,-92.931,-211.534,77.505,-62.37,-94.642,-51.324,-19.0,-34.293,-56.082,-67.775,-249.68,-40.439,-1.219,-41.584,-38.261,-73.352,15.53,-82.052,-91.052,-126.328,-117.002,-63.692,-100.8,-92.107,-101.941,-114.929,-25.539,-227.125
0.9152849999954924,-97.386,-80.543,-211.322,81.526,-57.697,-90.449,-47.174,-15.908,-25.037,-45.267,-54.9,-244.819,-33.227,12.614,-28.735,-27.977,-59.446,38.056,-68.137,-81.228,-113.907,-107.151,-47.234,-81.744,-71.01,-87.494,-103.031,-5.533,-224.337
0.9303009000141174,-80.383,-64.581,-197.791,89.129,-49.443,-82.674,-16.389,-9.232,-12.717,-32.926,-42.037,-226.644,-16.287,31.557,-6.164,-8.481,-44.53,55.436,-52.7,-61.679,-95.35,-88.088,-36.429,-65.78,-42.25,-63.84,-81.411,13.94,-204.645
0.9451930000213906,-92.086,-75.275,-210.913,84.429,-57.078,-92.837,6.169,-18.444,-20.389,-46.213,-52.754,-233.077,-21.906,24.353,-8.207,-14.62,-56.268,35.913,-62.381,-69.302,-103.451,-97.222,-48.688,-84.67,-50.917,-75.047,-89.526,-1.443,-202.391
0.9452546000247821,-111.974,-97.229,-233.243,65.902,-70.853,-108.626,-11.768,-38.406,-40.86,-63.586,-69.095,-255.385,-41.352,8.96,-30.229,-38.172,-70.044,21.532,-81.786,-91.774,-125.377,-120.691,-62.471,-107.127,-83.141,-100.588,-114.54,-33.205,-222.681
0.9452967999968678,-113.398,-104.304,-229.936,60.713,-70.782,-104.931,-44.031,-39.392,-45.943,-58.399,-70.05,-256.667,-43.872,8.438,-35.834,-43.769,-68.95,26.122,-85.803,-94.756,-126.789,-121.082,-63.433,-99.847,-98.427,-98.95,-117.499,-44.442,-230.655
0.9603095999918878,-100.477,-93.953,-218.436,78.071,-59.441,-88.432,-53.209,-16.811,-28.991,-43.484,-58.197,-246.676,-32.045,14.065,-19.916,-30.405,-66.832,25.071,-76.496,-83.903,-112.829,-107.129,-57.735,-84.891,-92.181,-83.482,-102.012,-31.078,-221.715
0.9603745000204071,-94.229,-83.101,-219.242,85.165,-51.696,-80.147,-30.102,-3.474,-17.179,-38.317,-50.455,-242.331,-23.816,20.711,-9.138,-22.178,-61.129,28.12,-68.222,-76.646,-107.594,-104.46,-52.042,-85.83,-87.99,-79.812,-98.324,-15.677,-225.08
0.9753098000073805,-105.406,-88.653,-232.343,70.735,-57.792,-87.751,-19.313,-14.741,-23.309,-44.939,-58.601,-245.163,-29.94,22.227,-15.276,-30.353,-57.482,34.751,-69.691,-80.668,-116.707,-110.504,-53.014,-97.015,-87.39,-88.442,-108.984,-18.223,-242.785
0.9753746000351384,-119.645,-105.471,-242.356,66.566,-71.055,-102.008,-11.097,-28.559,-34.556,-56.677,-72.375,-256.701,-47.841,11.447,-26.532,-45.179,-69.72,27.032,-81.917,-93.395,-129.398,-118.078,-64.232,-107.677,-83.204,-101.161,-120.658,-35.111,-240.493
0.9914034000830725,-120.55,-108.439,-226.233,77.77,-74.057,-107.029,0.697,-30.067,-40.157,-64.817,-77.425,-266.178,-59.064,3.751,-30.092,-51.282,-75.798,23.419,-91.569,-101.499,-131.318,-124.107,-71.34,-109.618,-85.17,-105.671,-123.611,-46.347,-207.465
0.9914829999906942,-113.257,-95.011,-203.977,83.84,-66.811,-101.799,-6.988,-19.279,-33.457,-60.654,-72.225,-258.739,-54.907,12.968,-20.328,-45.595,-62.402,34.666,-84.817,-94.225,-122.99,-119.372,-63.072,-95.164,-90.721,-93.27,-112.729,-38.616,-186.765
1.0053579000523314,-104.435,-86.719,-213.507,85.805,-60.597,-95.037,-16.715,-9.013,-22.665,-50.859,-61.394,-247.21,-47.679,22.177,-8.012,-36.84,-56.192,38.218,-70.9,-86.446,-116.207,-106.445,-52.762,-84.31,-79.871,-79.344,-100.321,-20.134,-215.268
1.005428500007838,-101.256,-89.194,-232.249,86.232,-60.536,-91.868,-22.846,-15.664,-26.229,-50.296,-58.771,-248.5,-49.169,16.519,-6.979,-37.828,-64.845,28.446,-72.366,-90.458,-116.603,-103.777,-55.271,-91.398,-66.471,-81.314,-104.832,-9.868,-247.328
1.0203960000071675,-109.352,-94.228,-232.017,78.973,-64.062,-94.85,-33.581,-27.944,-37.986,-56.906,-66.909,-252.35,-53.218,8.818,-12.095,-45.987,-71.44,25.343,-83.564,-96.003,-121.097,-112.383,-62.901,-98.479,-76.651,-88.917,-111.899,-17.543,-242.47
1.0343594000441954,-110.78,-95.158,-232.809,72.747,-65.022,-100.903,-18.179,-29.453,-37.435,-54.288,-66.843,-245.949,-50.603,11.371,-13.62,-45.429,-72.393,29.417,-80.919,-93.346,-122.001,-115.857,-63.35,-98.381,-88.358,-90.877,-108.201,-32.894,-215.587
1.0344264000887051,-100.423,-90.452,-235.138,72.162,-62.396,-96.192,-0.23,-29.424,-30.226,-47.061,-54.993,-236.994,-42.356,16.995,-11.557,-35.137,-67.198,31.436,-72.641,-88.129,-117.268,-111.13,-59.7,-97.258,-82.634,-89.25,-105.019,-35.423,-205.638
1.0494211000623181,-97.761,-83.702,-229.267,70.552,-61.821,-92.509,-25.332,-29.394,-30.195,-49.063,-53.401,-235.733,-39.752,15.953,-10.521,-32.541,-61.495,27.306,-75.643,-85.479,-112.54,-107.945,-57.592,-88.451,-81.527,-85.062,-104.914,-20.531,-221.826
1.0494836000725627,-100.737,-80.032,-229.038,73.556,-62.784,-100.101,-46.312,-22.705,-31.19,-53.625,-61.032,-234.985,-42.786,11.327,-9.998,-38.656,-67.069,22.156,-77.616,-84.369,-114.989,-107.325,-57.534,-80.678,-88.105,-80.878,-99.174,-8.215,-231.338
1.0643463000888005,-102.685,-84.05,-230.346,78.093,-65.282,-102.563,-29.359,-23.194,-32.183,-55.62,-65.582,-236.799,-47.866,5.168,-14.599,-43.228,-74.175,22.134,-79.076,-90.945,-122.559,-110.804,-63.112,-93.918,-83.406,-85.921,-102.148,-18.965,-212.664
1.064405900076963,-116.415,-97.286,-224.48,69.818,-72.39,-100.923,-15.498,-33.93,-36.762,-62.737,-70.639,-246.296,-58.064,-2.522,-23.294,-50.869,-73.588,22.624,-90.267,-102.125,-130.633,-118.89,-71.246,-111.242,-78.712,-98.13,-119.465,-40.463,-202.717
1.0793628999963403,-125.008,-104.361,-226.305,61.551,-76.416,-105.433,-22.654,-35.433,-37.75,-66.773,-73.642,-245.537,-62.105,-6.618,-23.783,-56.454,-75.564,19.528,-94.275,-102.535,-132.552,-123.894,-73.224,-107.545,-85.806,-101.618,-125.493,-41.447,-225.056
1.081088500097394,-110.026,-92.986,-228.128,68.662,-69.679,-99.18,-42.099,-25.151,-29.003,-54.411,-65.884,-230.947,-49.747,3.635,-12.488,-49.737,-73.439,21.045,-80.349,-91.674,-123.198,-117.622,-65.978,-93.093,-84.695,-90.246,-112.047,-24.499,-232.003
1.094469100004062,-103.768,-87.258,-224.314,69.618,-66.536,-86.785,-47.18,-17.954,-22.314,-46.159,-62.232,-227.642,-42.013,16.439,-8.89,-45.589,-62.095,30.758,-75.145,-88.508,-120.513,-111.869,-60.277,-88.901,-75.901,-84.52,-107.837,-25.5,-217.427
1.094535700045526,-119.034,-97.416,-235.36,60.327,-74.666,-95.408,-14.346,-24.596,-30.488,-57.896,-70.879,-234.075,-53.242,10.275,-21.688,-55.277,-63.057,33.289,-85.316,-97.129,-130.638,-120.467,-65.852,-94.448,-83.51,-94.682,-120.025,-38.282,-226.943
1.1098693000385538,-123.013,-98.344,-243.834,58.73,-75.616,-106.071,9.235,-37.891,-41.729,-66.035,-74.394,-232.816,-59.336,-2.031,-24.741,-61.37,-72.216,23.009,-90.354,-102.155,-134.094,-126.494,-71.421,-96.402,-89.062,-97.149,-124.003,-26.973,-243.622
1.1099374000914395,-114.181,-89.024,-228.221,62.769,-67.856,-97.768,-10.754,-37.853,-34.514,-59.309,-68.172,-225.923,-51.08,5.143,-9.347,-58.235,-69.07,15.302,-85.141,-96.418,-126.275,-117.146,-65.202,-94.257,-69.505,-85.268,-114.145,-14.65,-223.911
1.1244116000598297,-113.042,-92.521,-222.87,61.17,-69.325,-96.133,-24.064,-29.106,-27.82,-55.151,-64.518,-221.087,-49.492,15.897,-7.8,-56.127,-64.902,18.872,-81.469,-94.272,-127.174,-114.979,-62.575,-98.261,-57.652,-85.695,-114.031,-30.517,-194.998
1.124472500057891,-119.589,-100.625,-236.479,54.448,-77.452,-106.283,-20.966,-35.225,-38.038,-61.756,-69.576,-221.378,-55.59,6.659,-23.674,-62.219,-69.448,25.001,-87.536,-101.862,-137.293,-128.697,-70.198,-105.335,-77.063,-98.417,-125.188,-44.319,-208.123
1.1395006000529975,-121.518,-97.451,-232.656,49.271,-75.326,-103.103,-21.969,-43.899,-40.049,-63.744,-72.068,-222.693,-56.559,-1.032,-23.138,-68.304,-70.915,27.538,-91.547,-102.273,-137.668,-130.105,-70.127,-100.619,-93.379,-97.807,-125.063,-33.516,-236.604
1.1413652000483125,-109.102,-90.693,-217.567,61.005,-64.492,-91.217,-8.115,-32.072,-24.64,-52.409,-62.775,-210.688,-49.842,6.654,-9.283,-59.527,-64.185,28.022,-82.746,-90.387,-126.259,-118.192,-61.86,-90.272,-87.138,-86.95,-112.13,-19.65,-220.486
1.1546098000835627,-99.259,-88.041,-221.96,73.751,-57.255,-84.978,0.09,-21.793,-18.468,-44.16,-53.491,-196.645,-44.67,9.209,-4.15,-50.246,-61.047,25.433,-77.54,-85.686,-119.473,-114.488,-61.286,-92.743,-84.49,-83.277,-106.382,-18.606,-190.039
1.154668700066395,-113.504,-91.539,-235.058,56.771,-62.321,-90.529,-29.112,-33.555,-24.085,-51.8,-61.122,-204.133,-48.723,3.564,-8.245,-61.466,-63.547,22.846,-85.659,-91.748,-125.501,-116.422,-66.86,-100.848,-82.356,-85.243,-110.887,-24.223,-210.854
1.1695805999916047,-121.587,-97.595,-239.434,39.809,-69.943,-98.635,-55.21,-38.644,-23.548,-56.359,-66.696,-208.027,-52.261,11.245,-9.773,-67.04,-60.41,28.971,-83.012,-90.632,-128.449,-112.72,-65.256,-96.648,-64.855,-83.621,-111.8,-21.637,-238.308
1.1696458000224084,-102.51,-94.936,-240.731,53.089,-63.726,-87.266,-44.909,-24.261,-16.353,-42.471,-53.822,-191.937,-41.962,22.505,0.483,-53.653,-51.128,36.114,-71.146,-84.394,-119.099,-108.509,-60.068,-90.916,-58.642,-75.341,-105.029,-11.882,-223.725
1.1845134000759572,-97.797,-90.231,-247.663,59.183,-59.563,-75.907,-19.249,-26.286,-17.873,-38.842,-49.669,-186.11,-37.31,17.871,7.142,-54.624,-50.564,30.955,-76.71,-86.871,-116.931,-110.449,-60.52,-96.461,-77.539,-72.704,-102.362,-11.358,-220.427
1.1997263000812382,-114.093,-100.387,-250.489,41.193,-70.262,-94.787,-1.811,-46.752,-30.663,-54.685,-64.476,-196.682,-49.568,8.632,-5.673,-69.938,-59.735,25.801,-86.368,-93.956,-126.548,-113.413,-64.046,-99.95,-83.097,-79.803,-107.895,-21.08,-229.94
1.1997987000504509,-109.881,-105.922,-242.042,40.64,-70.192,-102.889,-3.858,-43.631,-30.12,-54.63,-64.412,-191.363,-50.03,14.771,-10.79,-63.721,-57.626,35.509,-73.986,-88.739,-124.885,-110.225,-60.908,-94.215,-66.62,-78.699,-107.275,-22.084,-205.632
1.2146676999982446,-90.815,-87.885,-239.75,61.604,-56.802,-74.097,-15.125,-21.558,-11.134,-34.595,-44.88,-173.24,-32.05,24.49,8.176,-48.8,-44.761,44.183,-63.153,-76.867,-110.927,-101.406,-52.138,-91.559,-65.017,-66.837,-97.946,-10.278,-195.693
1.2147358000511304,-84.065,-73.965,-243.609,73.325,-54.184,-59.166,-24.332,-13.852,-2.414,-23.802,-36.126,-165.895,-24.333,20.879,9.705,-50.288,-44.716,33.892,-70.262,-75.766,-108.255,-99.768,-52.598,-91.468,-80.833,-65.746,-94.774,-1.559,-220.088
1.230005000019446,-87.054,-79.526,-231.582,69.666,-57.716,-68.841,-29.43,-14.863,-8.559,-28.902,-44.799,-169.827,-33.53,8.563,-12.846,-58.947,-63.115,14.903,-81.463,-85.424,-120.442,-110.939,-63.816,-91.376,-85.363,-74.389,-97.753,-8.73,-215.769
1.2300713000586256,-94.14,-83.545,-217.519,59.862,-58.682,-71.846,-10.445,-16.385,-12.137,-37.582,-53.976,-176.83,-43.743,-1.179,-24.104,-68.622,-75.859,6.179,-88.042,-91.486,-128.006,-115.951,-69.388,-98.97,-77.081,-75.852,-101.242,-21.016,-202.233
1.2446362000191584,-91.996,-77.314,-220.375,60.315,-57.087,-70.237,18.766,-18.93,-10.076,-37.032,-51.36,-175.116,-41.65,-2.203,-18.957,-67.017,-65.537,19.493,-80.781,-83.198,-117.632,-100.466,-59.585,-95.797,-70.856,-67.067,-98.067,-13.311,-212.277
1.2447020000545308,-71.924,-63.916,-220.667,77.161,-46.271,-61.97,7.989,-9.177,-2.381,-20.601,-36.964,-159.059,-27.264,13.169,-2.544,-47.482,-46.516,37.916,-62.257,-65.184,-99.584,-82.434,-44.156,-71.622,-67.711,-50.093,-81.062,7.195,-194.134
1.2596153999911621,-67.242,-59.242,-222.495,78.62,-40.59,-54.223,-20.196,-2.508,0.183,-18.531,-34.366,-152.24,-24.675,23.914,7.192,-41.287,-45.445,33.268,-59.634,-63.582,-99.996,-85.426,-44.112,-67.452,-65.594,-44.92,-73.809,10.262,-169.862
1.259678200003691,-93.302,-76.089,-241.228,50.877,-57.455,-75.686,-21.712,-25.047,-21.846,-46.178,-52.262,-169.507,-43.605,10.57,-17.406,-61.738,-58.207,24.525,-79.042,-84.523,-118.852,-103.783,-60.461,-90.951,-78.849,-62.806,-95.252,-7.167,-201.967
1.2747811001027003,-101.918,-86.771,-245.598,42.117,-65.082,-90.979,-17.08,-40.904,-32.071,-51.254,-57.845,-177.534,-49.197,2.363,-34.807,-67.824,-55.588,34.747,-83.573,-90.586,-122.831,-109.827,-63.987,-93.422,-91.065,-70.428,-103.866,-12.795,-230.454
1.274845500010997,-75.688,-66.192,-233.569,64.104,-46.062,-62.199,-15.014,-19.346,-5.911,-20.977,-37.295,-153.79,-27.631,16.705,-8.644,-47.776,-41.187,43.421,-65.559,-68.466,-105.802,-91.787,-44.455,-74.885,-64.334,-51.402,-80.196,7.197,-204.609
1.289767500013113,-65.366,-52.293,-236.409,66.089,-37.307,-46.768,2.932,-7.544,1.78,-13.271,-28.036,-137.755,-19.407,17.713,4.684,-40.043,-40.634,38.767,-58.321,-59.688,-98.012,-81.961,-38.776,-76.347,-31.482,-43.666,-71.919,21.535,-186.473
1.304676300031133,-81.695,-62.487,-241.808,46.555,-46.491,-66.189,2.929,-26.491,-19.227,-30.164,-41.328,-154.523,-33.732,2.838,-14.276,-51.787,-48.79,35.654,-69.021,-74.486,-105.599,-93.662,-54.618,-88.054,-46.82,-56.942,-86.704,6.656,-194.484
1.3047345000086352,-78.539,-62.937,-230.296,51.632,-46.444,-66.635,-23.201,-29.026,-15.621,-28.085,-40.262,-157.443,-34.723,5.397,-15.799,-52.247,-44.643,37.668,-66.391,-72.362,-102.419,-93.569,-55.076,-76.183,-73.925,-53.299,-82.007,-6.158,-185.58
1.304789200075902,-55.919,-49.554,-219.307,68.999,-38.201,-50.687,-19.08,-11.067,3.35,-12.688,-21.779,-134.231,-16.757,23.834,2.148,-35.289,-31.791,45.827,-47.881,-51.797,-88.997,-75.544,-37.602,-54.59,-60.532,-31.729,-62.969,9.217,-168.488
1.3197446000995114,-58.425,-52.066,-225.235,57.659,-41.237,-55.759,9.116,-12.08,1.297,-13.7,-23.294,-130.511,-10.08,31.495,4.195,-29.618,-26.636,50.905,-46.809,-51.745,-91.982,-77.006,-39.102,-60.17,-48.176,-31.185,-66.492,16.893,-181.64
1.3198039000853896,-77.322,-66.871,-248.576,35.06,-52.978,-67.486,0.398,-27.437,-11.512,-26.493,-40.177,-146.262,-23.39,21.218,-14.764,-44.958,-35.831,36.509,-62.131,-66.038,-106.234,-95.372,-56.481,-89.824,-68.107,-54.208,-83.332,-0.03,-213.733
1.3348835000069812,-73.146,-70.903,-262.16,36.562,-53.438,-64.857,-24.193,-26.385,-15.087,-30.565,-38.087,-143.554,-30.027,10.438,-35.242,-52.085,-43.992,29.813,-60.532,-63.923,-105.616,-92.715,-53.863,-91.784,-84.945,-60.813,-84.273,-9.764,-214.544
1.3349470000248402,-53.605,-56.999,-235.77,50.357,-37.503,-50.448,-10.337,-13.551,-4.313,-15.166,-19.606,-127.529,-13.603,22.211,-25.985,-31.028,-34.214,53.349,-41.004,-45.928,-89.116,-69.056,-31.268,-58.904,-76.664,-40.26,-66.771,-7.705,-181.542
1.3498968000058085,-47.404,-45.159,-211.456,53.381,-28.756,-36.565,6.067,-6.365,8.499,-1.318,-12.927,-118.18,-0.782,35.508,-3.418,-16.14,-21.372,60.468,-36.864,-37.685,-80.83,-62.839,-27.138,-48.599,-52.508,-29.462,-59.019,-10.259,-158.819
1.349964400054887,-61.701,-57.41,-230.712,41.032,-42.047,-44.213,-23.652,-17.117,-5.342,-15.661,-26.746,-126.771,-16.663,18.567,-18.784,-36.104,-35.183,30.694,-55.783,-53.529,-98.168,-84.805,-49.652,-80.826,-42.21,-50.949,-77.403,-11.786,-190.936
1.365219600033015,-81.107,-76.308,-255.585,23.573,-56.862,-65.686,-44.633,-39.13,-29.927,-35.626,-42.089,-146.112,-36.114,0.105,-45.917,-55.536,-52.566,19.904,-69.559,-70.894,-116.513,-99.578,-60.361,-98.676,-65.734,-70.878,-93.72,-13.311,-222.508
1.3798247000668198,-77.952,-71.108,-255.841,22.525,-52.707,-66.132,-11.801,-42.164,-26.311,-29.443,-34.874,-142.892,-28.393,12.913,-30.502,-43.185,-38.169,41.914,-57.707,-60.577,-102.564,-83.596,-45.444,-77.06,-85.648,-54.413,-79.794,-18.42,-203.33
1.3798837000504136,-54.308,-54.131,-245.852,38.384,-40.359,-48.648,20.998,-27.778,-10.916,-11.995,-16.909,-119.695,-11.458,28.269,-3.831,-24.699,-23.274,50.069,-38.694,-41.049,-79.92,-65.582,-32.591,-57.515,-67.632,-30.28,-61.783,-16.865,-174.95
1.3949036000994965,-50.668,-53.564,-235.36,42.444,-36.22,-41.427,8.17,-25.188,-10.905,-7.884,-15.867,-117.527,-11.959,24.655,-3.828,-23.649,-30.423,42.846,-38.143,-42.033,-84.963,-68.59,-36.144,-64.63,-49.121,-35.373,-64.795,-17.873,-170.676
1.3966331999981776,-65.986,-62.22,-237.686,29.593,-41.819,-47.021,-13.868,-31.311,-14.992,-13.512,-25.073,-129.192,-19.632,17.458,-10.484,-31.31,-31.929,48.439,-48.863,-49.163,-96.661,-76.206,-40.719,-76.861,-67.515,-48.146,-74.976,-28.613,-185.362
1.4100591000169516,-73.093,-65.744,-257.428,19.318,-48.437,-53.634,-18.977,-33.841,-18.051,-19.646,-31.195,-133.674,-26.272,7.194,-15.084,-41.525,-32.41,47.366,-56.499,-55.774,-100.151,-81.253,-46.314,-78.833,-91.013,-47.585,-80.537,-33.196,-202.083
1.4101263000629842,-75.581,-66.191,-265.88,15.712,-51.975,-57.166,-13.323,-38.93,-22.132,-24.237,-37.312,-139.175,-30.344,-3.572,-22.754,-47.119,-44.673,27.338,-63.102,-67.501,-106.71,-87.32,-51.39,-78.754,-78.627,-50.099,-84.555,-31.113,-197.27
1.4250626000575721,-71.407,-56.391,-252.806,19.283,-48.849,-50.449,-9.723,-34.28,-13.913,-19.602,-33.176,-133.401,-21.605,7.19,-17.608,-38.875,-37.456,29.36,-56.891,-62.31,-102.505,-81.597,-43.654,-73.553,-45.761,-46.463,-80.372,-21.86,-178.118
1.425140600069426,-59.04,-43.014,-242.82,31.559,-41.628,-38.103,-19.959,-19.389,-3.652,-10.361,-20.847,-117.898,-10.825,23.065,-6.319,-30.639,-22.049,47.262,-45.052,-47.391,-89.083,-73.831,-34.389,-64.77,-33.42,-33.096,-71.582,-7.494,-178.964
1.439982800045982,-64.104,-49.119,-248.212,26.916,-43.636,-42.676,-21.989,-29.104,-15.432,-17.523,-27.487,-127.514,-24.646,5.111,-17.071,-39.83,-38.421,35.431,-53.716,-58.615,-98.215,-83.491,-43.576,-68.291,-63.1,-40.748,-74.072,-18.757,-187.494
1.4400654000928625,-71.212,-57.267,-264.358,9.983,-50.252,-54.929,9.796,-54.178,-31.81,-31.338,-39.242,-141.731,-40.503,-21.534,-28.325,-47.475,-51.702,18.49,-63.396,-68.802,-106.314,-88.018,-49.168,-72.321,-80.455,-51.466,-78.609,-43.329,-171.938
1.4550854000262916,-49.112,-41.328,-263.069,15.609,-38.931,-43.603,24.131,-49.0,-22.045,-18.499,-21.272,-121.097,-25.606,-7.68,-10.366,-32.57,-34.232,31.791,-45.402,-44.655,-82.129,-65.901,-30.676,-53.806,-61.42,-28.36,-62.136,-36.114,-156.397
1.4567270000698045,-29.595,-28.991,-243.338,29.426,-23.01,-24.092,-8.168,-26.41,-4.604,3.549,-2.808,-99.459,-2.526,16.918,10.649,-10.509,-21.39,42.006,-25.889,-24.63,-63.092,-48.929,-18.35,-34.285,-49.063,-5.79,-42.607,-16.098,-164.437
1.4700429000658914,-33.664,-37.671,-248.73,21.711,-26.061,-28.678,-30.189,-24.847,-7.161,2.009,-6.391,-101.921,-2.524,14.852,6.54,-6.4,-20.857,35.304,-28.937,-29.729,-70.713,-54.515,-23.967,-39.886,-53.112,-11.932,-44.101,-18.131,-173.494
1.4701073000906035,-36.704,-44.294,-272.56,7.857,-32.695,-38.896,2.628,-36.093,-13.302,-4.653,-8.946,-99.77,-9.181,9.714,-4.738,-13.053,-18.787,37.318,-35.568,-35.334,-77.302,-60.608,-23.943,-48.555,-47.936,-18.068,-50.717,-28.359,-172.296
1.4861746000824496,-33.594,-42.713,-271.263,0.677,-29.589,-32.709,35.414,-41.692,-8.678,2.011,-5.351,-95.06,-6.61,11.753,-6.782,-12.528,-21.329,45.477,-34.507,-35.811,-75.688,-56.962,-19.821,-44.92,-41.74,-16.001,-48.617,-34.478,-165.976
1.486241600010544,-29.462,-33.448,-259.208,4.263,-22.899,-19.357,3.103,-33.965,-2.521,10.206,-1.247,-93.94,2.105,11.742,-1.652,-4.318,-18.234,47.993,-27.301,-29.628,-68.952,-50.245,-18.776,-40.265,-39.649,-10.862,-42.933,-29.32,-158.638
1.5001229000044987,-15.088,-17.021,-252.289,19.628,-11.093,-6.017,-5.097,-14.976,4.654,17.881,9.0,-81.038,12.349,18.39,3.473,4.395,-6.945,51.531,-19.076,-14.229,-58.125,-43.534,-12.61,-32.027,-29.364,-1.629,-32.644,-10.336,-156.43
1.500189800048247,-9.949,-13.418,-239.229,17.559,-5.447,-1.4,27.695,-15.473,6.698,18.887,8.479,-77.371,10.8,19.396,-1.142,2.854,-14.111,46.357,-24.18,-15.239,-62.165,-46.565,-12.085,-25.848,-31.383,-3.165,-31.074,-10.325,-148.589
1.515148700098507,-22.235,-24.163,-239.502,-2.951,-14.663,-13.694,26.131,-35.95,-4.067,6.573,-5.874,-93.175,-3.555,0.934,-10.874,-9.444,-26.392,34.527,-36.452,-31.106,-74.911,-55.74,-23.343,-36.58,-50.307,-15.969,-43.338,-32.344,-131.534
1.51696720009204,-20.163,-20.553,-258.218,1.15,-15.673,-14.705,-6.171,-29.767,-4.575,6.054,-0.233,-90.008,-2.015,-0.604,-3.691,-7.386,-14.07,40.128,-27.194,-23.902,-65.102,-47.999,-19.734,-38.593,-46.671,-10.83,-40.734,-34.361,-133.452
1.5302100999979302,-1.188,-6.187,-256.935,16.518,-0.8,4.265,2.032,-8.22,10.286,22.954,15.136,-67.889,14.893,20.401,10.145,11.577,4.387,55.97,-7.186,-0.824,-45.569,-29.508,-3.833,-18.062,-23.058,5.575,-18.664,-25.618,-146.126
1.5302775000454858,0.863,-7.206,-237.723,2.67,0.738,7.334,34.818,-20.507,5.153,21.907,11.023,-66.796,13.854,18.331,6.036,13.102,2.333,54.377,-7.692,-0.311,-46.548,-29.991,-4.853,-13.946,-26.621,6.081,-18.133,-37.375,-136.246
1.5452286000363529,-11.434,-14.883,-229.288,-14.751,-7.972,-5.481,22.488,-39.954,-10.221,7.54,3.839,-75.439,2.057,2.944,-3.704,0.282,-7.915,43.564,-17.418,-11.069,-52.137,-39.183,-12.533,-27.764,-46.575,-2.122,-31.947,-49.633,-124.839
1.5601749999914318,-5.787,-5.134,-234.182,-5.515,1.257,3.746,-6.224,-25.57,-2.014,15.73,14.594,-63.58,11.276,12.162,4.497,11.04,-4.833,46.594,-12.277,-1.324,-45.425,-31.459,-7.398,-20.051,-31.159,1.979,-21.156,-40.874,-124.714
1.5602347000967711,16.248,16.9,-234.973,13.446,21.236,29.87,25.033,-5.564,17.968,42.354,32.51,-37.389,35.344,31.106,21.911,34.083,9.516,59.868,4.129,19.681,-31.547,-16.57,6.954,2.51,1.66,16.322,0.894,-30.075,-106.146
1.57521770009771,28.015,27.641,-221.418,17.531,25.313,37.525,41.914,-5.559,23.073,52.045,41.187,-26.081,44.53,33.636,29.061,38.147,14.63,62.882,13.346,25.297,-23.319,-14.505,15.144,9.168,11.905,25.527,3.967,-29.02,-86.06
1.5752767000813037,19.278,21.978,-208.388,4.193,17.603,26.217,9.597,-13.75,11.779,35.6,29.363,-36.813,30.653,19.77,19.298,26.326,3.857,55.646,5.648,15.538,-30.468,-19.613,8.469,3.011,-9.624,19.354,-1.672,-36.164,-98.782
1.5902519000228494,13.623,19.907,-209.717,-8.106,15.024,19.531,3.952,-25.007,1.521,22.244,17.038,-45.998,16.79,2.844,8.008,17.078,-3.832,53.029,-4.603,9.887,-36.585,-20.106,1.289,0.446,-23.447,15.748,0.891,-46.374,-106.368
1.5903230000985786,30.003,31.67,-212.069,-6.049,20.644,25.659,36.736,-34.204,3.569,30.931,29.829,-35.706,22.921,2.329,11.074,23.721,2.832,55.025,3.598,19.099,-25.79,-13.426,9.484,7.618,-18.813,26.491,7.038,-43.253,-87.306
1.6056692000711337,39.707,38.299,-219.541,-9.629,22.161,31.268,46.945,-34.682,6.127,38.072,40.557,-25.424,31.607,8.987,13.625,34.968,7.44,53.946,12.816,29.326,-20.129,-9.314,13.573,11.709,-14.695,28.001,10.617,-36.038,-83.12
1.6057452000677586,26.347,28.014,-242.376,-31.136,14.454,26.114,14.623,-34.135,-2.076,27.276,27.197,-30.009,24.916,1.805,-4.832,29.298,2.822,51.843,3.069,25.71,-28.306,-14.428,3.826,0.939,-18.267,14.141,7.02,-50.346,-104.042
1.6202700000721961,25.297,21.839,-253.916,-40.839,14.439,25.576,-17.155,-37.174,-3.611,24.175,26.145,-27.93,22.841,-1.782,-13.536,24.657,4.868,54.865,5.628,27.222,-21.617,-10.827,6.896,-1.624,-16.199,18.225,5.988,-63.104,-113.159
1.6203275000443682,53.96,40.772,-237.269,-23.892,30.819,44.505,15.65,-31.502,11.249,45.155,51.222,-3.824,42.286,17.687,11.068,47.687,21.769,66.081,32.775,54.347,2.995,12.238,31.992,25.018,3.284,46.384,25.962,-44.597,-98.189
1.6342494999989867,73.887,61.736,-221.15,-12.597,45.645,64.441,48.422,-19.687,22.509,63.553,68.077,18.722,63.249,35.088,33.598,69.156,36.092,76.773,48.111,74.272,18.361,30.156,44.768,43.948,28.897,63.756,48.478,-26.11,-75.037
1.634306300082244,64.591,57.576,-219.392,-29.491,44.062,60.278,17.635,-26.328,17.876,57.342,60.836,16.141,59.087,27.368,27.929,60.377,32.982,71.061,39.866,63.44,14.757,22.954,34.477,31.097,25.794,54.471,43.819,-38.379,-67.79
1.6494011000031605,55.817,51.371,-219.172,-43.294,42.481,51.509,-14.658,-40.134,7.099,44.989,49.505,5.879,40.072,12.996,21.754,48.534,26.802,64.842,34.191,55.691,7.057,16.271,32.905,26.455,2.202,47.756,35.578,-50.636,-75.407
1.6494763999944553,76.254,75.91,-209.732,-22.758,55.759,68.363,-1.836,-27.798,8.117,53.653,61.238,18.681,44.131,17.594,35.052,61.293,35.996,76.56,46.964,74.591,21.395,35.722,50.291,53.068,8.86,68.201,55.522,-32.655,-62.524
1.6643716000253335,106.404,104.011,-194.665,2.368,74.659,91.861,30.954,-9.327,26.039,74.604,85.255,42.228,68.165,25.773,51.923,79.675,42.108,82.631,64.336,93.984,44.94,57.203,62.536,76.069,36.003,92.723,81.082,-12.13,-29.673
1.6644342000363395,106.297,100.833,-194.47,-7.881,76.633,90.744,44.243,-23.662,28.575,74.53,83.121,42.698,69.634,12.427,51.359,75.497,26.184,62.056,59.148,88.767,39.772,50.998,56.326,66.259,35.455,86.483,79.976,-20.827,-29.131
1.6794780000345781,83.137,82.289,-206.571,-32.976,61.187,78.358,11.923,-40.545,9.591,59.598,65.619,25.237,52.658,-4.491,37.475,58.515,13.351,47.137,39.109,71.26,20.264,34.041,43.462,41.602,18.001,62.318,62.478,-44.884,-60.865
1.6795441000722349,81.005,76.059,-206.877,-42.677,55.491,80.329,-4.482,-33.332,7.02,59.026,67.091,23.675,49.532,-2.95,34.876,53.846,19.997,54.775,35.996,67.603,20.756,32.983,38.295,34.901,16.958,56.62,56.268,-50.987,-71.563
1.69436379999388,96.805,83.155,-206.158,-47.757,65.169,86.909,28.31,-28.176,19.821,68.701,75.733,33.898,55.118,-1.922,46.624,59.94,26.637,61.38,45.182,78.293,30.469,39.61,44.917,46.649,24.626,67.322,63.896,-44.276,-62.782
1.7094116000225767,97.733,85.634,-222.858,-54.37,68.178,86.822,26.232,-31.734,15.702,69.145,74.633,36.938,56.599,-10.117,49.139,63.978,25.586,61.319,46.673,83.851,31.976,40.595,51.02,53.774,25.114,69.816,67.418,-53.966,-58.621
1.7111419000430033,87.901,73.253,-232.881,-54.828,61.45,86.735,-4.02,-29.14,6.977,63.953,73.533,37.413,59.104,-4.984,40.381,62.377,31.196,63.819,44.578,78.644,28.87,40.554,44.821,49.11,18.941,63.599,60.691,-75.429,-57.025
1.7111911000683904,84.74,68.056,-231.111,-58.871,58.314,88.698,15.964,-34.234,8.507,60.302,69.361,36.863,55.971,-0.881,31.631,58.729,35.775,61.706,41.459,74.979,27.304,40.001,41.702,41.888,15.336,60.461,56.532,-74.841,-69.264
1.7245395000791177,83.63,73.111,-237.028,-72.645,56.719,80.924,38.489,-48.545,1.839,53.07,59.558,26.58,43.62,-17.786,18.28,51.498,29.08,50.373,34.245,74.392,26.252,34.326,44.222,37.236,18.907,57.839,58.525,-64.008,-89.687
1.7246014000847936,77.911,64.329,-241.914,-87.429,52.564,68.036,14.373,-59.255,-13.02,40.721,52.326,14.771,30.256,-32.625,3.404,40.688,20.854,38.028,27.551,67.145,20.591,27.631,37.518,37.198,13.765,51.634,53.343,-81.362,-83.962
1.7399102000053972,75.784,55.556,-237.061,-95.026,53.024,67.455,3.087,-62.269,-15.569,34.533,49.2,13.731,25.103,-26.445,0.84,33.987,19.296,29.28,27.011,64.004,16.472,30.678,34.407,42.797,-1.106,48.508,47.142,-102.285,-71.07
1.7544846000382677,80.832,70.869,-238.873,-90.32,59.631,80.708,16.404,-56.059,-6.844,45.257,57.348,24.476,35.836,-18.221,11.597,43.175,23.375,28.739,33.644,74.186,27.214,40.893,43.594,45.828,5.555,56.657,55.292,-88.351,-80.22
1.7545476000523195,87.411,81.557,-240.171,-81.008,66.231,89.336,15.363,-53.954,-4.788,57.507,68.561,33.673,48.096,-19.74,20.807,54.915,26.938,34.345,39.758,80.259,35.383,42.901,46.112,41.171,27.579,61.211,63.946,-74.43,-86.288
1.7695318000623956,86.299,74.303,-230.197,-85.026,66.165,85.661,9.2,-65.683,-15.029,51.814,65.419,34.152,45.486,-24.843,22.835,50.761,26.399,34.823,34.596,76.081,27.151,35.174,39.918,36.007,27.039,51.928,57.734,-88.188,-76.98
1.7846373000647873,85.7,75.253,-227.406,-97.749,61.488,80.452,2.019,-70.74,-21.674,44.078,61.255,31.556,44.928,-29.429,20.763,46.1,22.786,31.202,28.926,78.566,28.148,35.651,41.415,41.094,11.642,48.29,55.627,-97.834,-69.218
1.784737000009045,94.324,81.326,-235.888,-102.262,63.475,84.983,-8.229,-67.596,-18.578,48.644,68.366,34.086,50.519,-31.449,22.28,52.714,22.251,31.171,34.532,85.148,40.416,45.349,45.984,50.787,11.631,62.074,67.355,-93.637,-58.391
1.7996424000011757,100.889,79.195,-238.725,-103.696,74.683,93.607,-4.635,-71.114,-19.072,51.67,70.859,36.613,45.858,-30.905,30.454,56.247,27.352,33.189,43.207,87.624,43.961,53.501,51.574,54.834,28.525,72.258,75.484,-92.007,-57.308
1.7997054000152275,102.325,84.239,-235.413,-104.105,81.268,98.636,-2.069,-72.58,-22.639,52.13,69.764,39.651,43.763,-28.313,37.084,59.777,36.034,38.279,49.311,94.709,48.528,60.107,62.28,53.755,37.206,71.674,77.458,-88.329,-78.767
1.8146489000646397,107.346,92.352,-233.128,-104.513,77.601,98.538,1.007,-71.995,-22.104,52.59,73.792,43.709,48.842,-27.26,32.948,67.914,39.584,43.876,49.774,100.762,54.627,64.658,64.78,52.677,28.46,74.163,80.967,-83.63,-87.91
1.8147105000680313,107.239,85.087,-234.944,-114.655,75.474,91.267,33.794,-87.805,-28.742,44.341,69.62,41.104,42.645,-31.331,22.669,65.285,34.933,39.222,43.577,95.538,49.962,61.007,58.567,49.038,21.771,72.552,81.398,-93.792,-68.867
1.8296332000754774,104.57,82.44,-236.759,-127.348,78.472,85.028,47.08,-102.574,-36.398,37.124,63.403,35.94,34.918,-33.861,20.085,57.022,32.337,36.109,40.972,95.955,48.375,57.36,59.021,48.476,22.262,67.357,80.804,-102.92,-49.33
1.8296932000666857,114.199,96.703,-230.374,-123.634,84.029,97.238,14.757,-90.176,-28.165,49.895,77.172,43.076,45.642,-30.241,25.7,64.138,39.477,43.757,49.64,105.08,60.622,65.5,64.597,58.674,15.579,74.462,86.359,-97.182,-48.769
1.844737600069493,121.257,103.266,-223.996,-117.875,88.556,115.072,-2.676,-75.229,-20.964,63.165,88.878,52.767,56.867,-29.186,26.699,73.295,43.024,41.664,53.176,107.024,65.685,71.069,68.119,64.251,12.49,83.096,90.883,-98.621,-63.065
1.844802200095728,113.451,93.941,-232.481,-121.856,90.004,112.395,30.115,-83.863,-32.726,56.954,81.616,49.64,52.199,-35.305,20.525,66.562,31.71,28.815,44.926,101.794,58.447,62.801,66.514,53.94,23.236,74.816,88.743,-114.917,-77.346
1.8597047000657767,113.338,90.261,-243.007,-125.832,90.427,104.086,35.208,-96.074,-39.354,51.774,77.949,46.005,48.048,-41.417,22.041,62.397,26.555,27.761,42.32,101.692,56.851,61.202,63.373,46.202,30.897,67.569,85.58,-129.146,-73.17
1.8597702000988647,120.909,93.245,-241.74,-131.342,89.312,110.129,25.951,-91.88,-32.142,58.382,84.531,51.082,55.685,-38.814,32.265,72.581,40.361,36.955,52.011,108.763,63.967,71.387,66.896,52.303,29.842,72.113,88.569,-134.652,-66.949
1.875081800040789,112.591,88.028,-241.498,-145.043,81.025,107.97,41.806,-94.35,-37.745,53.713,79.323,48.981,55.629,-37.239,31.721,75.07,41.857,37.43,51.959,108.142,65.44,68.241,67.342,49.689,24.177,70.503,90.017,-134.006,-78.666
1.8751411000266671,101.72,79.743,-240.744,-152.07,73.772,93.005,34.08,-113.211,-58.2,32.655,64.387,33.051,37.131,-49.497,15.295,62.187,25.422,25.098,37.05,95.226,57.69,57.927,57.028,37.344,14.931,61.724,81.218,-134.384,-88.321
1.8896982000442222,109.303,85.299,-232.819,-150.894,77.284,94.961,7.918,-120.27,-64.802,28.524,60.736,23.796,27.36,-60.206,10.157,60.588,26.421,19.437,34.964,93.082,56.607,64.017,57.483,43.967,15.428,65.248,80.624,-136.299,-77.986
1.8897596000460908,118.416,98.534,-232.586,-152.792,86.941,110.236,-2.336,-111.44,-56.028,40.278,70.409,34.531,38.091,-50.412,25.004,70.773,44.837,34.275,46.712,106.821,66.284,73.687,70.746,62.366,22.585,76.966,93.864,-131.552,-63.564
1.9048400000901893,117.272,100.997,-241.575,-156.738,90.952,112.687,-19.752,-109.28,-55.972,42.799,76.999,45.255,46.25,-42.677,32.151,73.776,44.28,45.511,45.641,107.739,69.804,71.051,72.724,63.328,18.976,77.914,96.331,-126.297,-62.988
1.9049060000106692,120.229,97.822,-247.993,-159.142,91.886,111.55,-4.363,-110.707,-58.989,44.806,79.996,44.185,48.765,-44.171,26.483,74.727,38.601,35.732,39.448,101.996,68.71,70.98,70.602,55.068,17.933,72.713,90.6,-128.732,-72.659
1.9198896000161767,129.843,102.335,-249.282,-157.959,97.43,121.172,28.429,-109.06,-50.734,56.544,87.088,47.215,58.45,-39.516,30.043,82.849,48.296,33.647,45.556,111.115,75.813,76.033,73.606,55.525,29.186,74.689,96.657,-128.603,-80.783
1.9199566000606865,131.25,105.306,-239.812,-155.239,99.381,129.76,26.864,-111.0,-48.634,58.537,91.1,53.315,61.465,-41.013,36.161,86.353,46.711,38.224,46.535,114.078,78.812,72.883,68.409,49.834,35.304,76.664,100.146,-122.327,-79.165
1.9348936000606045,128.045,101.615,-225.227,-159.695,95.696,129.118,-5.439,-111.401,-55.757,54.38,87.422,50.188,55.256,-53.78,30.489,85.242,33.856,27.94,41.365,107.816,73.61,70.761,63.218,42.1,36.806,73.513,96.972,-121.693,-68.328
1.9499249000800774,133.04,105.612,-228.588,-167.22,102.26,128.989,11.985,-108.216,-54.165,56.887,87.847,47.576,58.275,-52.702,31.483,88.743,36.384,25.35,46.959,114.368,77.634,77.35,68.79,51.792,34.72,77.538,102.511,-121.571,-57.501
1.9499904999975115,140.591,116.265,-239.63,-158.855,110.867,132.446,35.54,-110.669,-53.598,53.756,88.784,48.553,59.753,-50.6,39.649,90.703,39.421,33.009,49.474,117.328,85.754,79.322,70.77,64.035,22.39,84.633,110.093,-120.937,-61.029
1.9649102000985295,138.914,118.71,-236.317,-148.963,101.022,131.289,3.229,-115.682,-67.889,45.506,81.523,39.283,44.324,-67.455,36.023,82.928,27.599,25.292,37.641,104.915,80.545,75.144,65.576,59.873,16.732,81.987,107.933,-126.451,-75.825
1.9666159000480548,132.627,114.493,-233.519,-163.158,92.724,125.01,4.762,-124.787,-79.604,43.411,77.855,31.047,33.522,-76.097,30.351,76.697,23.473,21.168,35.554,103.273,75.341,77.63,67.048,56.739,22.351,78.831,105.776,-125.3,-80.36
1.9799770000390708,140.179,116.94,-233.798,-175.291,104.415,125.397,37.545,-132.86,-73.889,46.954,89.048,42.287,43.734,-65.263,39.543,90.965,36.769,36.004,47.814,115.978,88.586,87.286,74.665,64.367,28.988,88.998,114.38,-114.417,-64.398
1.9800465001026168,157.97,129.118,-220.244,-154.623,118.143,142.178,31.872,-116.333,-58.446,57.665,103.816,59.663,61.109,-58.025,55.385,113.416,48.516,45.189,59.55,128.669,105.916,96.421,81.763,70.963,35.619,100.18,125.536,-108.667,-51.526
1.9960322000551969,157.812,134.624,-216.437,-139.099,119.049,153.819,4.688,-100.335,-53.777,67.341,105.761,62.165,66.171,-58.479,61.477,115.351,46.418,42.07,58.978,130.59,105.298,97.349,81.169,67.818,33.022,95.981,124.898,-112.144,-66.332
1.996097500086762,144.334,121.17,-236.201,-157.403,113.295,143.931,11.856,-118.165,-70.117,58.052,95.922,53.906,56.883,-62.007,52.706,108.576,38.175,37.417,48.16,120.726,93.922,90.079,75.452,58.528,22.231,85.639,113.503,-120.229,-92.393
2.0099726000335068,145.727,112.339,-242.625,-174.152,113.181,138.152,2.11,-132.392,-80.805,50.822,92.24,53.339,56.314,-62.457,45.993,116.664,39.673,32.769,48.624,120.605,95.877,88.965,78.451,57.958,29.381,86.578,114.926,-123.695,-101.522
2.010050700046122,154.802,124.522,-229.574,-168.342,119.216,148.772,-16.847,-115.866,-68.941,61.017,99.832,61.483,68.041,-57.784,54.657,126.282,45.269,34.786,62.92,134.829,108.589,100.659,86.569,70.195,42.159,93.664,127.619,-116.399,-92.711
2.025052900076844,150.037,131.058,-224.734,-164.588,119.609,149.648,9.297,-114.213,-67.336,60.444,99.732,61.934,68.485,-59.263,62.799,125.643,41.638,37.825,60.296,132.645,107.968,103.12,84.433,74.736,36.481,93.57,126.467,-114.746,-72.639
2.026895000017248,139.128,118.631,-227.583,-172.62,112.829,135.154,33.879,-139.202,-88.273,41.941,86.825,51.113,56.121,-68.425,56.076,120.394,34.936,34.201,45.891,118.68,96.589,90.721,77.689,62.366,35.933,87.329,116.606,-130.0,-57.709
2.0400596000254154,136.94,112.877,-227.356,-177.058,110.667,125.285,6.18,-149.309,-97.918,34.726,80.59,41.841,49.405,-71.431,50.385,114.126,36.438,32.63,47.382,118.561,94.956,86.02,80.173,54.106,44.606,85.192,117.002,-137.555,-79.168
2.0401262000668794,148.586,124.035,-225.591,-168.172,117.729,132.844,-22.515,-133.79,-83.988,45.45,88.707,49.996,55.503,-68.798,56.994,121.697,41.525,36.695,55.532,124.078,105.619,98.229,86.24,62.761,37.389,92.792,125.594,-130.757,-104.705
2.0550992999924347,163.294,136.719,-222.292,-154.684,126.833,151.667,-1.488,-115.726,-75.195,58.212,96.303,62.754,65.182,-66.168,66.159,137.457,43.02,37.683,55.476,124.978,112.173,103.254,86.154,74.482,26.593,98.847,133.666,-127.04,-78.984
2.0551656000316143,152.885,132.996,-234.365,-161.189,123.632,149.466,31.301,-124.319,-88.44,50.469,89.546,52.957,58.457,-71.737,60.97,128.61,32.731,31.498,44.662,117.681,100.79,88.806,75.822,64.673,20.931,87.477,126.872,-128.45,-56.876
2.07002020010259,126.604,115.957,-259.234,-186.643,106.09,123.189,24.097,-154.933,-108.844,24.804,69.989,31.899,37.906,-85.497,40.416,109.014,18.353,20.196,27.711,102.194,84.808,76.934,64.987,46.166,13.226,69.971,110.351,-134.469,-89.095
2.0700804000953212,130.576,111.743,-255.388,-192.092,101.885,121.016,-8.202,-155.291,-110.272,22.217,68.382,36.991,36.843,-83.363,34.741,117.614,21.921,18.126,31.27,102.604,90.359,87.616,68.509,50.218,21.409,75.024,112.802,-138.946,-113.084
2.0851000000257045,149.401,123.926,-233.616,-179.092,118.177,144.461,-8.194,-127.471,-97.354,42.687,88.806,55.397,53.713,-66.373,53.661,136.452,32.658,25.793,50.706,120.433,108.199,100.848,79.711,60.414,40.856,88.782,129.596,-134.196,-86.843
2.086786000058055,144.641,122.778,-241.579,-184.549,124.719,146.878,24.602,-132.466,-99.306,43.157,93.328,53.804,54.171,-70.405,60.78,138.364,30.576,30.89,47.069,119.8,107.579,95.624,78.607,49.595,31.593,84.594,125.88,-131.5,-82.146
2.100167200085707,139.885,120.093,-253.121,-193.586,120.496,136.998,22.016,-150.777,-107.916,33.38,82.476,49.14,45.92,-79.044,58.67,138.738,31.57,38.032,37.288,110.971,101.836,91.43,73.917,50.058,10.557,81.436,117.557,-131.881,-94.871
2.1002321999985725,152.553,136.367,-236.474,-180.072,126.523,143.008,1.501,-138.331,-103.197,40.519,85.98,56.775,52.022,-65.645,70.394,148.333,40.76,43.117,51.083,121.618,110.443,104.658,81.528,72.037,17.719,94.162,130.247,-122.528,-75.821
2.115559400059283,151.376,138.792,-225.991,-175.281,128.958,141.841,4.062,-136.655,-105.143,37.917,89.48,58.255,55.556,-61.481,68.787,152.796,37.133,32.827,56.155,126.107,114.943,109.165,88.106,70.94,34.607,97.654,137.289,-118.307,-69.085
2.1301770000718534,139.954,120.21,-234.475,-187.914,118.071,126.842,-14.898,-153.937,-119.895,22.51,78.12,51.537,46.279,-75.764,49.763,148.032,23.264,21.524,41.755,112.661,109.193,100.346,80.846,51.914,35.085,88.847,126.394,-125.873,-94.119
2.1302401000866666,141.351,114.967,-236.289,-189.263,112.83,127.74,-18.981,-150.197,-125.41,22.999,72.406,47.387,39.06,-79.274,50.738,144.81,18.63,17.916,39.151,106.401,106.01,97.684,75.642,51.862,26.853,86.197,122.681,-134.456,-97.611
2.1452506000641733,142.234,119.463,-234.516,-185.999,115.278,134.784,13.825,-145.948,-123.748,27.587,74.383,45.803,39.021,-75.609,60.421,146.202,21.172,13.8,42.698,106.295,105.904,97.587,81.202,57.445,26.314,87.648,127.681,-147.642,-86.755
2.145314000081271,140.043,119.856,-233.257,-188.887,118.237,132.088,34.816,-155.536,-123.624,25.51,73.796,49.856,43.593,-76.046,57.286,149.13,21.664,17.884,39.07,106.188,107.335,95.44,85.731,52.777,40.632,86.535,128.578,-153.13,-95.89
2.1603144000982866,140.927,119.224,-234.048,-186.137,119.656,135.03,2.506,-150.258,-122.988,29.583,75.772,54.416,47.136,-79.043,59.278,152.567,18.056,22.989,39.03,109.156,108.252,98.931,82.572,53.749,48.788,86.449,125.888,-138.12,-102.454
2.160378700005822,130.028,108.346,-250.208,-189.537,111.851,134.895,-27.211,-151.132,-131.574,28.529,71.085,41.042,37.867,-91.26,56.658,146.779,7.792,10.671,31.819,99.313,98.41,91.147,73.268,53.695,19.538,78.678,116.028,-141.568,-103.889
2.175293800071813,116.066,94.405,-260.204,-205.229,102.518,124.001,-14.888,-168.399,-144.251,14.668,57.694,28.193,26.046,-102.952,40.719,134.337,-1.438,-1.635,17.955,83.844,87.041,75.174,64.997,41.859,-12.757,64.254,102.592,-169.091,-120.691
2.1753607999999076,120.048,96.36,-244.575,-208.61,108.563,127.976,-19.996,-165.67,-138.471,14.141,59.173,34.825,30.118,-98.75,41.191,136.252,1.125,2.465,18.962,88.371,90.54,77.661,62.371,32.083,-5.06,61.116,101.978,-173.02,-129.279
2.190219799987972,127.1,100.874,-237.158,-206.352,116.652,137.069,-17.415,-159.868,-133.209,20.787,67.311,38.889,34.187,-90.454,49.347,146.362,9.833,9.123,23.041,93.918,94.548,82.706,62.309,29.489,18.512,62.592,108.023,-166.187,-122.49
2.1902792000910267,121.85,94.626,-252.802,-216.904,108.85,123.1,1.558,-179.689,-147.933,11.545,58.535,32.19,25.956,-89.852,41.613,141.605,12.385,13.724,15.846,85.115,90.355,74.939,59.685,24.337,11.321,58.431,105.866,-178.829,-131.077
2.204336400027387,118.654,91.457,-259.722,-227.446,102.081,110.169,0.532,-190.267,-157.519,1.799,50.279,30.108,20.807,-90.274,36.96,137.365,9.811,11.661,14.805,81.956,90.265,76.401,60.65,23.288,2.6,58.373,102.686,-178.137,-147.34
2.2044011000543833,120.073,91.878,-254.339,-228.755,109.152,117.744,-8.69,-179.319,-149.677,8.458,56.889,34.177,26.933,-90.184,37.948,146.961,7.24,2.94,22.987,86.997,95.298,85.034,64.687,28.388,14.381,62.413,107.194,-162.59,-136.946
2.2193793000187725,121.489,94.86,-247.424,-224.428,113.141,124.286,-5.095,-173.504,-144.404,13.572,64.517,39.266,32.542,-89.069,32.787,151.425,7.745,9.085,24.501,87.935,96.739,82.387,65.135,28.359,14.366,59.789,109.136,-161.915,-121.44
2.219443600042723,121.88,101.425,-237.443,-214.982,106.88,121.6,-4.066,-173.33,-148.871,8.948,61.378,40.251,29.948,-90.517,34.803,147.175,7.225,17.273,19.354,86.822,95.618,79.743,63.021,23.72,2.569,57.68,105.953,-163.29,-132.077
2.234396400046535,115.098,96.201,-240.792,-220.915,102.163,113.794,-19.943,-178.28,-157.943,1.254,51.071,28.94,21.209,-109.894,34.769,140.88,-5.078,-3.749,9.601,79.051,89.374,77.614,58.859,19.086,3.591,58.134,103.286,-160.053,-146.289
2.234461500076577,109.86,85.859,-257.457,-238.112,102.573,108.557,-39.391,-186.299,-164.445,-4.895,44.872,20.202,12.478,-126.178,20.902,134.079,-18.905,-23.213,3.443,70.775,84.162,71.901,51.628,17.017,4.1,51.929,102.158,-164.504,-139.995
2.2497734000207856,117.947,97.043,-251.564,-225.579,106.056,116.645,-15.273,-176.891,-158.133,1.77,53.024,34.526,18.101,-108.121,25.491,141.63,-10.177,-9.357,11.124,78.901,89.201,75.928,55.163,21.611,-0.515,52.389,104.105,-159.216,-128.072
2.249838100047782,121.928,105.143,-233.382,-207.935,111.073,122.164,17.53,-165.956,-150.29,12.015,58.094,42.176,26.792,-91.619,36.737,149.173,0.592,0.386,10.089,81.896,89.112,77.389,59.206,20.565,0.51,52.849,101.439,-151.372,-133.58
2.2643870000028983,94.141,75.837,-256.715,-236.416,97.13,97.963,-5.029,-193.967,-170.12,-10.027,32.933,14.47,5.249,-118.168,11.085,121.359,-22.463,-19.594,-18.098,52.1,64.944,51.696,37.63,-4.559,-15.884,27.181,79.821,-173.762,-165.722
2.264448200003244,63.309,44.51,-288.734,-267.943,71.417,70.201,-37.299,-225.536,-197.615,-42.292,3.186,-12.697,-27.032,-141.103,-21.202,88.962,-48.568,-34.944,-37.036,27.97,41.313,28.59,15.051,-26.584,-45.07,0.001,54.638,-198.692,-194.245
2.279510400025174,74.516,57.273,-275.125,-247.695,75.957,77.815,-34.701,-207.892,-190.245,-34.053,14.454,-0.389,-18.296,-120.47,-9.398,102.706,-31.613,-22.101,-21.629,44.848,55.104,44.443,31.429,-14.262,-35.291,13.321,65.342,-187.735,-172.022
2.2795715000247583,104.155,84.881,-242.062,-216.196,102.521,100.791,-23.907,-180.019,-167.001,-5.842,42.616,26.764,10.924,-99.345,21.863,132.317,-9.04,-5.173,-0.603,68.882,84.251,69.502,53.939,6.245,-2.468,42.509,96.015,-160.907,-139.062
2.294477100018412,106.613,85.82,-244.894,-214.443,104.98,100.691,-27.982,-188.036,-168.37,-9.422,41.549,31.348,8.352,-108.467,24.915,130.648,-18.765,-12.34,3.496,68.3,86.728,71.482,51.836,6.751,7.78,48.102,101.042,-148.963,-156.341
2.2945438000606373,94.211,71.39,-271.289,-226.524,95.141,87.27,4.834,-203.73,-180.497,-23.245,30.237,24.144,-3.44,-113.994,9.008,119.246,-27.968,-23.086,-0.094,61.572,75.883,66.287,49.223,3.67,-11.695,41.394,87.621,-159.572,-182.825
2.3094108999939635,91.555,65.171,-259.747,-227.834,97.095,87.183,24.297,-201.989,-181.854,-20.66,32.256,26.169,1.687,-105.171,3.876,121.176,-20.255,-14.354,-0.606,63.56,77.344,66.221,50.198,3.154,-23.979,37.254,83.435,-179.905,-161.637
2.3244542999891564,88.39,64.593,-246.679,-213.774,95.973,92.219,-8.003,-197.689,-183.721,-21.152,31.199,28.192,1.685,-104.553,9.508,121.567,-21.259,-11.266,1.956,64.008,78.803,64.618,42.976,0.59,-23.955,36.192,83.352,-175.627,-152.254
2.324510700069368,83.691,64.016,-260.265,-205.364,90.754,85.466,-13.118,-196.466,-186.611,-28.815,22.971,22.528,-6.001,-112.646,10.01,111.712,-29.947,-25.087,1.954,60.871,72.064,64.041,40.884,0.589,-24.443,39.23,80.194,-151.373,-183.865
2.339478100067936,79.508,58.829,-265.64,-225.138,89.639,76.159,2.264,-201.393,-185.912,-32.885,16.8,15.846,-10.606,-121.242,2.316,102.379,-34.528,-29.673,-9.831,53.637,65.845,58.854,40.33,-8.633,-33.128,34.58,74.479,-153.271,-200.587
2.341322600026615,65.084,43.401,-269.473,-243.868,78.279,69.423,-27.964,-212.462,-191.874,-42.586,7.049,7.121,-20.842,-132.392,-8.957,91.005,-44.228,-33.229,-28.264,38.215,54.508,42.401,26.458,-27.58,-51.026,18.664,60.06,-178.22,-194.751
2.35456890007481,52.724,34.136,-279.45,-231.842,69.491,63.718,-52.527,-215.324,-199.879,-51.765,-0.642,-1.083,-28.505,-136.87,-15.608,78.107,-55.966,-48.053,-35.408,28.443,44.207,32.625,19.771,-29.601,-61.221,10.961,51.803,-184.19,-188.409
2.354633799986914,56.77,38.201,-263.801,-222.388,76.594,60.068,-34.031,-213.571,-198.655,-50.688,-1.154,0.455,-25.915,-132.635,-15.081,77.004,-54.886,-46.468,-30.762,32.513,45.7,38.74,26.412,-20.35,-50.401,14.536,56.874,-173.247,-180.024
2.3699928000569344,52.614,35.089,-248.68,-231.9,72.931,54.373,-20.165,-222.067,-199.993,-55.248,-6.788,-3.132,-33.062,-135.576,-19.676,76.927,-52.782,-34.638,-31.756,30.431,42.581,38.701,24.336,-28.527,-38.055,11.96,51.694,-172.049,-186.504
2.3700559000717476,38.729,22.758,-269.948,-232.18,63.124,47.146,-18.096,-225.943,-203.379,-65.439,-13.954,-12.35,-40.713,-138.514,-29.39,67.629,-55.29,-41.264,-36.847,22.203,36.903,36.613,21.75,-36.695,-40.066,6.313,42.933,-176.488,-202.199
2.3845871000085026,44.838,27.346,-280.437,-221.189,70.746,50.685,-18.078,-215.471,-195.491,-61.275,-8.304,-4.653,-32.476,-127.617,-24.75,68.073,-54.211,-44.809,-29.126,29.866,49.161,45.286,32.487,-25.9,-42.076,12.966,53.136,-176.312,-193.8
2.3846488000126556,56.577,39.102,-262.226,-217.894,74.261,55.245,-30.355,-208.596,-189.148,-56.091,-2.148,2.524,-28.857,-121.342,-12.43,73.641,-51.595,-31.444,-21.924,39.058,56.284,48.314,35.528,-25.874,-42.546,19.101,58.719,-171.012,-188.483
2.3996012000134215,48.835,37.014,-258.377,-216.652,65.99,49.042,-30.837,-209.924,-192.545,-63.207,-8.806,-9.262,-37.025,-130.442,-19.59,62.808,-56.154,-34.998,-32.148,27.235,42.396,37.507,22.685,-40.193,-53.262,9.86,48.926,-162.644,-209.299
2.401303500053473,43.663,33.39,-264.779,-212.337,69.51,47.969,-6.215,-203.567,-191.328,-64.169,-14.433,-11.814,-39.55,-133.385,-34.427,52.499,-61.221,-51.87,-42.875,17.987,34.156,27.736,18.051,-38.616,-64.479,0.117,44.779,-158.383,-208.065
2.4146943000378087,44.644,30.795,-259.391,-216.223,68.416,50.482,4.549,-198.24,-190.112,-62.568,-14.418,-7.704,-42.072,-130.178,-39.004,49.885,-70.894,-55.916,-49.492,16.432,33.61,23.098,16.496,-38.577,-68.513,-4.494,41.66,-171.032,-187.877
2.414757000049576,29.231,15.395,-255.546,-228.814,52.466,36.087,-19.534,-210.849,-205.291,-77.362,-24.138,-25.115,-55.35,-139.782,-48.698,31.905,-84.143,-58.422,-62.25,4.632,21.281,14.365,3.16,-61.08,-78.178,-18.322,27.274,-192.891,-202.034
2.4297331999987364,18.955,6.671,-251.704,-229.098,50.364,26.317,-50.252,-218.835,-214.307,-86.506,-33.335,-36.36,-62.979,-148.351,-62.482,19.065,-85.595,-65.536,-65.774,-0.496,14.087,8.716,-1.966,-73.827,-82.199,-29.062,21.099,-198.333,-218.738
2.4297978000249714,27.645,14.349,-247.866,-214.524,58.511,33.463,-57.887,-208.883,-205.896,-79.76,-30.74,-29.152,-61.379,-144.105,-60.883,25.706,-86.022,-70.081,-58.536,3.091,18.172,8.195,2.134,-68.118,-70.846,-28.521,26.201,-193.012,-203.662
2.4446760000428185,17.884,7.674,-266.061,-215.334,48.206,26.258,-47.071,-209.698,-210.301,-88.901,-37.882,-38.344,-70.539,-149.596,-62.871,15.947,-103.355,-79.745,-70.26,-8.695,8.932,1.526,-3.503,-70.099,-79.996,-37.714,19.515,-204.089,-204.483
2.444736700039357,3.009,-5.141,-283.726,-230.488,38.424,11.374,-36.265,-223.833,-223.923,-102.645,-50.139,-49.576,-81.227,-157.643,-82.788,2.098,-108.374,-83.251,-80.436,-15.346,1.751,-1.037,-5.037,-70.029,-100.921,-44.849,10.274,-213.619,-227.332
2.4598236000165343,21.449,10.746,-264.999,-222.061,48.632,21.609,-24.958,-218.486,-208.33,-87.173,-35.745,-30.571,-67.826,-139.042,-88.341,21.564,-88.798,-66.774,-57.814,8.235,18.143,14.334,8.288,-53.565,-84.426,-25.848,21.534,-189.327,-223.007
2.4615569000598043,36.285,24.055,-246.803,-202.371,55.756,33.883,-7.515,-205.46,-188.654,-74.79,-21.877,-18.758,-55.463,-121.997,-83.129,34.35,-83.586,-56.461,-45.461,20.01,25.297,21.491,10.329,-50.437,-58.727,-17.113,33.296,-165.059,-211.513
2.474796700058505,16.268,3.026,-262.95,-210.365,44.429,17.968,0.178,-216.526,-203.834,-91.622,-42.859,-37.182,-73.338,-137.244,-106.612,10.749,-100.921,-69.212,-68.469,2.572,5.804,3.027,-3.001,-69.342,-74.037,-39.125,16.868,-179.239,-225.646
2.4907706000376493,0.883,-15.42,-272.934,-228.086,31.065,-2.543,-21.339,-232.703,-222.586,-106.899,-59.723,-48.928,-88.121,-147.353,-137.757,-2.069,-106.968,-80.926,-78.647,-6.653,-7.522,-9.784,-10.17,-81.568,-95.48,-52.918,-1.591,-199.04,-235.666
2.4908357000676915,4.468,-14.38,-254.218,-227.345,30.521,-2.028,-53.594,-225.81,-215.191,-104.231,-50.441,-42.731,-80.349,-132.861,-138.131,6.642,-101.226,-75.722,-68.835,-2.035,0.17,-3.626,-8.623,-80.462,-85.651,-48.255,4.046,-192.181,-225.185
2.5047504000831395,3.439,-14.878,-243.205,-221.995,34.077,5.659,-68.397,-210.215,-206.267,-101.565,-48.854,-42.176,-78.219,-130.679,-127.234,5.099,-102.661,-70.523,-71.327,-3.058,3.756,-4.135,-6.566,-79.869,-76.343,-49.743,9.165,-184.816,-210.102
2.504813800100237,-2.2,-18.961,-259.868,-226.896,26.871,1.042,-35.541,-216.153,-210.671,-111.197,-63.662,-52.893,-88.899,-150.016,-134.28,-7.714,-110.243,-80.187,-79.453,-12.276,-6.494,-15.914,-10.145,-87.474,-90.612,-59.428,-3.14,-194.877,-210.917
2.519778700079769,-13.981,-26.627,-283.686,-235.378,13.524,-16.89,-2.718,-239.503,-225.83,-126.968,-78.455,-67.184,-101.618,-158.576,-150.539,-20.002,-118.842,-92.402,-86.033,-25.072,-19.807,-25.632,-23.455,-101.219,-105.378,-71.664,-14.408,-206.978,-237.346
2.5198405000846833,-23.188,-35.822,-285.452,-233.606,11.461,-24.045,-34.99,-244.386,-234.825,-127.865,-81.451,-70.191,-108.177,-142.535,-151.925,-24.592,-121.797,-89.236,-93.632,-29.145,-21.324,-28.168,-26.505,-105.728,-97.588,-76.203,-16.442,-203.185,-254.015
2.5348590000066906,-9.333,-27.077,-267.236,-221.077,24.257,-9.164,-62.62,-221.088,-219.221,-111.344,-67.537,-54.239,-91.675,-121.388,-132.306,-10.736,-112.966,-79.413,-82.78,-14.771,-9.52,-17.893,-13.159,-92.815,-83.658,-64.856,-7.204,-183.002,-237.367
2.5349209000123665,1.947,-15.267,-261.333,-211.635,31.405,-2.495,-30.282,-208.059,-201.584,-105.597,-58.76,-45.476,-79.8,-121.779,-117.829,-2.528,-110.292,-77.796,-70.914,-7.072,-4.9,-10.703,-13.658,-85.55,-90.234,-59.155,-0.025,-172.06,-235.08
2.5497973000165075,-14.448,-27.034,-269.269,-208.861,19.591,-16.837,-26.665,-220.659,-212.653,-119.836,-74.583,-60.8,-99.7,-136.514,-125.396,-15.845,-120.94,-79.768,-81.602,-20.385,-14.629,-19.914,-24.915,-96.735,-105.513,-69.855,-7.71,-180.085,-256.875
2.5498655000701547,-19.557,-31.106,-259.778,-204.554,12.399,-20.406,-58.402,-225.049,-221.662,-124.327,-80.656,-67.399,-107.797,-134.329,-126.807,-19.416,-121.331,-75.589,-81.008,-22.926,-16.151,-20.919,-19.255,-100.737,-99.773,-70.81,-10.263,-179.393,-250.982
2.5648541999980807,-3.144,-16.73,-248.76,-204.862,21.096,-10.14,-65.003,-215.602,-207.095,-112.42,-65.719,-54.011,-89.759,-122.924,-113.873,-8.125,-112.501,-72.44,-66.582,-9.071,-5.376,-10.139,-9.502,-91.415,-92.5,-57.419,1.53,-160.258,-233.825
2.5649194000288844,-4.165,-20.3,-264.905,-209.78,21.587,-14.74,-58.278,-215.899,-201.765,-111.795,-65.141,-53.957,-92.23,-124.85,-115.296,-12.216,-118.024,-77.491,-76.249,-11.623,-7.42,-17.302,-18.201,-91.323,-103.679,-58.898,-0.008,-154.975,-242.813
2.579811100033112,-14.919,-31.55,-272.837,-202.91,12.344,-22.41,-52.072,-218.245,-209.76,-121.417,-77.371,-68.248,-107.507,-127.286,-120.304,-20.401,-127.127,-83.049,-87.444,-24.419,-17.659,-27.018,-25.356,-100.453,-100.501,-70.622,-10.255,-165.578,-246.669
2.594827500055544,-15.417,-27.932,-258.219,-189.9,12.844,-19.826,-40.237,-210.342,-208.014,-122.32,-76.781,-71.254,-106.375,-125.11,-111.474,-17.819,-124.438,-81.429,-75.061,-21.833,-14.567,-20.331,-20.207,-101.89,-82.47,-71.576,-9.22,-168.486,-234.639
2.5965242000529543,-16.938,-28.417,-258.473,-189.71,11.806,-23.393,-37.123,-209.619,-202.683,-124.759,-79.778,-72.207,-109.855,-133.694,-113.924,-22.924,-126.363,-82.372,-74.986,-18.738,-16.09,-21.335,-20.699,-100.251,-87.511,-70.48,-9.723,-160.633,-239.527
2.5965707000577822,-21.02,-31.974,-265.387,-189.52,2.061,-27.468,-37.598,-217.094,-204.017,-132.319,-90.457,-81.356,-119.479,-140.733,-121.495,-33.147,-134.946,-88.437,-89.768,-27.94,-26.832,-31.56,-26.826,-101.175,-98.181,-73.484,-14.836,-150.739,-252.095
2.609989900025539,-20.999,-26.307,-254.363,-183.695,3.083,-22.317,-42.684,-213.291,-204.325,-127.576,-88.317,-84.349,-116.286,-137.006,-110.103,-32.602,-137.373,-84.25,-89.166,-34.06,-28.342,-32.041,-25.775,-105.173,-91.423,-74.947,-15.846,-144.44,-254.405
2.610056000063196,-33.785,-39.089,-259.232,-187.61,3.08,-31.004,-68.257,-210.516,-208.219,-128.985,-92.327,-87.851,-121.293,-139.43,-108.456,-37.18,-139.797,-80.58,-89.589,-40.174,-32.412,-39.181,-30.36,-117.875,-98.504,-87.167,-27.613,-156.591,-263.372
2.625343600055203,-51.17,-64.665,-284.588,-191.008,-13.829,-51.465,-74.848,-222.089,-217.745,-145.763,-113.752,-102.107,-136.541,-144.414,-124.229,-49.438,-144.78,-88.184,-99.233,-48.331,-44.675,-50.413,-40.576,-126.467,-124.021,-103.986,-41.93,-174.365,-273.867
2.6254074000753462,-44.459,-58.965,-281.23,-176.473,-17.914,-49.365,-49.67,-223.916,-214.966,-145.105,-113.638,-102.005,-130.256,-136.073,-116.42,-45.802,-141.049,-88.608,-92.474,-39.573,-36.434,-37.042,-33.875,-116.094,-129.532,-93.124,-30.105,-160.871,-271.544
2.639930700068362,-31.095,-42.0,-261.993,-164.001,-7.65,-35.483,-52.695,-208.323,-201.943,-130.103,-97.131,-89.608,-116.294,-124.666,-98.373,-33.974,-136.297,-81.347,-79.062,-29.8,-24.102,-23.173,-21.033,-106.244,-114.034,-75.1,-16.243,-135.095,-274.859
2.6399930000770837,-40.285,-52.716,-268.904,-167.423,-14.814,-40.058,-81.331,-208.114,-204.815,-132.534,-105.23,-95.666,-118.739,-126.078,-102.885,-38.038,-138.723,-84.852,-83.081,-40.016,-34.836,-36.47,-29.209,-115.872,-105.723,-86.296,-28.01,-138.546,-279.707
2.655080100055784,-49.979,-66.496,-274.27,-170.33,-30.169,-47.703,-85.861,-214.054,-210.758,-136.5,-114.859,-105.304,-119.645,-129.026,-105.856,-44.148,-138.584,-88.865,-88.633,-45.099,-42.998,-44.63,-39.426,-127.026,-112.277,-99.017,-37.203,-149.678,-269.181
2.6700483000604436,-47.367,-65.405,-267.336,-171.184,-34.749,-46.63,-76.041,-204.106,-200.813,-132.777,-107.06,-103.15,-113.377,-127.36,-100.115,-42.567,-138.958,-89.289,-86.495,-41.468,-43.468,-41.512,-36.825,-132.023,-117.8,-92.77,-34.092,-143.893,-277.109
2.6701122000813484,-58.59,-70.975,-278.852,-177.16,-46.498,-56.83,-66.231,-210.562,-204.199,-147.501,-119.76,-115.854,-123.51,-135.942,-111.285,-54.307,-149.065,-98.933,-95.63,-57.308,-57.256,-54.278,-43.961,-138.038,-117.17,-99.85,-42.767,-145.286,-309.107
2.685001000063494,-73.389,-76.539,-281.647,-170.835,-60.796,-70.605,-53.869,-230.844,-221.925,-164.26,-138.596,-137.768,-140.805,-145.027,-118.346,-69.11,-153.527,-99.859,-107.318,-71.595,-62.834,-63.445,-52.626,-132.777,-121.664,-110.509,-49.897,-153.338,-304.699
2.685060700052418,-62.045,-68.266,-259.336,-154.271,-56.124,-61.826,-59.451,-216.781,-210.945,-152.825,-125.65,-132.507,-137.078,-134.636,-102.859,-60.844,-146.201,-86.952,-100.038,-57.691,-48.939,-50.062,-40.79,-119.837,-128.714,-97.078,-40.625,-140.889,-271.607
2.6999866000842303,-54.298,-65.636,-261.638,-155.653,-54.019,-51.518,-86.544,-194.022,-191.266,-142.426,-114.765,-123.665,-126.183,-128.866,-98.657,-53.611,-149.641,-93.012,-93.278,-51.998,-49.403,-48.987,-37.676,-126.377,-128.586,-94.932,-40.585,-124.867,-280.557
2.7000432000495493,-70.125,-76.841,-277.77,-162.67,-69.846,-64.274,-104.388,-205.099,-203.37,-153.042,-130.532,-137.374,-133.229,-143.082,-111.367,-65.34,-158.713,-104.19,-103.431,-66.803,-65.235,-64.82,-52.495,-144.693,-130.506,-115.841,-52.327,-130.377,-312.552
2.715159000013955,-80.301,-85.986,-263.148,-156.872,-82.584,-80.091,-92.5,-222.825,-218.536,-163.135,-140.648,-146.97,-141.805,-144.476,-112.28,-72.447,-155.48,-92.303,-106.914,-70.835,-68.756,-67.316,-53.979,-145.061,-137.036,-120.336,-57.398,-149.202,-308.653
2.7170776000712067,-82.27,-89.486,-258.274,-158.764,-90.699,-84.622,-66.793,-234.897,-213.194,-168.607,-139.995,-148.36,-138.077,-133.573,-110.631,-70.838,-152.251,-85.55,-99.635,-69.739,-67.15,-65.712,-50.852,-142.354,-142.022,-114.581,-62.976,-162.373,-285.803
2.730168000096455,-85.774,-90.933,-280.557,-164.241,-96.243,-85.562,-71.337,-243.884,-205.297,-166.902,-138.83,-150.773,-135.89,-134.464,-114.106,-71.791,-154.148,-94.174,-101.584,-74.793,-70.669,-70.77,-57.973,-148.872,-145.978,-122.151,-69.061,-156.063,-297.812
2.730232600006275,-75.442,-82.133,-271.055,-146.146,-86.926,-73.181,-103.541,-224.685,-194.845,-150.341,-127.421,-141.913,-132.168,-128.694,-103.746,-65.06,-147.846,-86.908,-99.946,-69.082,-68.037,-66.088,-53.304,-143.088,-140.709,-118.955,-59.77,-132.853,-311.347
2.745505700004287,-64.608,-71.292,-247.218,-126.02,-79.154,-59.275,-107.023,-204.992,-188.503,-147.117,-120.633,-138.185,-124.863,-119.856,-95.957,-60.384,-146.161,-79.648,-92.161,-61.841,-63.87,-59.874,-47.616,-134.236,-129.298,-106.028,-50.489,-117.351,-302.326
2.745569400023669,-73.253,-71.733,-259.266,-129.992,-87.784,-71.511,-74.128,-221.693,-198.048,-162.851,-132.296,-154.953,-131.398,-135.105,-106.62,-72.106,-159.335,-93.401,-101.291,-72.025,-68.93,-67.499,-57.302,-143.835,-137.878,-110.02,-57.611,-115.184,-298.95
2.7601331000914797,-79.84,-76.272,-266.691,-136.522,-93.332,-83.735,-54.074,-231.205,-200.411,-163.713,-135.237,-162.483,-140.488,-143.68,-112.149,-80.744,-164.299,-100.992,-113.997,-78.613,-72.447,-73.579,-60.318,-151.376,-149.523,-117.595,-63.701,-110.971,-304.799
2.760207200073637,-78.735,-78.245,-246.957,-128.701,-91.189,-75.967,-79.636,-216.63,-192.014,-157.402,-130.491,-158.222,-134.2,-130.728,-106.401,-79.638,-159.011,-94.744,-109.272,-75.461,-72.374,-72.481,-58.209,-149.175,-139.639,-116.453,-63.637,-107.273,-306.543
2.775125400046818,-83.779,-82.778,-250.296,-118.839,-94.684,-81.014,-111.831,-215.901,-198.482,-167.49,-139.07,-168.822,-135.091,-136.233,-108.856,-84.169,-165.512,-98.747,-108.651,-83.07,-78.45,-79.581,-67.884,-154.149,-135.401,-121.972,-69.721,-111.265,-305.212
2.776808000053279,-87.794,-87.818,-275.149,-118.208,-98.688,-96.815,-128.113,-223.369,-209.042,-176.032,-145.079,-181.461,-149.812,-151.466,-111.821,-91.77,-175.593,-109.407,-120.325,-92.721,-85.544,-88.723,-69.866,-158.094,-147.561,-129.534,-74.774,-112.178,-300.296
2.7902693999931216,-81.046,-83.632,-268.726,-121.675,-93.466,-90.57,-98.271,-215.461,-202.173,-170.221,-135.2,-175.132,-144.027,-140.044,-101.463,-88.092,-168.245,-105.199,-114.057,-86.993,-77.261,-81.974,-61.599,-150.251,-147.926,-120.183,-66.503,-102.844,-295.385
2.7903353000292554,-68.67,-73.302,-237.207,-110.283,-85.176,-76.647,-65.386,-202.438,-185.065,-156.731,-120.208,-159.587,-120.829,-120.948,-80.87,-71.098,-154.244,-89.725,-92.938,-71.024,-61.302,-63.449,-55.902,-139.854,-134.458,-100.083,-51.067,-87.885,-295.09
2.805243800044991,-66.552,-70.667,-233.895,-95.316,-79.455,-75.546,-79.152,-192.502,-172.584,-142.742,-112.915,-151.231,-112.512,-120.315,-69.006,-60.268,-151.529,-87.586,-87.21,-63.781,-59.704,-60.824,-53.797,-136.641,-132.274,-96.909,-48.967,-83.698,-302.479
2.820206300006248,-81.855,-84.941,-264.912,-105.979,-86.548,-78.032,-111.349,-188.723,-172.924,-147.722,-121.511,-159.277,-121.621,-126.855,-79.183,-69.429,-160.086,-101.331,-98.394,-75.5,-73.989,-78.182,-61.428,-148.799,-142.388,-113.206,-65.824,-95.91,-325.231
2.820265799993649,-94.068,-100.226,-280.017,-118.168,-98.245,-84.102,-91.77,-192.121,-175.313,-159.87,-132.661,-171.925,-126.622,-130.314,-92.424,-80.118,-164.025,-101.742,-103.931,-85.671,-83.137,-85.788,-72.637,-160.946,-149.418,-122.315,-76.516,-101.449,-341.299
2.820308400085196,-87.314,-98.076,-259.244,-101.144,-95.072,-89.653,-65.55,-189.879,-167.965,-156.636,-131.503,-171.753,-125.471,-129.671,-89.77,-76.452,-161.299,-91.394,-101.265,-80.974,-81.004,-79.555,-66.929,-154.125,-147.732,-115.02,-71.317,-87.003,-320.978
2.8353268000064418,-85.178,-92.855,-242.079,-85.161,-89.854,-89.051,-97.76,-182.005,-170.871,-158.016,-132.396,-173.118,-130.468,-132.103,-92.241,-76.888,-165.749,-100.524,-103.213,-82.43,-82.972,-82.037,-61.227,-145.774,-150.146,-113.368,-74.832,-81.281,-297.091
2.8369950000196695,-94.314,-96.861,-247.472,-91.736,-98.986,-95.11,-123.278,-186.946,-186.582,-172.715,-140.461,-188.314,-142.121,-142.217,-110.08,-85.52,-175.317,-113.743,-112.331,-94.643,-91.086,-90.664,-72.436,-158.436,-154.094,-121.964,-83.466,-91.446,-308.064
2.8503008000552654,-98.318,-101.887,-255.422,-96.768,-105.035,-105.773,-101.637,-195.981,-190.493,-178.178,-143.907,-198.372,-150.688,-148.735,-120.216,-91.07,-178.728,-109.531,-118.367,-98.647,-98.168,-94.159,-76.462,-172.11,-151.891,-129.014,-85.432,-91.867,-327.224
2.850365500082262,-96.683,-102.809,-255.166,-87.449,-101.856,-104.643,-97.95,-190.149,-185.692,-176.463,-142.738,-197.149,-149.001,-145.512,-113.948,-92.004,-178.037,-109.934,-115.687,-97.524,-98.582,-93.04,-70.238,-166.302,-152.251,-126.324,-86.883,-77.43,-329.458
2.864707300090231,-89.926,-93.485,-238.005,-68.406,-98.168,-98.39,-105.024,-178.176,-177.822,-171.675,-137.472,-191.317,-139.118,-136.658,-102.051,-82.178,-173.76,-112.385,-102.763,-91.279,-86.7,-83.726,-66.069,-148.718,-153.123,-110.316,-79.112,-60.447,-313.247
2.879306700080633,-83.689,-85.707,-212.664,-58.092,-97.045,-99.829,-81.353,-177.486,-167.398,-163.307,-129.65,-183.953,-131.806,-125.25,-89.654,-68.263,-164.365,-102.539,-91.39,-81.966,-79.441,-77.494,-61.905,-140.884,-149.384,-99.959,-68.787,-58.849,-286.806
2.8793698000954464,-94.876,-99.454,-219.111,-69.305,-100.022,-104.34,-88.444,-182.943,-167.743,-164.68,-132.594,-185.818,-134.748,-123.076,-87.515,-73.83,-161.127,-100.387,-96.422,-88.544,-89.608,-90.737,-67.991,-155.088,-147.698,-113.692,-82.038,-75.696,-286.52
2.8943214000901207,-106.052,-112.162,-241.434,-76.92,-104.02,-105.772,-120.631,-178.15,-168.087,-166.053,-138.097,-192.293,-134.101,-126.539,-94.6,-84.003,-164.039,-102.849,-104.522,-99.726,-95.666,-101.405,-75.095,-168.765,-143.452,-125.873,-96.3,-82.281,-317.996
2.894380300072953,-103.896,-105.39,-239.655,-68.646,-102.892,-105.666,-109.752,-171.824,-159.722,-160.763,-136.935,-192.1,-128.332,-120.777,-92.968,-80.845,-163.363,-91.987,-102.368,-96.04,-93.009,-93.106,-69.385,-162.961,-144.845,-118.063,-88.519,-67.342,-331.511
2.9094471000134945,-115.575,-115.018,-237.366,-72.676,-109.961,-114.782,-76.854,-182.923,-165.198,-174.947,-146.019,-202.667,-136.913,-126.804,-93.387,-89.986,-173.446,-95.481,-108.926,-104.653,-105.723,-98.136,-77.0,-163.31,-165.193,-122.043,-94.579,-69.836,-326.568
2.9095161000732332,-126.731,-128.223,-242.252,-72.091,-118.56,-123.889,-96.757,-185.814,-171.693,-189.117,-157.144,-218.858,-149.583,-146.145,-104.565,-105.777,-193.765,-114.854,-122.649,-123.504,-117.401,-114.944,-94.341,-177.492,-168.614,-136.778,-109.341,-82.574,-324.705
2.9244274999946356,-112.259,-106.578,-222.542,-45.891,-107.171,-110.958,-122.276,-161.549,-153.078,-172.022,-148.79,-213.004,-141.749,-142.412,-101.386,-101.061,-201.255,-115.763,-119.965,-118.257,-107.549,-110.219,-87.587,-176.29,-150.002,-131.006,-100.01,-65.585,-311.572
2.924491800018586,-106.512,-90.078,-212.586,-37.136,-98.867,-98.039,-89.366,-151.142,-144.728,-165.702,-142.493,-208.18,-135.972,-137.147,-93.6,-98.398,-202.591,-111.549,-117.796,-113.528,-107.442,-104.473,-82.888,-169.453,-158.049,-124.215,-93.25,-43.49,-310.236
2.939443100010976,-120.75,-104.332,-234.402,-49.394,-109.014,-113.822,-60.075,-167.384,-157.903,-182.955,-152.597,-221.804,-148.644,-155.453,-106.314,-110.595,-210.073,-121.684,-130.486,-126.223,-122.191,-117.176,-100.224,-182.092,-172.748,-137.411,-109.038,-50.107,-333.492
2.9395029000006616,-121.654,-108.839,-235.705,-43.197,-111.467,-126.004,-85.118,-166.705,-153.647,-179.698,-151.932,-220.557,-147.983,-154.273,-108.257,-106.386,-208.838,-123.099,-128.818,-123.535,-120.02,-118.596,-100.124,-190.106,-157.718,-138.298,-110.979,-55.692,-321.888
2.954441800015047,-118.458,-105.144,-216.002,-41.617,-107.769,-118.193,-105.013,-152.706,-143.247,-169.784,-143.583,-212.14,-136.052,-136.188,-90.218,-95.009,-199.408,-113.754,-114.857,-115.214,-113.752,-110.793,-87.728,-177.621,-156.023,-126.377,-102.671,-47.952,-291.34
2.9544982000952587,-125.0,-116.309,-212.199,-54.895,-115.346,-119.1,-108.494,-159.213,-152.325,-178.836,-148.05,-222.686,-142.576,-141.175,-91.153,-101.574,-195.622,-110.054,-118.329,-122.271,-121.323,-116.317,-94.813,-172.32,-173.286,-129.324,-108.716,-47.391,-308.467
2.9695783000206575,-126.412,-121.316,-211.475,-46.644,-119.329,-129.227,-122.73,-167.763,-159.345,-184.805,-156.099,-230.661,-154.729,-146.157,-105.918,-108.645,-195.427,-106.871,-124.87,-124.198,-124.276,-122.349,-101.89,-180.345,-169.014,-137.392,-115.779,-52.979,-327.626
2.96964410005603,-132.945,-120.17,-216.386,-37.375,-116.648,-133.708,-139.001,-165.546,-158.161,-187.694,-158.505,-232.479,-156.623,-139.863,-107.862,-106.999,-194.719,-106.764,-121.672,-124.074,-124.664,-121.202,-100.764,-185.288,-170.382,-137.767,-117.713,-53.951,-313.979
2.984528800006956,-145.62,-130.808,-236.15,-47.584,-123.191,-140.747,-142.961,-169.479,-159.028,-195.703,-163.982,-240.956,-162.102,-147.407,-110.315,-113.04,-197.086,-112.805,-125.136,-133.172,-132.736,-125.691,-103.737,-183.053,-192.241,-141.215,-125.792,-52.36,-320.837
2.9845896000042558,-137.79,-131.19,-232.328,-36.778,-124.093,-140.606,-121.301,-165.723,-149.647,-188.335,-161.768,-235.592,-158.354,-144.699,-110.205,-113.439,-193.303,-108.593,-120.912,-127.403,-127.992,-123.516,-100.047,-178.259,-183.852,-138.512,-122.592,-44.623,-330.762
3.0005794999888167,-120.746,-117.226,-213.652,-8.564,-110.649,-125.096,-88.392,-144.553,-131.055,-171.753,-144.7,-218.45,-134.629,-119.963,-97.287,-96.419,-180.814,-92.603,-102.348,-112.419,-115.057,-111.098,-89.701,-173.982,-150.88,-126.078,-107.101,-31.258,-306.865
3.0006434000097215,-125.236,-118.646,-219.586,-7.531,-109.514,-122.41,-91.377,-134.675,-123.239,-170.557,-138.408,-219.256,-126.298,-116.769,-94.116,-89.663,-176.535,-90.974,-103.271,-115.893,-118.528,-114.573,-92.685,-173.296,-145.094,-125.44,-108.53,-25.08,-300.923
3.0145885000238195,-139.967,-133.384,-224.49,-19.307,-123.236,-138.169,-114.852,-142.225,-129.776,-180.12,-154.664,-234.919,-145.127,-135.096,-109.391,-108.529,-190.703,-111.375,-123.147,-131.146,-132.754,-132.389,-105.912,-181.832,-161.343,-139.659,-125.84,-31.714,-321.627
3.0146674000425264,-144.951,-135.3,-209.921,-12.627,-127.724,-145.203,-104.491,-146.693,-135.281,-188.137,-167.829,-245.442,-157.277,-140.084,-116.454,-123.789,-204.344,-124.071,-129.172,-139.212,-138.769,-139.941,-111.954,-194.97,-167.329,-147.204,-130.838,-35.269,-321.817
3.0296049000462517,-137.121,-124.919,-199.465,3.267,-117.35,-136.861,-94.14,-143.985,-131.048,-186.412,-159.976,-243.147,-150.46,-137.382,-105.067,-117.518,-195.431,-107.553,-123.407,-137.023,-133.507,-135.19,-105.182,-190.165,-168.699,-139.885,-123.022,-21.914,-307.151
3.0446368000702932,-132.373,-121.72,-195.679,9.923,-109.036,-131.601,-119.662,-138.206,-124.257,-178.028,-153.669,-234.707,-145.186,-136.732,-96.253,-109.716,-181.403,-90.54,-119.698,-130.739,-129.275,-128.395,-96.88,-168.457,-177.751,-128.986,-118.288,-14.207,-301.721
3.0447015000972897,-145.048,-133.381,-200.607,4.278,-116.611,-138.642,-123.641,-136.53,-124.645,-182.973,-161.712,-241.645,-147.602,-132.497,-101.792,-114.729,-186.345,-100.695,-119.578,-134.706,-135.806,-130.828,-102.931,-168.801,-172.451,-132.443,-123.805,-29.05,-302.444
3.059584700036794,-152.076,-140.933,-210.14,2.225,-126.229,-146.7,-93.803,-141.517,-124.52,-189.963,-164.112,-251.137,-150.016,-125.705,-103.739,-118.201,-189.745,-110.841,-122.02,-142.256,-139.256,-136.845,-109.488,-185.026,-152.298,-139.995,-132.391,-35.168,-306.24
3.059645500034094,-137.067,-133.619,-202.245,7.346,-117.905,-139.893,-94.222,-138.814,-117.735,-177.99,-151.652,-240.64,-144.743,-120.968,-92.877,-110.91,-179.821,-102.533,-118.824,-135.966,-131.945,-132.098,-101.694,-181.767,-160.343,-134.732,-129.185,-19.764,-309.52
3.0746267000213265,-134.88,-131.436,-202.043,1.703,-110.615,-136.167,-126.403,-133.552,-117.618,-174.738,-148.427,-235.788,-139.475,-123.409,-90.223,-107.213,-178.617,-99.869,-113.582,-130.195,-132.837,-131.453,-105.178,-181.586,-190.409,-134.085,-124.957,-19.744,-312.284
3.074681500089355,-153.189,-144.625,-230.018,-7.52,-122.288,-149.863,-150.355,-141.103,-125.697,-188.396,-157.5,-250.41,-142.41,-128.408,-97.817,-113.766,-177.926,-104.892,-118.08,-139.286,-141.414,-142.592,-117.881,-197.798,-191.755,-145.734,-134.566,-35.094,-321.705
3.089645800064318,-152.523,-147.042,-232.861,0.172,-125.239,-152.787,-146.106,-135.327,-121.473,-184.621,-155.806,-249.647,-140.73,-124.181,-90.547,-113.652,-164.94,-99.664,-115.4,-138.122,-135.124,-137.839,-110.591,-191.965,-176.706,-138.929,-135.968,-27.374,-320.359
3.0913316000951454,-135.977,-132.038,-202.402,15.541,-111.282,-137.265,-119.32,-109.576,-103.933,-166.506,-145.404,-235.565,-127.782,-117.397,-79.186,-104.317,-161.189,-88.806,-101.965,-124.664,-126.28,-120.283,-98.185,-170.768,-171.407,-120.347,-122.512,-3.781,-311.33
3.1047799000516534,-135.841,-125.246,-204.762,26.284,-108.609,-131.493,-92.561,-103.831,-96.144,-162.753,-145.258,-236.866,-125.605,-119.841,-87.816,-101.651,-167.175,-83.082,-103.4,-123.515,-129.74,-120.675,-104.234,-173.671,-158.427,-121.763,-122.39,8.006,-316.654
3.104841500055045,-145.951,-133.83,-229.148,33.43,-118.746,-139.558,-97.079,-117.047,-104.757,-172.836,-153.822,-249.949,-138.287,-128.431,-101.048,-109.746,-169.57,-89.146,-116.616,-135.687,-138.319,-134.899,-112.327,-182.719,-154.171,-130.863,-133.538,3.9,-324.022
3.12017700006254,-158.613,-144.967,-226.869,31.347,-125.8,-153.251,-119.523,-120.004,-115.411,-184.447,-164.939,-264.044,-153.518,-144.696,-108.631,-126.543,-184.769,-112.111,-126.746,-150.92,-148.94,-145.522,-118.362,-184.586,-181.169,-136.88,-141.089,-10.961,-318.062
3.120242500095628,-167.676,-151.994,-213.322,26.705,-127.211,-162.831,-120.428,-118.859,-116.32,-190.922,-172.459,-273.514,-161.049,-158.896,-110.572,-140.248,-201.491,-127.881,-134.816,-163.065,-159.037,-153.061,-126.441,-194.135,-195.332,-147.501,-149.145,-17.61,-313.133
3.134756000014022,-159.311,-149.281,-206.961,37.437,-121.448,-151.398,-113.648,-114.642,-105.958,-180.997,-163.577,-262.994,-152.691,-144.393,-101.24,-131.399,-189.506,-115.97,-134.169,-155.729,-154.779,-149.835,-123.241,-195.478,-180.792,-149.915,-149.508,2.388,-306.16
3.134812700096518,-156.59,-150.156,-203.168,45.596,-120.815,-140.488,-124.805,-105.818,-98.68,-171.595,-156.753,-255.559,-143.317,-127.342,-102.163,-121.021,-178.558,-109.706,-128.399,-147.889,-152.575,-148.148,-120.556,-191.184,-179.075,-148.741,-148.846,14.168,-305.854
3.149879900040105,-175.389,-169.474,-211.162,29.669,-131.965,-157.766,-121.094,-113.397,-107.802,-184.231,-170.941,-274.259,-155.981,-144.633,-123.578,-137.294,-193.237,-124.966,-137.492,-164.647,-164.718,-162.344,-131.194,-204.313,-181.969,-161.4,-162.53,-4.289,-328.09
3.1515798000618815,-178.287,-175.964,-220.685,23.492,-133.37,-169.391,-97.407,-127.116,-117.429,-193.781,-177.43,-282.181,-165.047,-156.784,-126.528,-147.403,-195.605,-126.377,-140.429,-170.118,-166.603,-163.719,-131.062,-208.719,-172.053,-162.263,-163.392,-3.772,-339.032
3.164883900084533,-163.765,-157.857,-218.927,46.01,-127.089,-156.926,-117.802,-120.841,-110.139,-182.316,-161.884,-264.481,-151.562,-133.573,-110.008,-130.862,-177.479,-110.882,-125.431,-151.505,-156.19,-149.723,-119.661,-194.166,-179.566,-146.219,-149.396,19.285,-322.3
3.164950600010343,-169.749,-157.187,-218.196,59.796,-129.011,-156.257,-149.959,-114.06,-104.906,-177.011,-159.673,-261.142,-145.263,-121.144,-106.312,-127.145,-174.74,-105.648,-126.33,-151.866,-160.644,-156.745,-126.713,-195.508,-199.879,-149.147,-154.882,12.606,-318.391
3.1798919000430033,-180.337,-169.838,-214.904,53.076,-127.345,-165.322,-125.731,-118.557,-112.998,-183.494,-170.784,-271.127,-154.851,-133.319,-106.205,-140.338,-184.299,-105.542,-138.5,-166.058,-168.681,-168.372,-136.32,-204.535,-196.093,-159.244,-163.949,-0.727,-324.733
3.1799570000730455,-175.546,-164.032,-211.615,51.999,-123.631,-165.157,-92.817,-118.438,-116.471,-183.822,-170.101,-271.369,-158.795,-139.333,-103.538,-145.32,-189.237,-111.072,-137.849,-166.405,-166.463,-164.617,-131.573,-201.256,-190.774,-157.035,-158.149,13.619,-321.334
3.1948442000430077,-173.834,-159.258,-227.285,57.582,-128.631,-166.529,-125.0,-113.709,-110.719,-181.589,-165.32,-270.073,-154.538,-139.706,-105.996,-145.175,-191.61,-123.256,-136.686,-167.263,-168.346,-165.989,-134.003,-205.666,-203.391,-160.465,-157.479,15.654,-329.21
3.1949177000205964,-162.901,-155.0,-219.885,67.77,-121.842,-158.165,-137.683,-103.862,-97.8,-170.137,-154.396,-259.556,-141.575,-130.857,-93.594,-134.271,-182.709,-114.424,-130.914,-160.948,-162.03,-160.7,-134.894,-203.411,-196.015,-154.156,-147.075,8.979,-331.442
3.209973799996078,-141.222,-135.377,-186.878,81.535,-104.302,-137.003,-104.757,-90.95,-83.358,-147.938,-137.335,-239.317,-124.528,-114.332,-74.033,-115.694,-170.231,-98.94,-111.828,-140.807,-145.986,-140.047,-119.39,-181.178,-168.666,-131.973,-124.387,30.999,-300.884
3.2118306000484154,-148.765,-135.754,-181.055,76.33,-111.37,-142.501,-96.968,-94.445,-86.861,-151.888,-143.346,-246.25,-133.112,-126.001,-87.279,-126.337,-181.844,-113.698,-116.327,-148.863,-153.012,-147.08,-119.27,-178.435,-172.084,-133.89,-130.922,38.14,-285.214
3.224934700061567,-171.158,-158.16,-213.15,63.959,-128.677,-163.363,-129.146,-107.158,-100.606,-174.278,-164.207,-269.57,-151.422,-143.806,-109.733,-149.777,-194.47,-128.441,-139.777,-172.793,-171.302,-170.499,-135.545,-194.138,-192.917,-153.224,-151.796,18.634,-306.446
3.240334900096059,-169.45,-155.44,-223.695,76.702,-125.987,-162.688,-138.751,-106.027,-98.969,-171.542,-163.018,-264.177,-142.562,-123.17,-103.988,-143.991,-179.93,-117.042,-135.538,-166.472,-167.033,-163.156,-134.385,-190.358,-191.187,-148.972,-146.521,24.251,-316.386
3.240395300090313,-165.182,-146.576,-212.713,84.823,-120.738,-160.476,-124.268,-104.384,-95.284,-165.223,-156.195,-252.13,-136.271,-109.214,-98.249,-135.651,-176.164,-113.339,-122.595,-156.572,-162.255,-152.234,-128.103,-184.532,-187.409,-139.09,-142.789,38.572,-311.459
3.254959600046277,-171.164,-153.601,-212.5,73.467,-125.74,-166.975,-135.926,-106.841,-100.824,-172.742,-161.162,-257.513,-147.406,-124.987,-106.86,-145.249,-186.234,-115.275,-128.108,-165.125,-167.216,-160.279,-131.048,-189.471,-192.345,-142.537,-156.99,38.021,-313.196
3.2550225000595674,-165.358,-146.275,-194.869,82.103,-124.077,-157.587,-138.352,-92.389,-92.014,-161.299,-156.39,-252.645,-137.012,-113.591,-103.679,-141.005,-173.753,-96.204,-124.906,-159.324,-162.95,-157.045,-123.233,-183.646,-173.71,-137.783,-159.907,46.18,-298.026
3.270022400072776,-160.582,-138.444,-172.645,98.927,-119.855,-150.257,-135.14,-78.465,-80.651,-149.867,-149.574,-242.146,-124.068,-94.009,-97.428,-131.13,-161.796,-87.399,-116.072,-149.943,-159.713,-149.716,-117.986,-177.827,-155.093,-132.01,-160.772,43.572,-268.014
3.270081700058654,-174.253,-155.725,-183.743,83.971,-123.321,-164.963,-132.956,-89.657,-91.329,-165.086,-158.646,-248.564,-139.825,-110.822,-106.039,-140.733,-172.905,-100.119,-122.104,-160.552,-168.263,-157.763,-126.578,-180.211,-171.844,-139.05,-170.345,27.134,-265.697
3.285063600051217,-179.202,-162.229,-200.978,71.079,-126.784,-171.458,-108.232,-102.887,-96.873,-166.97,-159.512,-250.877,-140.71,-114.809,-112.081,-144.691,-170.17,-95.921,-121.981,-161.416,-167.07,-158.117,-125.427,-174.908,-187.554,-140.961,-168.125,35.304,-291.047
3.2851266000652686,-172.363,-152.845,-197.191,86.377,-121.534,-158.992,-110.173,-91.514,-82.944,-150.409,-147.569,-238.843,-122.126,-92.665,-107.358,-133.275,-159.242,-84.554,-117.761,-151.008,-164.854,-154.885,-123.252,-174.733,-180.194,-139.283,-163.859,43.978,-308.174
3.300027500023134,-173.727,-155.766,-191.358,96.537,-116.802,-154.222,-142.338,-75.028,-77.225,-152.308,-146.397,-235.53,-125.59,-95.646,-106.226,-135.191,-170.353,-98.814,-126.352,-158.542,-170.836,-164.464,-135.424,-183.267,-180.526,-148.365,-170.867,29.077,-303.255
3.3000889000250027,-177.652,-156.635,-195.265,91.83,-120.271,-160.728,-114.019,-82.638,-83.808,-159.328,-150.861,-238.881,-133.149,-107.334,-109.706,-143.253,-178.38,-109.474,-127.763,-166.068,-169.129,-166.349,-136.825,-181.035,-183.931,-151.803,-170.696,31.097,-293.73
3.315118100028485,-176.962,-151.867,-195.582,88.152,-124.762,-169.276,-81.117,-98.437,-88.847,-156.607,-148.661,-235.568,-128.917,-98.005,-112.158,-137.474,-171.029,-100.143,-119.438,-158.217,-163.836,-159.01,-126.443,-176.755,-171.452,-146.016,-164.378,39.776,-291.387
3.315182900056243,-176.273,-160.425,-187.19,87.552,-121.563,-169.619,-113.311,-92.191,-89.271,-154.914,-147.488,-230.209,-129.301,-93.296,-109.997,-133.238,-171.37,-100.555,-120.343,-156.522,-167.259,-159.364,-127.853,-178.628,-166.67,-146.382,-164.214,26.416,-280.85
3.3300852000247687,-167.9,-161.801,-175.732,92.075,-112.22,-156.642,-142.4,-71.094,-77.911,-146.05,-141.193,-222.295,-121.999,-91.666,-102.202,-133.617,-171.199,-104.553,-115.1,-154.316,-161.968,-155.106,-125.164,-169.227,-172.651,-143.162,-156.365,24.852,-263.151
3.3301444000098854,-153.387,-143.196,-164.798,104.278,-103.911,-143.677,-109.469,-61.289,-66.562,-132.071,-127.732,-209.265,-105.483,-77.742,-95.952,-122.213,-157.196,-87.03,-101.665,-139.305,-147.974,-145.217,-113.255,-157.275,-166.331,-129.186,-142.888,43.271,-264.424
3.3452068000333384,-154.771,-137.93,-164.121,106.735,-103.807,-146.608,-111.409,-70.961,-76.742,-135.013,-128.116,-204.445,-105.89,-72.541,-99.955,-114.406,-150.891,-74.647,-103.1,-137.629,-150.9,-149.682,-115.191,-160.704,-158.992,-129.569,-145.307,44.764,-272.869
3.3452717000618577,-173.571,-158.797,-179.326,87.673,-113.949,-159.781,-143.573,-87.797,-97.157,-150.247,-142.845,-216.536,-119.104,-84.252,-113.687,-130.173,-162.011,-91.479,-117.342,-156.447,-168.168,-165.414,-129.933,-171.814,-167.542,-150.957,-161.556,26.789,-268.498
3.3601897000335157,-183.644,-172.47,-193.491,73.753,-118.958,-167.306,-121.4,-94.881,-99.622,-155.732,-148.85,-226.565,-125.133,-91.34,-125.869,-140.289,-165.947,-100.097,-122.347,-161.926,-173.122,-172.421,-135.439,-175.741,-176.084,-161.052,-170.103,16.003,-278.476
3.3602569000795484,-165.53,-151.806,-181.002,95.196,-107.569,-157.917,-88.491,-77.88,-85.177,-143.281,-135.381,-212.506,-116.299,-81.515,-114.472,-122.218,-152.461,-79.504,-107.368,-145.882,-155.019,-158.416,-121.471,-163.27,-162.588,-140.399,-154.564,34.943,-287.931
3.3755396000342444,-142.31,-120.403,-154.694,126.864,-94.653,-136.754,-109.92,-56.798,-73.821,-124.183,-118.852,-190.265,-99.788,-64.527,-90.791,-105.702,-139.501,-67.642,-89.33,-133.953,-136.42,-136.741,-103.419,-144.663,-140.396,-117.717,-132.38,65.134,-255.368
3.375610899995081,-148.316,-121.82,-156.076,123.664,-96.608,-135.081,-133.888,-63.401,-80.408,-126.62,-124.881,-194.685,-103.787,-63.95,-94.799,-113.281,-144.997,-81.406,-97.95,-141.504,-147.555,-145.826,-111.0,-147.08,-146.916,-129.382,-138.395,58.409,-233.083
3.3902572999941185,-167.635,-143.727,-178.461,105.097,-107.27,-156.975,-121.459,-85.367,-94.159,-143.399,-141.662,-210.372,-122.126,-81.817,-120.32,-125.463,-157.147,-93.108,-117.32,-154.682,-166.875,-169.759,-131.381,-164.864,-176.995,-155.38,-158.749,32.223,-262.051
3.3903129000682384,-164.393,-144.608,-183.406,105.504,-110.749,-162.966,-108.018,-83.744,-89.455,-139.158,-137.934,-204.526,-117.394,-84.809,-123.273,-121.239,-155.453,-93.015,-113.616,-152.991,-160.56,-163.441,-131.25,-168.797,-180.916,-151.639,-155.517,36.289,-267.425
3.4053065000334755,-148.86,-130.631,-170.415,108.985,-100.904,-144.872,-114.57,-64.193,-75.02,-122.625,-122.427,-187.928,-99.858,-68.843,-107.268,-109.847,-147.101,-92.922,-100.695,-140.542,-148.617,-146.884,-118.311,-161.456,-158.706,-134.069,-141.017,53.671,-236.931
3.420310900080949,-147.686,-125.377,-159.486,107.851,-94.143,-139.604,-124.701,-57.981,-75.97,-125.063,-121.792,-186.715,-98.733,-65.7,-105.112,-108.2,-145.417,-90.78,-102.643,-140.402,-150.517,-150.835,-115.119,-153.098,-146.764,-132.91,-139.339,56.691,-241.305
3.420375299989246,-155.736,-128.326,-157.789,112.866,-100.709,-152.784,-119.453,-69.194,-87.165,-135.697,-130.892,-196.262,-108.881,-75.368,-115.765,-116.801,-148.345,-87.615,-109.201,-150.507,-155.49,-156.832,-118.077,-149.359,-147.13,-136.363,-145.859,54.073,-261.044
3.4352312000701204,-162.24,-136.394,-161.73,113.266,-110.854,-160.829,-109.6,-80.908,-91.176,-139.147,-136.909,-202.726,-118.506,-79.903,-124.359,-121.808,-148.197,-90.089,-112.678,-157.017,-163.531,-161.286,-123.082,-158.431,-151.081,-140.838,-155.447,43.261,-246.438
3.435291500063613,-162.078,-138.819,-163.105,116.226,-109.719,-159.131,-120.761,-74.167,-85.962,-137.471,-136.772,-199.45,-116.338,-78.287,-128.845,-119.637,-143.438,-86.413,-111.54,-154.298,-165.929,-165.223,-125.521,-164.42,-157.078,-145.82,-155.292,40.144,-230.822
3.449390000081621,-154.743,-125.361,-154.233,128.405,-99.363,-151.799,-133.448,-56.674,-76.654,-129.137,-128.95,-189.516,-102.389,-70.524,-124.105,-115.419,-132.536,-75.055,-103.744,-146.972,-152.443,-154.3,-116.686,-148.374,-150.261,-134.916,-143.354,60.083,-233.153
3.449453200097196,-149.978,-117.551,-145.882,127.765,-94.653,-142.426,-115.896,-52.007,-74.529,-119.786,-119.6,-183.179,-97.164,-57.646,-117.834,-110.692,-122.157,-70.882,-98.518,-141.702,-146.656,-146.461,-108.372,-135.418,-141.914,-122.485,-141.673,72.831,-227.797
3.4644168000668287,-150.34,-121.019,-140.613,120.465,-97.632,-139.21,-108.096,-50.93,-71.892,-115.568,-115.382,-176.848,-96.042,-50.928,-119.765,-103.409,-118.961,-70.811,-96.37,-140.023,-153.681,-152.974,-111.338,-139.381,-148.432,-127.998,-145.118,69.684,-216.298
3.479420799994841,-147.116,-116.8,-134.325,123.418,-94.461,-140.607,-140.263,-44.219,-62.087,-112.891,-111.68,-170.011,-88.261,-51.389,-122.207,-98.183,-117.818,-69.716,-93.2,-137.834,-149.941,-152.821,-114.3,-142.316,-145.722,-130.432,-138.313,78.324,-215.057
3.479484200011939,-147.481,-115.658,-139.313,122.782,-91.805,-145.078,-149.857,-50.835,-64.074,-116.876,-111.056,-172.915,-90.222,-47.752,-117.474,-100.646,-112.065,-72.72,-94.131,-137.184,-146.205,-150.107,-112.649,-143.198,-130.207,-125.69,-139.199,82.344,-222.015
3.4795259000966325,-154.506,-128.35,-154.543,118.049,-100.422,-152.617,-116.919,-68.203,-73.744,-124.956,-114.531,-174.791,-93.718,-41.044,-111.721,-103.107,-104.268,-71.11,-94.549,-137.559,-150.158,-151.494,-110.487,-144.592,-129.564,-127.102,-146.232,72.528,-232.551
3.4954872000962496,-154.351,-133.857,-157.975,119.468,-105.957,-154.514,-84.014,-71.721,-64.961,-118.171,-112.88,-163.858,-83.378,-38.954,-111.609,-98.393,-102.114,-59.768,-85.745,-132.298,-143.86,-144.17,-105.766,-137.275,-130.459,-124.413,-139.426,73.992,-231.806
3.4955538000212982,-148.049,-126.551,-144.497,120.373,-97.654,-144.625,-116.206,-56.28,-54.137,-105.758,-106.107,-158.059,-76.635,-38.402,-116.108,-93.684,-103.549,-59.196,-80.024,-125.506,-137.056,-136.341,-100.537,-131.502,-112.91,-115.067,-132.114,87.751,-213.644
3.509446799987927,-142.266,-117.715,-135.131,128.962,-89.872,-132.698,-148.365,-35.731,-54.595,-102.578,-99.853,-157.389,-74.509,-29.655,-112.406,-92.566,-99.859,-68.359,-80.457,-121.794,-137.431,-136.205,-98.387,-124.198,-102.039,-110.341,-131.47,98.421,-197.549
3.5095101000042632,-139.562,-112.987,-140.631,139.591,-90.294,-130.516,-115.429,-32.109,-46.344,-98.89,-97.704,-152.62,-67.262,-23.477,-102.048,-92.986,-94.124,-64.704,-81.401,-122.697,-138.831,-136.581,-99.314,-113.828,-117.818,-109.206,-130.314,99.347,-196.839
3.524457500083372,-149.156,-121.583,-147.15,127.669,-95.839,-136.533,-92.26,-41.811,-38.101,-96.741,-104.266,-156.566,-70.269,-30.626,-108.606,-102.114,-94.542,-61.053,-87.979,-134.357,-150.987,-147.203,-107.924,-127.034,-133.582,-119.343,-140.942,80.805,-201.253
3.526187799987383,-157.204,-129.146,-133.683,117.295,-98.305,-138.446,-124.443,-39.208,-47.284,-103.305,-109.285,-163.582,-78.908,-34.182,-119.768,-109.697,-94.448,-69.701,-94.551,-141.395,-158.521,-157.814,-116.013,-147.912,-127.813,-133.569,-151.559,66.38,-197.465
3.5395131000550464,-142.19,-116.209,-111.008,136.645,-90.01,-132.16,-116.634,-28.41,-45.7,-99.615,-99.954,-153.172,-71.144,-22.877,-108.89,-99.341,-85.644,-62.972,-86.26,-128.446,-144.53,-146.386,-108.724,-136.493,-120.001,-126.775,-139.112,83.732,-188.558
3.5395780000835657,-125.654,-99.187,-108.336,157.513,-80.698,-122.806,-83.729,-25.82,-29.26,-82.097,-87.559,-140.211,-59.29,-14.145,-93.411,-84.897,-73.263,-40.367,-72.341,-113.973,-133.115,-133.431,-101.443,-120.987,-126.541,-109.23,-123.092,104.653,-185.808
3.5545495999976993,-123.991,-93.452,-111.301,161.966,-77.031,-116.023,-114.896,-21.696,-24.62,-73.306,-81.324,-135.46,-56.669,-12.594,-90.244,-79.689,-65.505,-35.716,-65.609,-110.273,-130.932,-133.298,-103.391,-129.063,-126.927,-105.022,-119.382,108.134,-187.159
3.554615500033833,-126.429,-94.896,-106.579,157.194,-76.442,-120.005,-104.023,-26.285,-30.231,-80.917,-81.243,-134.3,-58.149,-8.995,-89.642,-79.609,-70.051,-45.926,-66.056,-109.138,-128.24,-133.165,-100.726,-132.52,-118.09,-106.966,-121.312,104.44,-186.972
3.5694795000599697,-139.11,-106.584,-116.719,141.667,-84.05,-136.279,-71.131,-45.726,-34.299,-94.156,-91.407,-143.388,-65.776,-13.597,-98.261,-87.727,-79.202,-48.954,-74.186,-117.738,-137.333,-139.179,-102.675,-132.388,-123.608,-115.056,-130.412,88.966,-191.908
3.569540800061077,-145.631,-111.088,-127.873,138.452,-91.139,-141.778,-103.336,-44.656,-32.728,-93.037,-94.39,-146.83,-66.222,-17.682,-106.872,-91.225,-72.975,-42.758,-75.137,-122.744,-142.319,-144.675,-106.67,-135.329,-127.583,-120.064,-133.356,85.803,-194.79
3.584537700051442,-118.845,-86.386,-110.326,165.978,-73.629,-118.583,-124.237,-17.459,-12.203,-70.403,-71.242,-123.117,-45.152,0.267,-88.322,-69.617,-55.996,-32.469,-56.619,-100.079,-119.635,-124.551,-89.145,-117.775,-105.938,-97.403,-112.218,118.505,-181.276
3.5864013000391424,-96.697,-68.882,-98.945,179.132,-56.137,-96.435,-110.28,-4.121,6.252,-53.939,-52.727,-106.088,-30.25,16.66,-71.328,-55.203,-53.378,-31.412,-45.291,-84.61,-107.22,-109.057,-72.662,-97.678,-90.463,-76.301,-96.737,138.367,-168.287
3.5995811000466347,-116.068,-86.743,-116.265,151.8,-71.962,-107.609,-123.49,-16.413,-6.049,-65.668,-68.556,-121.351,-43.539,2.299,-89.699,-74.615,-66.133,-45.725,-62.152,-105.53,-127.605,-127.391,-88.471,-108.851,-102.155,-94.667,-113.034,107.49,-170.168
3.6150941000087187,-135.42,-104.075,-118.71,131.156,-88.284,-129.531,-120.293,-30.741,-18.851,-79.947,-84.881,-134.55,-56.303,-11.023,-110.614,-87.348,-71.19,-49.265,-74.385,-120.281,-138.236,-141.096,-101.19,-124.623,-110.25,-109.942,-128.802,89.964,-172.559
3.615170000004582,-123.502,-94.75,-104.247,146.394,-75.901,-122.741,-92.508,-24.562,-1.926,-68.596,-70.964,-120.583,-43.952,4.869,-100.258,-69.842,-56.774,-30.773,-57.917,-100.694,-124.265,-125.586,-85.72,-113.74,-99.894,-93.438,-116.378,115.489,-165.214
3.6295915000373498,-105.96,-80.31,-107.216,164.691,-60.968,-101.614,-100.612,-7.119,11.396,-52.134,-53.987,-103.044,-27.002,21.258,-83.764,-53.379,-37.249,-19.984,-44.027,-83.174,-111.846,-115.214,-75.388,-97.233,-92.622,-83.611,-99.868,130.231,-155.827
3.6296518000308424,-108.927,-80.23,-112.744,163.502,-64.493,-103.562,-117.418,-6.088,5.237,-54.643,-59.056,-103.966,-30.561,18.676,-86.754,-57.936,-38.749,-27.136,-50.131,-90.264,-113.271,-121.759,-84.534,-97.648,-93.041,-89.163,-104.379,118.317,-156.184
3.6446127000963315,-115.479,-85.785,-104.947,156.678,-72.625,-114.729,-107.054,-11.205,5.232,-61.761,-66.169,-113.595,-40.264,14.559,-93.839,-65.05,-51.006,-30.183,-53.154,-96.833,-117.768,-122.662,-85.474,-100.624,-86.801,-87.024,-109.91,118.199,-165.249
3.6446695000631735,-108.703,-84.675,-99.207,157.546,-68.967,-108.466,-94.652,-2.996,12.911,-56.064,-58.419,-110.92,-34.588,20.179,-88.11,-57.301,-42.245,-23.493,-43.88,-85.978,-114.064,-115.879,-75.655,-91.814,-77.492,-79.253,-101.09,136.012,-162.01
3.65970900002867,-103.984,-82.028,-101.669,158.926,-62.75,-103.235,-75.602,-2.481,15.46,-52.934,-54.262,-103.125,-30.455,22.721,-86.485,-50.583,-30.42,-19.371,-40.25,-79.744,-108.315,-112.177,-75.067,-81.476,-79.464,-75.587,-96.379,142.536,-144.43
3.6597722000442445,-111.052,-85.02,-106.178,152.619,-66.786,-111.841,-59.132,-15.286,12.37,-58.004,-61.38,-108.657,-38.622,18.087,-97.157,-59.242,-42.173,-24.987,-44.82,-89.398,-110.768,-113.602,-78.578,-82.932,-83.995,-73.975,-102.43,136.758,-141.724
3.6746976000722498,-112.478,-85.96,-111.195,146.319,-70.817,-110.704,-81.102,-15.271,10.821,-55.384,-60.806,-113.159,-37.559,17.557,-99.621,-64.306,-50.328,-33.671,-46.825,-93.92,-116.293,-118.099,-77.475,-93.607,-82.374,-77.999,-103.864,132.523,-152.853
3.674761100090109,-107.242,-84.337,-106.473,150.783,-66.136,-100.348,-103.05,-2.96,21.569,-42.521,-49.475,-101.775,-24.201,30.859,-87.739,-52.971,-35.42,-25.953,-45.753,-86.654,-115.664,-120.542,-77.397,-97.1,-82.292,-81.507,-101.711,131.365,-149.626
3.689688800019212,-96.377,-78.105,-86.387,168.051,-57.873,-91.538,-75.795,9.338,45.113,-27.622,-37.13,-86.304,-8.295,47.735,-71.769,-37.549,-22.577,-7.996,-35.973,-73.759,-104.79,-109.151,-71.172,-79.072,-78.624,-68.106,-94.437,137.894,-137.181
3.689749200013466,-82.448,-65.219,-70.931,185.301,-50.13,-80.176,-56.764,16.501,58.388,-15.299,-24.797,-75.459,5.545,53.834,-62.988,-25.728,-24.604,-6.963,-24.154,-63.952,-93.927,-98.283,-60.855,-63.111,-68.811,-53.181,-81.535,149.539,-132.433
3.704739800072275,-88.513,-67.715,-80.594,182.554,-53.666,-82.145,-88.983,8.287,48.596,-19.894,-26.309,-77.946,0.417,47.633,-70.61,-27.239,-29.19,-15.666,-31.303,-70.035,-101.005,-106.894,-67.966,-75.856,-70.792,-64.398,-86.577,141.193,-133.837
3.704800800071098,-103.794,-81.48,-98.956,170.589,-61.297,-96.92,-108.361,1.619,36.764,-31.145,-42.165,-89.138,-13.416,43.487,-76.175,-38.995,-26.599,-12.064,-40.493,-81.236,-112.687,-114.984,-77.632,-87.563,-75.844,-75.092,-99.298,130.805,-140.876
3.719856100040488,-95.493,-72.689,-95.784,172.467,-55.088,-91.7,-75.465,10.327,44.412,-26.503,-38.024,-86.488,-6.23,49.079,-64.315,-32.808,-19.913,-5.392,-32.255,-74.495,-105.915,-107.185,-68.333,-74.155,-65.009,-59.136,-89.977,149.63,-145.858
3.719919400056824,-91.299,-64.42,-89.028,173.319,-52.984,-82.899,-57.459,8.267,51.028,-20.329,-27.227,-81.79,-0.076,51.079,-62.714,-22.529,-23.479,-7.948,-31.711,-70.322,-100.173,-105.541,-67.752,-71.007,-62.895,-54.466,-84.764,155.116,-144.688
3.734827700071037,-101.966,-80.237,-109.431,163.412,-63.689,-92.037,-89.677,-3.012,42.267,-24.919,-37.959,-91.442,-12.372,39.757,-73.922,-29.679,-31.14,-10.501,-40.901,-82.035,-108.782,-112.607,-80.492,-85.793,-80.251,-70.805,-97.999,132.931,-152.74
