Timestamp,Cz,Fz,Fp1,F3,C1,C3,T7,C5,CP5,CP3,CP1,P1,P3,O1,CPz,Pz,Oz,O2,P4,P2,CP2,CP4,CP6,C6,T8,C4,C2,F4,Fp2
0.0,113.732,116.006,42.289,19.166,136.808,103.263,144.297,88.857,115.397,120.448,146.887,158.538,126.312,107.437,176.269,139.979,115.47,84.037,152.265,142.259,133.62,102.766,91.819,94.795,367.047,86.916,86.303,102.473,47.343
6.890005897730589e-05,132.061,131.259,71.961,43.738,151.016,127.75,111.877,121.556,135.774,141.332,163.134,172.724,143.091,112.965,174.044,152.134,126.625,105.982,167.482,159.023,145.269,113.422,103.51,102.897,383.587,98.612,96.975,118.252,59.079
0.015066700056195259,145.249,152.645,101.603,58.551,165.209,145.553,144.553,125.533,150.495,156.048,180.902,189.458,159.342,145.64,188.214,169.913,145.454,123.807,181.659,176.283,157.932,129.19,114.165,127.385,373.469,119.006,111.735,138.114,91.807
0.015137900016270578,115.39,124.828,69.226,26.217,143.527,113.132,177.196,93.132,123.705,126.178,153.569,159.554,133.055,136.785,167.534,146.689,123.279,91.407,156.374,149.979,132.671,102.421,92.534,107.278,340.82,94.296,95.742,115.947,64.051
0.030118900001980364,96.832,104.723,37.393,7.235,129.039,92.015,144.743,84.33,109.236,109.658,132.923,136.341,115.504,111.545,145.337,122.976,105.738,74.922,138.799,132.41,116.657,86.949,80.659,87.19,308.716,77.296,81.814,99.437,31.711
0.030197400017641485,123.887,134.844,70.144,35.405,149.915,123.173,112.323,117.033,132.181,134.651,158.917,160.283,139.979,128.339,172.344,142.321,129.198,100.975,160.69,155.844,141.643,117.601,101.583,117.842,341.195,104.883,99.663,125.977,64.467
0.04504080000333488,132.473,141.369,79.807,44.079,156.425,130.222,144.999,122.039,135.635,137.59,165.419,164.221,144.962,140.506,184.979,150.888,136.753,112.145,166.164,161.324,147.649,121.581,107.116,126.945,373.642,111.438,104.686,132.512,85.92
0.04511180007830262,116.459,121.248,53.6,24.567,140.387,110.625,132.558,97.839,116.032,116.448,142.199,139.466,122.788,121.411,152.519,130.757,117.149,96.663,150.629,145.281,130.595,100.455,92.665,101.715,364.559,93.908,89.213,112.911,54.071
0.060017700074240565,124.027,132.398,71.989,27.616,143.32,115.125,165.213,95.692,118.989,122.479,149.229,144.45,124.714,121.289,148.268,135.237,119.593,95.03,160.212,153.845,138.149,112.65,99.232,111.86,339.091,103.036,95.271,126.118,63.751
0.07500790001358837,131.075,136.364,83.188,31.175,154.96,117.059,197.836,93.547,124.506,126.968,159.326,156.089,132.786,133.976,168.612,151.496,131.769,107.742,169.786,164.449,146.72,121.759,109.379,126.605,346.949,113.179,107.983,134.189,92.376
0.07506760000251234,114.038,110.612,55.44,13.725,148.145,99.523,165.363,81.67,109.012,107.885,142.773,142.1,118.309,120.522,157.173,139.049,126.514,111.221,154.759,150.452,134.278,104.219,101.073,104.449,348.139,98.209,95.58,103.829,70.255
0.07510730007197708,115.461,114.6,53.336,17.298,142.361,104.035,132.922,90.298,110.952,113.413,145.704,141.446,119.215,115.79,147.282,133.787,127.412,104.962,158.703,152.351,138.755,109.75,104.558,106.906,323.2,99.647,91.898,101.163,58.914
0.09007780009415,133.788,141.637,70.701,38.797,147.854,124.423,133.301,109.675,132.871,135.841,166.051,156.674,139.588,139.753,163.016,152.608,135.994,108.443,176.475,170.13,152.448,129.108,113.675,134.976,323.389,117.479,107.176,131.288,76.785
0.09013880009297282,123.408,134.836,64.482,33.123,146.682,118.151,165.956,102.905,126.078,123.41,153.589,147.295,134.326,145.249,162.341,145.283,131.247,116.019,164.515,159.713,139.488,115.659,100.241,119.984,350.731,108.652,101.945,125.522,57.753
0.10504170006606728,96.645,108.573,53.147,8.499,129.629,91.905,198.577,78.212,101.361,97.671,126.284,125.631,110.113,121.537,146.809,117.473,120.358,104.12,143.346,134.451,118.856,93.514,86.308,88.613,348.331,82.415,79.302,93.121,32.592
0.10510310006793588,86.815,95.657,46.946,-6.878,117.716,80.542,193.256,73.523,99.21,95.012,120.522,115.259,103.855,108.608,142.564,109.159,111.528,83.524,138.08,126.632,114.127,90.347,86.734,88.012,320.318,73.624,70.513,78.171,43.831
0.1204716000938788,93.9,95.049,41.264,-3.798,128.357,94.294,160.787,91.892,111.919,105.163,129.111,117.706,113.485,109.524,148.569,113.148,109.367,84.977,139.991,132.653,120.16,93.842,84.598,93.048,317.436,79.698,75.566,81.679,49.934
0.1205340001033619,111.225,107.762,51.981,16.186,147.697,114.692,147.819,109.731,123.078,119.402,144.351,132.957,125.667,116.587,169.425,119.183,120.529,101.286,148.048,143.791,131.311,101.945,87.075,98.078,324.291,92.938,88.298,98.503,46.811
0.13508020003791898,122.384,121.486,61.663,26.928,149.598,118.163,180.458,105.011,126.028,129.529,154.965,142.558,130.665,135.426,186.162,127.773,127.581,103.234,154.56,151.332,138.864,112.09,98.771,111.3,306.548,103.604,97.431,112.749,55.985
0.1501155000878498,112.016,115.217,48.281,16.655,138.178,107.799,196.672,84.926,115.656,118.129,145.076,128.583,121.312,140.413,174.705,120.473,115.67,90.835,144.671,140.422,131.553,106.854,97.136,110.164,305.729,96.328,89.649,106.489,47.22
0.15180730004794896,104.219,106.393,44.135,10.491,136.503,102.056,164.2,81.255,108.368,108.789,138.271,120.258,113.506,117.731,167.87,110.619,110.431,90.232,138.379,133.109,126.811,100.6,90.379,101.857,338.211,90.084,86.486,100.235,38.976
0.16527620004490018,120.509,120.631,62.021,18.165,148.149,110.663,152.253,102.69,121.067,123.025,154.014,138.068,127.738,118.126,189.219,125.365,125.69,108.073,156.684,151.931,141.541,119.455,102.071,115.587,365.025,107.412,101.769,116.016,65.065
0.1653409000718966,134.733,131.781,63.496,21.221,153.124,120.286,157.223,110.272,129.143,133.148,165.131,151.762,142.467,145.672,201.325,138.047,135.81,115.649,170.872,165.612,152.158,134.192,112.728,128.791,335.971,120.112,106.79,127.683,75.246
0.18023350008297712,115.13,111.157,35.768,7.88,136.577,104.797,178.583,80.96,108.522,115.084,148.572,133.68,126.955,136.305,180.119,116.904,121.842,96.066,153.795,144.954,132.026,110.492,97.246,111.244,303.36,100.525,89.265,109.112,42.895
0.18029660009779036,84.789,84.406,15.24,-14.158,116.461,75.49,174.306,54.239,84.847,88.841,121.271,103.832,97.627,103.893,152.787,88.611,97.642,74.453,123.927,117.144,105.254,81.692,75.119,81.419,286.15,71.735,71.245,81.851,25.946
0.19531219999771565,84.704,88.42,28.545,-13.119,118.906,78.489,141.856,70.067,90.398,88.752,117.051,97.069,94.967,96.617,156.22,81.35,91.909,68.231,118.68,114.978,108.734,86.733,73.507,77.239,290.987,68.589,70.149,85.355,48.974
0.19537870003841817,105.112,109.336,56.181,16.096,132.619,105.05,146.838,97.661,110.8,110.693,135.89,113.365,113.828,113.939,183.729,88.953,103.6,72.773,135.98,129.72,126.557,102.528,87.778,98.679,317.848,90.038,81.862,110.373,66.344
0.2103187000611797,111.667,116.399,60.735,25.814,137.61,108.019,179.478,92.953,113.25,115.705,141.389,118.375,118.325,120.997,189.693,95.012,109.644,84.996,144.041,136.25,129.504,103.963,92.301,106.777,332.387,99.681,91.514,112.824,66.277
0.21218570007476956,107.457,113.209,49.404,10.419,142.595,98.177,175.2,81.589,106.477,104.831,135.1,109.547,109.497,128.049,176.183,94.917,110.047,98.231,140.31,137.651,130.911,106.42,87.598,98.986,313.1,93.434,96.033,106.051,65.699
0.22543720004614443,121.181,127.952,55.502,17.068,153.723,109.35,149.41,94.315,116.617,117.534,148.797,121.221,119.121,137.655,186.253,100.97,121.208,105.305,149.392,152.37,145.125,119.122,93.146,109.645,309.2,106.661,105.671,127.462,65.121
0.22550150007009506,144.114,149.854,75.427,39.593,158.693,126.147,171.29,107.541,131.869,138.933,169.141,146.715,139.495,139.054,204.51,117.262,132.357,108.786,168.198,171.685,157.275,132.322,107.397,131.565,329.383,132.169,115.299,149.876,71.203
0.2407182001043111,144.482,146.118,76.376,40.578,154.435,126.533,143.966,106.409,126.102,133.159,164.361,146.056,139.867,137.89,199.694,119.707,127.614,107.652,172.128,172.026,157.118,133.727,109.852,130.409,323.419,131.013,113.134,138.456,84.964
0.24077850009780377,124.87,126.504,58.881,22.094,147.109,114.623,111.547,102.204,109.582,120.218,150.877,129.516,125.895,136.215,190.273,105.755,120.314,102.422,160.173,156.485,146.202,120.786,102.057,115.421,309.263,113.463,103.8,121.411,81.293
0.25530740001704544,121.671,125.865,58.822,13.363,144.912,112.459,144.223,98.003,113.059,126.246,156.361,133.485,127.819,141.714,198.28,104.112,124.805,108.467,157.963,153.767,141.445,118.103,100.93,115.818,336.106,111.813,101.134,121.802,68.916
0.2553671000059694,142.554,139.059,74.133,29.231,152.964,129.765,176.866,101.491,131.901,142.513,170.549,149.746,145.622,158.479,214.988,116.816,134.926,118.605,170.613,168.47,153.599,133.354,111.076,126.461,359.336,122.972,110.255,129.365,75.508
0.27033010008744895,140.875,136.871,65.349,42.009,155.373,131.685,144.414,107.538,129.72,140.322,165.256,142.423,144.964,150.123,209.137,111.063,128.643,104.654,165.319,165.227,151.396,129.635,109.428,119.162,327.726,119.775,110.657,126.674,72.358
0.2720446001039818,113.582,118.803,48.378,25.061,141.897,111.061,111.994,101.282,112.172,118.664,144.598,117.178,123.814,118.21,182.801,87.898,111.096,83.032,140.051,139.959,126.654,103.89,89.338,101.112,295.123,99.163,92.615,115.789,49.744
0.28539650002494454,119.616,121.246,68.822,20.938,143.293,117.097,144.67,105.28,122.306,124.181,150.601,119.11,125.227,124.24,185.692,87.811,116.62,97.806,140.423,142.893,129.089,106.348,88.224,104.597,316.345,97.527,91.498,119.259,67.625
0.2854618000565097,143.062,139.568,85.147,41.409,160.055,140.034,177.313,120.031,140.627,148.135,171.455,140.508,146.619,152.805,204.974,106.678,133.41,122.811,159.75,165.292,150.477,125.197,106.579,114.226,348.816,114.848,107.288,126.824,99.321
0.29941340000368655,117.304,122.01,52.786,23.949,148.625,117.353,144.86,95.833,113.334,124.933,149.255,123.973,129.566,134.721,182.739,90.69,117.395,99.635,143.197,147.196,131.371,108.165,93.665,95.669,316.192,98.851,91.812,100.57,66.946
0.2994777000276372,84.911,89.612,24.556,-8.35,128.496,84.96,112.44,64.998,80.945,92.533,116.83,92.086,98.186,104.873,157.966,58.836,98.835,70.846,118.975,120.921,104.6,84.491,71.542,82.253,283.6,71.6,66.104,76.391,34.604
0.3143616000888869,112.491,108.478,50.147,17.274,148.347,110.49,117.451,97.721,106.992,122.667,141.816,115.56,124.215,127.822,190.596,80.807,124.863,98.44,142.422,146.415,128.574,105.923,92.475,106.25,314.567,95.095,87.555,106.541,60.697
0.31441980006638914,145.166,141.157,76.225,50.044,169.716,143.167,147.559,130.411,139.672,155.332,174.462,148.233,156.879,160.481,223.193,113.513,150.354,128.567,170.969,174.446,156.622,131.945,114.924,126.123,347.04,125.738,112.571,131.537,93.424
0.3293588000815362,127.602,126.672,65.902,29.502,152.128,125.606,180.2,101.591,122.114,134.684,157.894,130.666,137.767,153.661,205.551,98.031,133.297,108.459,156.454,156.341,142.121,116.956,97.903,113.702,324.664,109.218,96.064,109.376,79.498
0.34450000000651926,100.835,101.954,49.955,7.955,133.02,94.742,212.807,69.214,94.328,109.446,132.633,100.309,112.526,131.478,184.341,69.243,113.696,87.346,135.805,137.229,121.999,94.298,83.461,94.633,315.63,87.08,80.599,96.459,55.34
0.3445682000601664,107.906,104.414,46.831,11.021,134.937,99.77,180.319,80.416,100.381,119.071,141.209,109.43,123.684,129.81,187.23,77.883,118.706,94.431,141.304,141.702,124.438,99.327,91.574,88.903,347.078,91.604,85.129,106.097,53.748
0.3598933001048863,121.631,115.068,52.932,11.522,143.511,117.089,147.863,104.414,113.6,131.247,154.9,125.202,135.343,144.025,195.24,92.15,128.321,105.607,156.02,152.831,139.171,115.621,101.216,104.695,331.874,105.344,91.192,109.577,75.723
0.35996150004211813,126.632,125.199,67.224,18.171,155.15,119.533,180.503,98.674,115.024,133.165,157.307,124.053,135.208,151.053,199.143,90.521,132.291,114.211,163.549,163.949,150.815,124.215,109.824,126.108,313.099,118.559,99.81,119.713,100.751
0.3745385000947863,127.53,128.148,82.526,28.911,154.995,114.291,209.012,88.842,114.909,129.446,153.564,119.83,134.048,143.217,192.284,86.332,129.597,110.51,159.287,163.785,146.565,118.967,107.665,122.395,334.815,118.953,100.222,124.717,100.138
0.3746015999931842,124.841,121.872,108.571,33.493,143.569,118.275,176.527,107.196,118.892,128.804,150.336,118.173,132.377,138.975,177.747,82.66,122.295,96.567,149.394,153.888,136.685,112.188,97.824,111.002,323.209,109.1,92.95,112.809,105.673
0.389453100040555,137.012,137.631,141.25,56.513,155.721,137.624,156.883,138.852,132.606,145.069,161.457,124.203,139.417,143.447,182.18,86.675,122.173,96.983,151.806,160.394,143.208,120.273,104.386,122.674,313.665,117.7,106.177,129.09,138.355
0.38951340003404766,154.293,167.72,173.896,84.121,173.496,148.245,189.514,142.299,140.158,156.195,173.591,130.739,147.987,135.619,196.343,94.786,123.076,98.935,158.314,170.48,151.262,126.813,114.015,129.724,346.139,130.39,118.878,161.749,171.004
0.40457910008262843,145.942,169.601,202.924,81.988,157.954,133.24,222.112,111.418,123.111,139.132,162.146,120.874,135.031,123.188,192.56,86.494,117.829,86.541,149.446,160.575,143.938,117.977,103.655,115.762,344.256,125.137,109.026,169.271,195.936
0.4046417000936344,137.087,166.87,235.509,83.443,147.549,122.861,206.521,98.499,112.742,131.821,151.226,114.093,128.749,129.213,194.929,81.284,119.248,89.528,144.686,154.779,142.257,117.859,99.965,118.72,311.636,126.036,108.917,172.688,228.528
0.41964940004982054,149.757,186.683,268.061,104.877,167.382,137.595,174.039,121.967,127.486,148.083,162.345,125.25,143.989,134.207,217.788,95.035,127.326,105.833,154.788,166.408,151.849,126.45,110.112,133.458,328.23,136.156,122.64,186.86,261.087
0.4197258000494912,146.021,188.034,266.768,104.259,166.702,141.043,195.894,126.456,127.871,146.398,162.183,124.612,142.308,122.802,221.669,96.477,122.588,102.141,153.096,163.68,147.086,119.151,103.854,125.64,349.419,128.848,117.907,180.526,257.24
0.43451460008509457,129.994,167.866,238.325,86.737,146.043,121.947,228.486,101.738,111.862,128.833,147.164,111.168,126.797,128.314,209.152,84.085,116.83,92.817,144.746,152.758,138.23,111.348,94.528,112.707,322.43,119.497,106.518,171.124,230.343
0.434572400059551,142.159,174.87,240.648,93.822,154.606,124.386,195.982,109.321,118.41,136.901,154.701,119.253,135.891,157.387,221.75,95.784,130.033,102.458,157.921,166.437,151.412,124.556,108.778,125.914,342.6,131.673,113.584,190.42,229.6
0.44955880008637905,161.485,196.212,246.043,108.073,174.944,148.34,163.511,137.389,135.71,156.744,177.088,138.602,152.662,167.476,241.508,117.206,144.248,120.286,175.694,185.226,166.117,138.776,123.527,146.28,375.045,148.448,128.839,205.599,228.858
0.4496146000456065,158.249,187.819,213.521,97.206,172.72,148.704,196.135,128.542,133.013,155.563,178.448,135.902,147.386,150.403,235.632,112.99,140.005,122.728,169.883,178.893,158.779,134.539,115.718,148.696,343.419,147.275,129.223,186.95,208.137
0.4646731000393629,146.308,164.065,181.032,74.568,162.301,129.088,207.209,108.946,119.047,142.6,164.437,120.909,134.943,133.346,217.465,95.971,127.057,103.649,155.368,165.394,147.349,121.085,103.82,136.764,310.8,132.783,114.237,154.488,185.9
0.46473210002295673,134.891,151.606,153.699,62.71,156.503,119.225,174.727,107.813,107.658,130.674,153.002,108.493,124.562,126.04,205.977,87.166,119.246,88.177,147.016,157.544,142.079,112.767,100.642,118.184,322.785,119.33,101.827,135.89,153.438
0.479718100046739,120.412,142.745,131.516,58.037,145.076,113.47,207.34,96.946,101.915,119.272,142.603,97.626,115.728,122.328,200.648,80.418,115.028,94.236,138.16,145.604,132.203,108.555,95.418,102.697,322.462,111.014,96.602,138.316,121.01
0.47978190006688237,115.68,131.843,105.257,48.757,137.759,107.722,239.92,91.214,110.522,117.616,136.312,94.454,117.662,124.255,197.373,74.703,113.888,100.29,131.874,138.798,126.948,102.811,91.224,101.569,323.164,105.267,89.846,134.079,88.613
0.49569430004339665,119.663,129.15,77.999,43.073,141.207,113.762,207.405,109.053,122.707,127.745,139.25,100.507,124.204,129.254,197.688,77.702,114.287,91.48,134.816,144.807,131.432,102.196,96.256,106.591,337.185,105.162,84.12,120.113,91.598
0.5098092000698671,116.982,126.972,61.527,46.616,143.627,114.672,228.202,105.871,118.998,127.105,138.598,100.407,123.055,121.952,197.491,80.186,113.148,86.778,134.681,143.637,126.177,102.094,92.062,103.41,304.573,103.52,85.573,113.845,90.995
0.5098753999918699,111.742,118.648,60.954,44.52,138.873,102.775,258.2,86.297,109.657,117.756,133.849,93.134,119.346,105.949,195.244,72.933,108.424,87.716,126.862,130.174,118.879,94.307,78.649,100.745,271.993,98.806,86.0,110.657,71.948
0.5247103000292554,121.876,123.14,58.331,41.914,140.271,108.307,225.666,97.994,117.232,124.298,140.375,95.603,121.788,110.966,200.684,74.397,109.853,88.14,129.809,133.63,127.981,97.799,85.743,109.354,304.509,106.904,89.5,110.547,64.192
0.5264322001021355,139.173,139.923,44.953,49.044,148.84,127.667,193.165,118.9,127.361,138.006,152.018,108.827,128.839,135.958,216.365,91.741,118.964,96.761,146.073,151.427,139.636,118.706,104.613,116.417,336.992,123.191,100.169,122.732,57.98
0.5397453000769019,137.497,136.197,28.514,48.483,150.228,125.49,205.268,112.122,121.598,134.282,151.354,111.792,129.734,139.408,222.809,96.772,119.358,101.788,148.488,152.812,138.984,122.174,101.947,114.251,310.015,123.58,104.68,125.17,32.306
0.539809700101614,122.502,114.544,11.067,27.942,141.369,108.97,221.456,93.054,108.669,120.316,139.931,97.336,118.334,121.338,207.217,80.282,107.967,92.977,131.946,137.803,128.599,104.633,89.037,106.452,277.429,110.649,94.329,109.164,17.929
0.5547577000688761,114.695,104.183,-5.85,10.496,132.518,101.177,245.825,79.129,100.364,114.048,130.058,87.504,110.019,121.729,188.054,72.517,109.909,89.297,123.617,132.03,117.712,98.381,85.362,95.075,284.324,98.755,79.89,95.222,28.67
0.5548233001027256,113.044,102.542,-18.652,11.51,129.312,95.44,235.846,71.877,99.751,114.446,130.44,93.565,115.032,136.977,182.743,81.154,123.631,98.942,130.666,139.07,114.008,100.844,86.301,87.808,300.434,91.996,78.273,87.955,21.981
0.5697551000630483,116.004,102.952,-30.929,19.183,134.306,92.271,203.335,77.441,105.287,117.405,136.457,99.619,119.527,137.352,183.585,87.732,124.532,102.942,136.683,146.615,120.042,101.767,88.264,95.917,277.592,98.052,88.441,92.99,-7.755
0.5698186000809073,125.622,111.046,-28.336,17.115,142.368,101.913,216.964,88.634,110.304,121.899,141.444,102.593,120.945,133.628,187.5,92.768,122.871,101.302,140.132,151.592,127.607,110.375,93.299,106.579,289.61,110.761,95.525,110.315,-11.333
0.5847818000474945,129.083,112.984,-10.89,9.413,140.177,108.471,235.19,91.107,112.243,124.851,145.401,109.15,126.972,139.13,189.874,98.31,128.895,103.25,146.652,154.514,131.578,115.388,97.304,102.374,322.108,110.138,90.306,104.57,9.683
0.5866309000412002,118.195,98.526,-14.977,3.768,127.741,96.579,237.004,80.77,108.545,118.578,139.108,102.381,124.283,138.479,179.438,92.064,123.131,102.634,143.432,148.724,124.786,101.44,92.596,93.05,294.121,99.27,82.019,79.362,11.723
0.5998790001031011,107.831,92.28,-34.43,3.764,123.002,85.724,252.136,73.517,100.752,107.189,124.624,86.91,109.302,120.409,171.573,80.702,109.688,100.995,129.968,134.743,111.853,88.019,80.208,91.933,261.551,91.486,77.838,77.233,-1.609
0.5999433000106364,112.334,102.434,-35.42,15.544,129.539,96.397,223.195,87.788,104.749,110.155,126.549,92.458,110.217,106.457,182.673,79.084,112.14,104.992,124.203,128.461,109.692,92.029,75.517,91.841,291.516,89.858,77.761,90.988,-3.657
0.615266100037843,127.078,113.602,-30.262,30.897,135.558,110.645,190.696,104.606,116.94,125.414,141.791,103.636,123.427,120.695,196.835,85.665,120.225,102.325,131.251,140.115,119.829,102.695,86.712,91.749,324.012,102.063,85.367,99.094,-3.141
0.6153429000405595,137.197,119.124,-27.157,30.354,140.545,113.096,214.584,101.428,117.335,129.9,147.797,104.557,125.353,149.263,206.372,96.338,122.154,100.686,144.952,154.32,131.492,114.888,100.97,105.49,310.368,120.404,99.114,112.828,-3.138
0.6298812000313774,136.036,119.517,-11.761,22.639,142.454,114.52,230.251,98.252,114.144,128.233,150.211,112.137,125.227,155.774,219.485,105.463,127.155,113.906,158.127,159.289,139.045,123.482,105.992,119.216,318.767,125.919,105.163,121.936,6.599
0.6299388000043109,125.141,111.201,-15.335,17.494,130.528,107.233,238.73,91.494,111.469,122.469,144.938,111.513,126.639,136.663,217.217,98.185,123.954,115.841,151.821,150.932,129.685,114.65,98.202,107.314,345.601,114.522,93.275,108.494,11.203
0.6448967000469565,112.721,99.819,-44.009,10.816,114.516,91.244,271.279,67.836,101.623,109.539,126.862,90.397,114.217,124.231,199.069,82.205,109.997,94.72,129.128,135.925,112.649,105.826,86.32,94.399,312.98,100.576,80.886,93.529,-3.152
0.6466092000482604,117.731,101.768,-51.138,14.904,121.062,98.325,238.732,71.867,104.083,114.04,129.809,91.843,111.029,130.254,201.431,86.734,111.937,88.478,131.048,137.326,114.073,118.015,87.771,103.526,280.391,102.012,89.514,95.997,-15.445
0.6599882000591606,131.446,108.326,-40.328,24.11,136.31,119.231,206.218,103.046,120.885,132.882,149.659,114.293,128.849,131.149,211.476,98.943,121.046,98.636,146.799,149.484,122.668,126.607,95.88,105.984,312.899,109.594,96.085,98.975,-10.306
0.6600527000846341,121.068,98.484,-47.46,8.717,125.927,108.354,238.799,94.234,118.203,127.113,142.337,108.543,128.208,120.259,201.018,89.11,111.704,94.951,133.844,139.088,111.787,115.209,88.1,89.997,345.373,99.239,77.546,90.167,-8.247
0.6750182000687346,102.504,85.066,-55.61,-5.636,110.432,88.265,269.299,71.086,105.277,110.592,125.801,92.041,111.173,113.479,182.886,78.262,102.37,87.171,116.804,122.043,100.405,107.409,77.765,84.784,312.753,83.258,66.71,82.904,-25.144
0.6900278000393882,114.184,90.104,-52.992,8.714,121.593,96.374,236.754,84.335,108.245,113.556,132.847,97.072,112.087,110.804,150.428,85.869,105.854,89.133,125.396,134.216,105.427,111.4,82.298,90.847,282.214,88.81,78.938,85.383,-31.779
0.690093900077045,128.415,97.186,-55.501,16.902,130.693,102.425,238.054,88.861,108.65,114.979,138.862,98.512,116.073,104.545,118.002,88.857,105.748,86.483,129.37,149.963,108.908,110.777,85.802,95.879,302.424,99.992,80.396,82.736,-13.304
0.7050000000745058,121.626,96.064,-55.958,13.299,122.365,96.688,269.067,78.014,103.93,112.815,134.113,95.34,109.297,108.027,118.909,86.206,104.618,85.884,124.629,147.252,111.873,115.789,86.229,100.394,292.9,102.454,76.218,77.018,-7.143
0.705056200036779,127.652,106.214,-37.459,25.581,126.341,110.423,271.36,99.453,119.195,128.584,142.688,107.54,118.922,122.776,151.578,98.415,113.735,99.63,137.825,148.642,124.056,130.018,93.827,102.855,291.07,110.548,89.974,90.261,-20.456
0.7200898000737652,138.796,119.94,-22.564,32.728,135.949,126.194,281.334,116.772,129.322,137.164,150.742,115.117,129.561,129.313,184.214,108.051,120.793,107.728,146.908,154.128,129.568,131.425,98.344,102.752,323.567,116.073,96.544,111.175,-22.485
0.7201556999934837,127.898,115.21,-29.714,23.474,126.079,117.359,248.778,105.896,113.824,124.732,141.37,104.755,118.161,124.573,157.39,100.258,116.062,98.398,133.954,144.753,123.29,123.096,92.098,104.698,336.563,108.272,85.689,115.162,-16.315
0.735495200031437,124.697,114.07,-32.758,29.085,120.83,115.192,228.037,107.327,117.296,126.656,141.741,106.188,118.043,130.596,160.818,102.207,114.921,90.615,133.82,139.997,122.143,127.072,95.592,112.278,319.833,111.238,87.14,117.096,-0.417
0.7355584000470117,140.966,125.739,-15.307,39.303,133.516,129.934,260.596,114.392,141.257,145.997,155.431,122.988,140.466,147.372,190.371,119.011,125.565,100.771,150.08,152.152,131.242,138.215,107.792,124.974,333.857,125.983,99.86,123.127,32.371
0.7500648000277579,131.603,114.855,-20.927,25.943,131.334,121.607,293.123,99.421,134.968,140.216,150.665,121.328,137.764,142.101,179.935,117.355,126.976,107.842,145.831,148.414,127.525,133.467,100.512,118.701,321.741,119.197,94.637,109.172,30.289
0.7501231000060216,106.369,89.637,-49.595,9.011,116.345,96.382,260.555,86.514,108.706,114.973,128.997,100.202,112.523,117.881,153.115,100.844,113.529,96.976,127.242,127.773,108.954,117.452,82.48,91.942,289.143,97.561,77.124,88.57,-2.016
0.7650759000098333,109.848,91.596,-44.423,13.613,116.229,94.237,269.004,88.477,107.572,113.321,126.307,97.54,111.386,121.861,159.622,102.792,111.879,98.928,128.14,127.646,108.333,117.334,88.033,92.363,303.199,97.976,77.047,93.092,-10.211
0.7651310000801459,117.423,98.677,-27.984,15.649,118.162,102.34,301.522,90.437,113.613,122.941,134.89,109.226,123.058,147.867,175.856,112.936,122.013,115.736,137.746,136.227,119.495,125.926,97.679,109.689,335.683,104.026,85.167,98.122,22.587
0.780144700082019,97.838,77.574,-50.498,-5.884,105.236,90.966,268.945,85.736,104.79,113.084,122.972,99.382,112.689,142.596,168.508,104.113,113.694,101.788,126.849,119.697,106.568,113.505,84.774,92.673,308.195,86.503,71.762,77.532,14.367
0.7802065000869334,88.006,65.713,-64.792,-18.174,98.471,82.679,236.401,83.089,101.099,105.799,113.115,86.475,100.793,118.375,157.581,95.812,102.822,83.755,115.964,108.307,93.141,99.047,79.054,80.285,275.612,73.097,56.833,66.184,-14.336
0.7951998000498861,107.386,86.652,-38.087,4.386,108.619,97.965,268.952,94.277,110.219,116.964,125.297,100.734,110.426,122.867,166.133,109.037,114.502,106.725,128.143,124.592,108.417,109.194,93.831,104.795,287.119,90.442,72.658,85.073,0.535
0.7952611000509933,117.012,102.959,-27.803,22.825,116.707,104.527,248.703,101.355,110.109,117.872,130.295,107.293,114.414,133.503,181.336,118.661,120.535,120.963,133.138,128.054,117.531,117.794,93.738,110.838,317.571,105.209,91.028,102.406,14.879
0.8101874000858516,108.699,99.782,-37.509,16.142,116.078,95.201,253.578,86.909,100.265,109.045,121.456,92.841,103.541,123.636,184.74,113.932,109.144,103.936,121.735,115.63,109.728,109.991,86.984,93.821,338.258,97.419,86.327,97.693,9.741
0.8102583000436425,110.639,100.195,-31.836,12.54,111.351,98.18,286.112,81.186,101.702,114.571,124.92,93.773,104.462,122.487,180.97,115.355,110.059,103.832,123.15,118.589,111.668,109.369,93.557,94.24,361.486,93.223,82.654,91.448,18.953
0.8251900000032037,114.627,102.656,-28.218,14.064,104.067,108.328,254.575,96.474,112.358,121.629,130.431,103.413,112.555,130.562,182.325,125.486,116.609,113.462,132.248,123.081,115.655,112.846,93.463,97.219,350.878,96.204,83.084,96.992,24.569
0.8252453000750393,107.34,97.431,-35.362,10.464,102.426,103.096,222.045,98.427,113.271,116.896,123.128,98.699,110.393,125.821,186.242,128.434,108.808,105.664,126.993,115.273,109.391,110.684,86.71,93.536,318.252,92.521,78.902,99.968,15.323
0.8402750000823289,106.208,97.845,-31.228,16.089,106.935,100.432,254.611,90.644,112.645,115.242,121.98,98.6,110.282,125.695,185.031,129.843,109.724,107.095,125.329,117.207,110.819,113.135,93.283,104.713,301.027,93.453,82.922,93.721,30.165
0.8403384000994265,114.299,106.969,-20.439,25.294,110.414,113.139,287.144,99.775,121.754,123.836,132.104,107.723,116.832,132.229,183.309,138.934,119.348,117.234,134.425,122.725,116.343,117.12,99.338,117.929,295.603,104.631,90.011,95.164,55.238
0.8553030000766739,113.16,110.448,-20.418,22.707,111.841,116.1,254.581,105.311,118.558,125.762,131.972,103.517,112.105,120.314,179.027,140.845,112.569,108.92,129.168,116.455,112.129,112.392,92.066,109.101,308.628,102.989,85.31,105.315,36.227
0.8553668000968173,101.776,101.629,-32.693,16.537,109.167,98.565,233.322,85.225,96.923,109.754,118.008,90.093,96.623,109.947,168.09,130.458,101.698,92.417,115.206,106.092,103.82,102.546,84.802,87.475,341.107,86.492,76.516,104.697,3.915
0.8706695000873879,96.551,96.404,-36.247,12.422,100.861,87.196,265.876,70.283,91.703,97.862,111.23,86.417,94.477,126.743,157.675,129.815,106.719,91.813,116.628,102.912,102.691,101.419,83.692,83.29,345.376,84.869,75.927,98.957,20.818
0.8707321000983939,106.188,105.017,-18.792,12.922,98.199,95.305,273.807,80.459,106.98,108.01,120.34,96.064,104.629,139.424,149.833,146.591,114.809,112.213,127.27,111.519,110.273,111.051,90.781,101.137,312.756,98.104,84.56,101.42,53.585
0.8853192999958992,110.181,107.473,-18.773,15.471,102.711,97.259,265.337,87.551,106.361,112.0,122.782,99.554,105.037,126.99,137.9,154.129,111.108,120.81,124.069,118.067,113.237,112.989,92.227,104.11,305.27,96.469,89.087,95.683,42.773
0.8993319000583142,99.312,93.021,-43.345,10.844,101.072,87.428,277.879,75.168,91.398,99.081,111.9,88.184,93.149,113.543,133.151,145.778,102.288,97.123,113.698,108.727,104.414,101.093,80.352,87.099,316.236,84.589,80.288,85.853,10.454
0.9017249000025913,100.75,92.416,-39.716,9.809,101.995,92.976,289.897,72.531,95.405,102.055,113.325,88.608,92.031,112.917,141.215,151.268,102.186,86.267,117.683,107.594,103.285,103.554,81.296,93.16,297.477,89.628,78.159,99.088,11.981
0.9146075000753626,112.944,108.205,-18.159,19.021,109.578,104.154,275.774,82.705,105.043,114.761,126.532,100.815,101.673,116.902,143.123,168.023,110.793,106.161,125.762,120.806,110.354,115.233,94.535,105.362,318.696,99.784,89.351,115.895,44.757
0.9146823000628501,111.807,111.171,-20.702,22.588,113.567,104.05,243.223,88.77,103.401,114.646,127.942,102.763,104.133,121.908,139.906,172.978,112.219,109.129,124.1,121.71,109.219,112.044,91.366,96.548,351.165,100.197,93.36,115.266,49.323
0.9294564001029357,115.793,115.67,-13.509,27.176,118.064,114.704,210.705,105.075,113.544,123.753,132.425,111.882,113.25,134.082,150.525,185.612,116.205,105.434,132.685,123.638,115.258,116.543,92.812,106.697,329.809,108.806,96.853,123.348,51.322
0.9295202000066638,124.899,125.801,-0.688,32.272,118.97,122.274,243.282,111.63,121.628,132.851,142.027,125.603,124.407,142.657,155.497,201.821,125.823,119.673,143.311,132.223,124.364,128.209,102.453,121.96,305.401,115.357,102.392,129.885,59.98
0.9444078000960872,102.233,101.084,-32.963,9.698,100.921,89.877,275.826,79.243,97.427,105.566,120.88,103.448,103.278,126.121,128.19,185.737,114.426,107.258,124.212,113.136,102.21,106.052,83.907,90.075,312.78,90.651,82.822,101.578,34.305
0.9444659000728279,74.978,68.708,-63.668,-13.366,87.5,61.097,244.299,52.524,77.862,78.82,91.558,77.729,76.023,104.478,103.471,164.547,96.381,84.097,105.645,90.481,79.054,82.892,65.38,68.468,280.192,69.043,62.247,76.373,5.581
0.9594386999960989,89.76,82.984,-39.526,-0.032,99.195,79.479,211.78,76.037,93.666,94.111,104.274,92.508,90.804,113.082,119.761,180.776,107.043,107.066,119.883,104.223,95.369,101.764,81.709,96.576,267.104,85.881,76.017,91.154,17.359
0.9611221000086516,107.089,108.004,-26.679,7.652,107.293,99.38,242.306,89.281,103.306,110.923,125.174,107.785,109.668,128.338,141.158,198.526,115.645,120.792,125.399,114.365,108.594,111.396,90.336,100.066,299.625,100.652,90.797,107.969,31.174
0.9745035000378266,98.785,102.26,-44.071,-2.601,101.55,98.256,262.044,80.995,98.08,109.275,118.389,101.529,102.386,125.649,135.382,191.155,103.234,94.543,113.491,102.98,99.776,97.965,81.537,77.424,315.207,92.354,83.022,104.275,19.36
0.9745667000534013,99.198,100.109,-32.756,10.209,106.06,105.33,229.507,94.746,108.74,118.899,118.783,107.063,106.382,131.158,131.66,195.575,107.742,96.498,124.648,110.561,106.336,108.113,91.189,90.667,282.616,96.36,83.964,108.781,15.242
0.9905596000608057,101.148,105.644,-17.354,19.42,110.052,109.835,233.888,106.435,113.242,123.904,127.886,113.104,115.498,140.761,140.75,207.163,118.905,112.795,133.745,119.672,113.914,119.788,96.221,108.507,270.55,107.022,89.515,114.82,31.62
0.9906224000733346,83.116,90.681,-39.366,-2.116,99.183,92.819,263.368,86.348,92.637,104.312,114.438,99.158,97.451,123.202,135.486,193.123,102.904,90.141,110.557,97.523,95.357,97.639,78.194,94.054,269.255,93.595,76.106,95.238,41.323
1.0045843000989407,77.398,81.882,-51.622,-3.139,95.498,84.53,272.838,72.942,91.007,96.011,104.589,92.399,87.108,109.246,131.764,183.196,92.555,78.78,101.225,85.131,88.602,86.271,75.554,82.177,271.035,81.719,70.906,83.359,31.035
1.004650600021705,94.739,97.681,-35.177,17.869,105.136,96.741,268.467,89.263,111.408,112.821,117.292,104.602,103.414,122.457,153.15,199.407,106.295,98.169,121.616,101.952,105.42,102.578,91.36,89.267,303.552,96.494,86.717,103.256,17.172
1.0196054000407457,93.62,101.682,-34.629,8.63,101.958,97.668,235.923,98.395,106.686,113.733,115.638,106.035,103.311,117.212,162.73,200.232,104.139,92.948,121.494,100.825,103.265,103.5,89.732,93.276,304.273,102.033,85.093,110.837,6.909
1.0213118999963626,69.96,85.186,-48.427,-12.896,86.486,81.177,211.609,81.903,86.087,93.127,95.03,87.998,79.642,94.553,140.538,177.49,88.154,76.461,99.856,76.133,82.669,85.978,75.298,88.06,271.693,84.512,64.516,88.697,5.365
1.034608400077559,66.816,84.589,-41.206,-6.735,88.449,79.559,239.574,72.087,86.513,90.984,94.423,82.274,77.513,103.167,133.738,175.776,93.701,91.754,99.244,77.082,83.611,84.356,74.198,83.361,283.717,79.305,66.501,78.875,31.487
1.034671200090088,89.291,102.435,-25.283,10.178,105.267,100.484,246.507,89.946,98.722,108.312,112.259,101.147,96.391,125.606,156.658,193.531,106.415,107.031,117.588,99.034,102.483,98.104,85.394,89.425,311.61,96.131,87.439,92.116,60.657
1.0496462000301108,98.935,107.456,-26.795,13.754,108.235,105.506,239.088,98.053,99.648,110.765,117.27,109.756,99.88,123.943,159.063,194.874,104.772,96.678,122.081,101.497,108.016,101.592,90.944,99.07,288.757,104.232,89.913,102.27,40.104
1.064611400011927,86.541,95.565,-33.94,6.055,100.442,85.421,271.637,74.388,90.327,97.847,106.394,98.887,89.534,119.721,137.387,186.482,103.642,95.044,111.713,93.71,97.15,94.318,84.193,93.847,286.931,93.882,79.065,101.655,7.789
1.0646851999918,81.844,90.859,-32.37,-1.123,102.904,80.725,269.316,69.703,89.212,96.724,105.776,100.838,90.982,126.261,137.762,184.759,106.613,107.245,110.064,98.74,94.491,93.199,78.986,85.044,302.014,88.153,79.498,95.918,22.125
1.0796578000299633,94.569,98.453,-31.313,4.001,109.973,99.087,236.771,100.884,104.492,109.947,118.99,113.545,101.137,123.061,150.944,184.062,103.432,105.088,117.639,102.227,104.13,99.253,83.005,94.181,269.436,95.749,85.054,89.162,54.891
1.0797129001002759,101.647,102.965,-35.38,15.268,109.351,104.623,232.948,113.591,110.535,114.448,122.457,113.943,101.036,115.253,149.256,182.853,100.255,94.737,119.058,102.125,110.686,102.74,84.972,104.333,256.871,103.338,85.993,93.684,53.812
1.0947366000618786,94.373,102.35,-33.807,13.716,107.704,98.371,265.503,96.059,98.642,106.137,114.65,110.243,93.25,116.675,146.033,179.597,101.691,97.204,117.402,104.584,108.526,104.174,81.813,95.007,289.402,102.21,86.932,104.349,27.63
1.0948016000911593,89.156,102.76,-28.65,4.993,107.597,98.785,269.336,86.229,95.981,100.908,112.486,109.108,91.108,111.435,148.449,169.171,98.004,100.18,116.26,99.869,102.782,102.533,82.756,85.178,321.901,98.009,88.382,103.732,18.893
1.109758900012821,93.165,105.731,-25.036,9.086,107.489,102.272,285.46,92.803,107.669,109.516,116.472,111.048,99.213,102.102,150.349,164.903,90.221,95.469,117.681,98.745,104.216,101.918,87.796,92.265,289.303,98.936,88.806,97.993,30.145
1.1098267000634223,99.732,108.699,-17.838,16.249,110.968,106.269,317.963,96.296,110.635,119.14,121.991,121.696,107.823,112.759,160.445,173.96,92.692,99.985,125.247,112.478,112.309,104.89,91.294,101.907,260.837,104.985,92.303,104.555,35.75
1.1251591000473127,88.874,98.856,-26.017,2.401,105.734,95.404,286.906,83.392,95.667,108.263,116.234,119.525,99.519,122.892,161.822,163.54,93.112,101.422,119.487,107.243,101.438,96.076,81.469,87.973,268.261,95.146,87.088,97.79,16.759
1.125232300022617,62.657,73.654,-58.267,-22.705,87.697,73.279,254.344,69.477,78.153,86.638,97.162,96.864,80.976,116.621,138.606,133.662,80.723,88.513,96.314,81.008,79.82,77.537,63.457,63.294,258.259,68.923,69.07,65.417,-3.238
1.1397190000861883,65.668,69.482,-64.356,-18.583,93.245,80.378,238.72,83.24,87.296,95.26,101.676,101.89,88.58,125.214,139.492,134.553,85.253,95.084,100.316,91.173,92.548,88.218,72.103,73.477,246.217,74.489,71.562,61.766,7.524
1.139777100062929,98.39,98.102,-31.504,7.051,120.816,107.45,271.269,105.698,111.288,121.293,129.751,132.014,112.57,138.921,172.14,159.009,106.173,115.994,130.954,123.869,120.632,117.844,98.158,105.166,273.636,107.203,99.155,94.492,29.033
1.1549374000169337,96.755,103.639,-26.35,6.531,120.183,100.17,303.786,91.247,101.955,110.925,124.498,125.735,102.723,120.851,168.894,147.58,97.87,102.045,126.212,115.549,109.241,111.066,90.888,97.376,303.588,106.071,102.13,92.86,30.029
1.1550031000515446,67.969,79.97,-53.988,-11.918,100.595,78.553,332.683,64.516,79.311,87.248,99.783,101.018,78.03,97.677,138.499,116.694,75.23,76.84,99.958,92.891,89.664,86.876,71.329,72.688,285.866,78.3,79.999,70.738,21.802
1.1698625000426546,73.024,78.865,-49.323,-8.833,105.105,87.184,348.232,70.599,89.99,97.919,110.954,109.114,87.685,104.239,145.533,116.577,86.938,83.936,107.543,104.069,100.333,94.474,81.504,87.985,253.305,85.906,79.919,82.963,22.293
1.1699302000924945,88.833,93.643,-30.831,-0.115,114.222,97.855,315.609,86.41,102.708,112.166,125.187,122.325,103.479,115.918,168.441,125.682,102.22,96.659,123.829,116.773,109.454,107.699,89.62,104.803,242.806,103.239,94.183,91.589,23.807
1.1848181000677869,79.01,85.865,-48.731,-10.873,107.96,89.561,283.018,84.275,89.798,102.32,114.304,114.006,92.105,118.364,167.248,112.749,89.311,92.977,113.459,108.972,102.172,96.833,77.747,85.231,248.71,92.377,91.528,74.079,11.488
1.1848799000727013,69.709,72.971,-71.736,-20.084,103.754,83.323,274.025,78.555,80.999,93.508,108.554,104.67,81.767,117.733,159.909,98.291,86.147,86.224,105.661,101.178,96.435,89.564,76.132,72.85,273.052,79.99,82.215,66.32,-5.942
1.1998393000103533,73.226,73.923,-65.004,-17.502,103.138,84.777,295.268,77.452,84.504,94.439,109.47,101.492,85.784,108.906,159.749,91.533,93.234,85.113,108.629,100.052,93.777,95.622,80.667,77.9,300.444,79.91,79.059,67.791,-3.374
1.1998961000936106,81.35,82.558,-45.984,-13.386,106.621,88.791,289.85,81.473,89.03,98.956,113.459,105.489,90.309,105.211,161.126,85.294,86.993,93.225,106.984,105.588,97.269,97.064,80.074,80.384,286.311,84.953,85.64,74.383,16.097
1.2149380000773817,95.101,94.259,-30.568,-11.323,117.272,94.849,308.516,88.564,96.626,108.078,126.666,116.142,94.317,116.376,158.916,86.745,87.418,97.742,111.487,116.753,107.418,97.479,85.629,91.574,253.75,97.163,96.825,90.702,25.814
1.2299589000176638,95.518,94.677,-30.026,-13.874,116.643,90.656,340.995,80.791,94.992,106.946,125.514,112.439,92.685,116.772,145.949,85.634,91.429,81.25,115.474,117.661,105.774,98.918,86.056,98.655,261.18,98.603,96.728,86.513,28.35
1.2300270000705495,86.201,87.922,-40.242,-16.934,110.378,83.905,333.481,67.39,84.139,98.642,114.63,103.618,86.957,105.385,142.729,72.741,83.141,73.485,108.187,114.981,102.082,97.795,80.847,84.212,287.559,90.82,90.483,72.082,35.494
1.2300699000479653,92.775,95.519,-40.714,-9.744,119.49,92.531,300.873,77.569,84.567,102.129,120.663,106.588,88.407,110.403,164.103,68.057,86.644,88.268,113.714,121.526,110.689,102.82,88.963,86.177,288.296,97.901,97.565,81.744,32.385
1.245315800071694,92.169,96.96,-41.185,-7.173,123.981,94.488,294.936,85.176,81.921,100.49,119.006,100.846,86.27,109.268,165.988,63.891,90.655,87.667,121.797,120.38,109.041,103.742,91.948,104.021,271.614,102.414,100.542,82.687,14.422
1.259896400035359,76.196,83.543,-50.366,-16.9,114.635,76.462,308.986,68.184,71.593,89.631,104.03,87.425,74.4,90.715,143.281,45.384,77.245,74.772,107.331,110.014,97.149,94.417,80.073,93.159,260.072,89.504,89.17,68.772,2.112
1.2599596000509337,82.267,91.144,-44.168,-13.809,119.644,78.947,282.549,70.678,80.743,96.714,113.147,96.047,78.937,98.821,150.31,42.264,85.877,85.968,105.174,116.564,102.687,95.347,81.529,82.307,266.984,90.951,92.155,80.486,11.331
1.2749437000602484,103.702,111.033,-29.779,-2.524,131.307,102.435,272.533,96.735,98.593,115.06,130.965,113.369,99.862,123.826,174.238,58.616,105.259,102.788,123.512,130.279,114.368,107.034,92.719,102.205,286.697,105.717,106.92,96.287,38.472
1.2767860000021756,103.086,108.873,-35.897,-7.645,126.053,105.406,305.048,94.589,99.006,116.995,129.81,116.842,105.91,114.48,175.088,58.557,94.395,92.952,122.364,129.125,112.204,106.927,91.601,109.275,288.46,104.587,107.325,86.457,51.241
1.2900433000177145,96.835,97.493,-43.033,-15.834,121.316,95.567,337.531,72.977,93.784,110.73,127.118,114.164,96.07,95.41,171.84,46.716,83.542,70.317,113.532,126.434,109.018,99.648,84.85,91.235,274.339,94.236,99.021,76.637,30.698
1.2901164999930188,98.787,94.322,-40.429,-15.306,127.855,94.447,336.169,68.293,91.129,107.033,128.016,108.926,92.901,104.024,170.131,42.571,89.606,66.148,114.956,126.307,108.397,99.036,81.691,81.922,268.941,89.531,97.897,69.9,13.249
1.30503160005901,94.078,93.715,-47.56,-15.803,128.239,93.327,303.557,75.91,86.427,104.364,124.302,101.645,95.369,113.142,159.714,38.429,85.418,84.013,108.181,122.083,103.677,102.011,80.585,86.451,253.816,89.954,99.336,63.17,21.945
1.3051001999992877,91.422,98.745,-50.587,-13.226,122.988,94.259,270.978,84.543,86.853,104.772,123.153,101.031,91.688,108.418,160.067,34.293,86.87,95.712,107.048,126.059,106.135,105.495,83.578,95.586,232.557,97.036,98.725,74.378,30.632
1.3199618000071496,99.016,102.744,-42.852,-9.114,122.353,95.701,303.495,84.458,87.791,104.668,122.005,100.93,85.961,105.748,165.03,35.283,96.004,88.956,117.699,131.056,113.202,103.34,87.081,98.564,257.94,100.525,96.577,81.988,21.892
1.3200308000668883,97.892,94.957,-49.981,-15.765,121.718,86.896,330.856,71.054,82.068,97.391,118.809,95.194,85.875,105.642,157.18,34.223,88.736,83.232,116.045,125.29,110.014,99.139,87.506,86.17,290.47,94.79,94.943,69.098,10.087
1.3349515000591055,92.671,91.788,-61.714,-22.409,123.133,87.322,298.25,67.397,80.961,97.293,122.276,97.66,88.863,110.147,159.073,33.164,88.647,89.809,114.904,126.189,109.392,104.163,88.443,88.133,283.519,96.232,97.922,68.005,12.126
1.3365964000113308,99.751,99.381,-59.603,-21.874,128.133,96.456,315.37,73.477,87.028,107.954,128.814,105.759,94.409,118.746,166.086,37.742,105.977,97.916,122.986,136.821,117.48,108.157,88.355,103.415,250.96,102.795,100.898,75.621,21.336
1.3505722000263631,103.237,97.232,-62.105,-27.488,124.931,88.675,347.842,64.182,87.965,110.92,129.71,107.191,100.975,119.14,156.186,38.216,107.92,101.404,119.789,137.197,114.801,102.413,86.729,93.577,235.34,97.57,95.162,68.886,15.167
1.350670300074853,101.597,95.598,-66.141,-25.411,123.782,87.562,323.928,61.556,88.902,113.371,134.191,110.67,107.021,122.095,158.591,41.252,104.226,103.352,121.206,136.547,114.174,105.385,92.278,85.799,250.474,98.497,99.165,72.403,5.418
1.3654768000124022,113.278,110.872,-53.268,-6.943,135.953,111.553,291.329,87.11,99.059,124.016,145.84,118.756,115.111,129.657,177.9,54.018,110.782,103.249,135.43,147.681,127.379,118.087,99.87,108.255,283.011,115.817,116.484,88.724,18.22
1.3799639000790194,113.165,113.323,-42.456,-4.374,136.842,112.466,308.968,92.146,98.448,119.281,142.108,111.977,111.41,116.72,171.062,51.403,102.987,97.51,130.171,144.46,123.154,111.309,93.11,108.147,288.876,115.188,111.757,76.853,36.132
1.3800190000329167,87.949,90.668,-52.147,-28.448,116.213,82.639,341.447,62.34,79.394,97.133,121.986,91.373,91.319,94.062,150.911,28.81,87.002,85.629,108.524,121.262,102.538,90.193,77.648,79.861,256.312,89.97,89.104,50.648,35.072
1.38005860010162,79.664,83.405,-61.317,-37.129,111.998,79.483,308.83,61.253,77.778,97.036,118.79,87.695,87.129,104.214,158.445,25.707,93.575,80.421,106.366,118.579,106.022,89.078,79.107,82.343,254.006,86.294,92.088,56.233,23.766
1.3950431999983266,101.613,104.838,-53.571,-16.6,130.841,105.531,276.758,93.98,97.68,118.455,140.188,107.075,109.071,130.749,183.902,49.248,108.338,95.197,123.166,138.953,124.359,105.895,95.422,108.389,277.318,110.799,111.464,78.718,20.156
1.3968122000806034,109.709,115.492,-41.222,-6.337,137.371,112.598,309.269,97.472,100.144,122.948,146.195,115.165,115.11,123.446,188.841,59.445,107.205,100.737,128.166,142.4,123.722,109.376,95.327,111.354,250.913,117.348,112.889,77.615,31.919
1.4101284000789747,88.082,95.909,-51.427,-26.311,121.864,89.431,341.748,65.099,80.576,102.845,123.508,93.021,91.941,93.609,166.623,39.917,91.729,77.07,109.083,120.228,107.205,89.799,78.837,91.263,238.879,92.64,97.407,54.996,37.01
1.4101928001036867,69.551,76.857,-73.917,-45.24,108.934,70.899,333.721,45.054,69.225,86.86,106.99,69.874,74.943,88.392,148.013,25.021,81.903,62.649,93.604,106.276,95.827,73.827,72.611,74.778,271.428,74.104,85.527,39.059,16.481
1.4251544000580907,81.777,87.539,-67.183,-33.411,116.51,84.66,301.112,65.501,76.328,96.507,119.691,80.562,84.089,103.673,155.038,37.803,90.531,79.492,105.294,120.002,103.928,85.536,82.272,88.535,255.275,88.887,93.638,48.242,7.755
1.4401273000985384,105.261,110.505,-40.476,-8.787,129.714,108.142,276.733,91.563,91.62,116.903,139.551,102.511,101.936,107.156,166.153,56.209,103.248,90.171,120.045,138.325,120.218,101.332,91.924,113.037,222.744,110.827,111.988,66.636,30.289
1.4401899999938905,102.082,110.907,-41.46,-8.266,129.584,102.911,309.244,80.201,93.066,114.737,135.826,97.798,103.371,102.438,161.376,54.615,99.559,83.933,115.315,134.6,117.536,93.034,90.295,105.24,255.309,105.081,107.265,65.033,36.406
1.4551841000793502,85.074,99.525,-58.837,-26.189,123.307,87.951,341.722,58.604,80.677,98.229,119.808,82.843,89.947,104.897,156.604,46.364,93.824,84.362,108.539,123.195,107.172,83.207,83.545,86.691,287.842,88.07,92.813,55.234,22.025
1.455241100047715,87.55,100.963,-58.778,-32.31,121.646,91.961,309.105,70.328,79.06,100.692,121.225,86.859,88.833,107.866,164.132,50.928,97.316,84.79,108.431,125.121,111.163,92.346,82.436,92.752,261.939,89.519,98.868,60.302,26.102
1.4704465999966487,96.684,103.936,-54.621,-27.667,118.963,95.968,276.52,84.09,87.69,111.862,131.863,98.043,98.99,107.246,173.19,61.124,100.292,82.656,111.908,133.705,117.712,99.426,86.965,99.832,252.455,98.138,105.429,62.803,37.859
1.4705118000274524,95.563,100.246,-57.128,-25.59,121.406,96.384,309.032,74.272,90.676,113.287,135.317,103.58,105.551,109.188,180.189,69.772,106.34,93.844,124.604,140.231,121.181,100.863,92.001,101.781,262.449,102.651,104.811,53.006,43.456
1.486316499998793,99.054,103.219,-52.972,-25.052,131.53,104.485,323.067,74.198,92.122,115.735,137.231,109.112,108.007,113.689,185.644,77.899,114.43,98.361,131.14,144.189,125.158,102.811,94.47,108.339,253.989,107.159,109.83,54.49,46.486
1.486388900084421,97.93,104.141,-50.358,-28.101,128.325,99.769,316.596,73.612,87.419,112.546,133.508,101.83,100.215,114.088,179.823,69.624,104.07,80.844,116.664,135.336,117.348,94.512,88.741,102.596,242.465,100.904,104.084,57.51,33.632
1.500246400013566,80.414,94.815,-61.066,-34.221,114.364,83.276,314.743,54.07,75.549,97.064,118.517,83.798,86.282,105.777,166.835,50.599,90.133,70.005,104.764,120.344,104.935,85.708,80.455,95.321,232.488,90.557,93.222,46.181,24.377
1.500310100032948,73.673,92.671,-71.251,-35.723,115.275,83.193,282.153,57.602,77.523,93.893,115.325,82.177,85.683,97.474,169.23,49.524,96.703,77.107,111.832,119.199,108.417,91.77,86.522,104.959,256.847,95.59,96.715,43.574,35.624
1.5152797000482678,87.432,99.238,-64.52,-35.175,124.381,93.355,277.26,80.086,89.228,104.558,126.992,94.39,95.844,105.061,183.918,66.38,107.877,89.838,119.917,129.326,119.579,100.387,98.731,104.854,289.377,104.203,102.766,53.776,33.026
1.51534410007298,98.615,105.287,-48.061,-33.091,124.769,95.824,309.77,73.859,91.7,109.576,134.038,101.98,101.896,124.424,193.98,79.634,111.868,103.068,126.969,138.418,127.656,106.947,100.681,108.848,262.96,107.685,107.786,62.432,31.969
1.5303343000123277,95.955,107.231,-48.013,-30.496,121.57,93.166,342.248,55.854,86.998,107.417,133.391,103.415,100.257,122.25,195.835,81.091,109.707,99.891,128.891,136.23,126.504,108.889,95.97,127.695,230.422,111.164,113.314,63.906,61.651
1.5303971000248566,86.637,97.902,-69.482,-37.126,119.912,88.975,309.631,56.823,80.251,103.724,129.16,96.652,94.009,100.611,193.078,75.887,101.913,83.909,117.492,126.36,115.107,100.071,90.751,115.271,262.979,104.392,104.491,50.522,65.687
1.5453813000349328,92.698,95.242,-76.073,-39.65,123.378,95.546,278.582,68.549,85.294,113.354,132.104,99.117,100.063,107.683,194.422,83.496,106.421,92.535,121.473,133.406,122.164,105.094,92.709,96.713,295.504,101.214,102.85,42.787,34.883
1.5454454000573605,111.561,114.615,-57.553,-24.754,131.452,111.844,311.092,81.288,103.139,130.147,146.317,119.51,118.918,134.727,206.523,104.929,123.221,113.959,143.38,152.741,143.559,122.408,103.375,121.719,262.933,115.458,119.653,56.577,40.484
1.559305700007826,97.617,113.476,-54.934,-27.29,124.148,102.511,298.997,74.547,94.839,116.696,137.461,113.755,109.065,120.76,202.218,97.652,113.364,101.55,130.942,139.78,128.558,104.354,96.612,117.499,242.69,103.047,111.336,46.274,58.886
1.5593605000758544,68.318,88.259,-71.273,-52.878,107.63,80.379,266.423,52.955,69.641,91.477,111.196,83.415,82.828,88.364,179.474,71.939,88.66,74.296,102.122,110.951,100.765,78.122,75.511,85.106,269.6,71.693,88.171,17.026,44.483
1.5743747000815347,88.742,98.417,-63.005,-51.289,112.645,92.082,298.944,56.489,81.867,105.217,121.843,93.578,92.992,93.399,184.418,83.138,95.744,78.832,114.827,121.599,119.107,98.537,85.681,101.415,278.552,86.991,100.378,29.817,45.975
1.574432900059037,115.293,123.934,-41.425,-34.331,123.803,111.969,331.433,68.215,100.741,122.531,146.312,119.612,111.342,115.847,208.824,106.109,112.042,93.61,134.692,144.019,141.53,120.467,107.112,133.589,262.392,115.08,120.258,54.89,67.446
1.589530500001274,94.173,113.051,-53.167,-47.617,119.069,101.099,298.826,55.852,81.172,105.502,133.871,104.636,93.3,115.219,200.931,92.682,101.171,86.857,118.676,130.555,123.97,102.416,92.148,112.963,232.928,97.547,110.404,42.54,52.01
1.5895966000389308,84.858,104.742,-76.167,-57.815,119.974,93.826,266.252,55.796,74.431,101.298,126.564,95.309,85.522,109.468,186.897,84.905,95.947,82.671,111.897,120.69,115.137,94.117,79.249,103.629,220.912,83.617,104.658,33.788,33.002
1.6044620000757277,114.999,126.666,-59.697,-36.241,133.687,112.175,298.773,78.794,102.533,126.3,151.029,122.879,112.076,116.019,206.178,112.485,114.806,96.933,133.815,144.136,138.075,114.515,101.199,127.091,253.479,104.538,119.923,49.636,59.609
1.604529200005345,131.79,143.446,-26.85,-20.835,143.799,132.043,331.262,89.473,115.239,141.03,165.734,139.15,127.846,125.124,230.05,131.328,123.401,108.107,150.075,161.922,156.38,129.257,114.93,133.624,282.939,120.315,133.635,61.369,92.337
1.6198246000567451,129.097,146.376,-21.188,-28.499,152.877,139.595,298.656,86.822,107.951,140.377,164.544,136.449,124.132,124.999,236.48,131.196,114.568,108.511,150.949,157.662,157.761,129.64,110.716,140.151,252.43,124.806,139.137,66.943,98.905
1.6344529000343755,121.795,140.082,-48.319,-42.303,155.286,125.623,298.357,75.977,98.622,129.478,156.183,131.189,113.762,108.993,227.535,124.918,107.281,99.181,142.601,147.258,149.406,120.801,109.069,145.133,234.247,121.607,132.85,60.216,69.604
1.634513600030914,101.694,120.986,-73.374,-57.63,141.81,97.321,330.846,48.236,80.08,106.807,133.485,115.177,95.717,94.539,202.716,108.399,103.076,84.738,127.09,133.278,132.351,104.799,99.226,118.861,239.648,100.481,113.762,39.664,44.432
1.649500900064595,91.858,112.156,-69.202,-65.257,135.521,89.027,319.245,32.307,70.778,97.479,122.081,105.328,87.424,95.981,187.144,100.606,103.997,80.554,120.302,124.436,123.509,98.547,90.417,105.422,233.773,87.572,105.963,38.599,60.781
1.6512338001048192,99.963,121.266,-54.276,-64.679,144.607,98.671,286.65,46.107,78.392,107.115,134.766,111.37,93.997,98.447,197.203,109.727,106.967,88.671,124.793,127.385,130.558,103.571,93.913,117.612,242.248,94.145,115.079,47.782,81.725
1.6645534000126645,99.863,123.706,-61.906,-67.688,144.462,101.647,270.482,58.356,82.924,110.594,140.267,116.382,98.514,106.033,203.154,111.154,106.86,95.754,124.156,129.819,132.989,106.029,89.721,111.346,254.814,94.051,117.526,40.562,61.151
1.6646140000084415,101.3,125.119,-71.578,-64.035,136.121,108.205,302.999,57.785,88.477,113.045,141.151,123.438,103.026,124.37,202.951,111.043,111.364,100.782,124.544,131.227,130.294,107.46,87.582,106.624,244.313,93.444,113.31,37.448,47.77
1.6796044000657275,111.445,130.117,-53.576,-53.212,137.522,115.269,335.484,57.215,97.098,122.666,146.646,128.437,110.095,123.221,212.482,122.202,112.789,96.582,131.079,136.731,136.824,111.451,99.79,123.936,244.581,101.548,118.832,42.021,71.801
1.679666200070642,111.334,129.475,-46.35,-56.233,141.995,111.055,310.558,58.183,93.927,122.543,144.45,125.235,107.424,104.143,218.929,124.642,102.943,85.727,133.51,137.106,143.347,114.413,99.69,125.349,253.558,102.471,127.422,34.295,83.512
1.6945634000003338,117.882,133.956,-61.16,-59.25,142.365,116.067,288.218,62.735,95.882,122.421,150.965,134.331,108.341,109.674,224.346,123.493,108.988,96.4,137.475,143.117,146.278,123.008,99.59,118.051,252.792,105.955,132.418,38.359,72.67
1.6946199000813067,140.306,147.654,-54.951,-47.92,148.883,130.296,320.717,69.845,110.131,135.618,167.208,150.591,123.089,128.52,240.003,139.763,132.445,117.821,152.707,161.929,159.964,135.693,114.86,132.79,255.1,124.292,138.945,62.399,77.72
1.709575799992308,138.117,149.043,-42.601,-48.385,152.832,126.067,347.549,65.164,107.459,133.946,161.405,145.83,122.454,118.657,241.3,143.209,128.214,108.994,156.14,161.255,161.853,132.483,111.159,142.391,242.55,125.192,140.343,63.361,90.45
1.7112874001031741,113.388,139.673,-57.415,-67.292,140.384,109.547,314.926,53.828,88.909,113.32,143.313,129.802,99.79,96.509,224.665,117.963,104.519,85.318,134.979,135.478,138.637,114.42,92.604,127.392,229.5,105.087,130.981,41.781,85.749
1.7246573000447825,112.25,138.509,-65.043,-72.347,132.559,108.413,282.336,55.311,82.672,109.108,143.17,125.062,93.03,99.487,218.805,108.111,107.489,87.795,125.623,129.707,134.913,110.207,95.586,114.969,256.935,99.859,124.19,39.69,79.003
1.7400126000866294,129.044,148.104,-52.17,-54.344,145.234,123.674,314.841,63.453,91.299,123.856,154.298,133.646,108.306,118.343,226.27,126.446,123.263,103.588,139.842,146.484,155.782,119.831,105.224,119.465,260.264,111.03,129.189,52.458,85.584
1.7400730000808835,123.279,149.493,-55.704,-47.118,151.237,127.136,347.314,55.193,93.769,124.244,155.68,139.148,109.223,113.101,222.458,128.881,114.43,97.337,137.14,141.727,148.454,114.588,96.409,121.907,227.728,106.82,129.06,42.159,78.326
1.7401130000362173,98.565,128.851,-69.993,-69.612,133.667,104.468,361.823,33.108,82.917,108.238,139.131,123.639,91.695,88.397,197.132,104.162,95.361,76.748,112.412,118.531,119.616,92.956,81.456,103.342,224.939,83.659,109.463,14.452,49.559
1.7547211000928655,91.294,113.353,-67.874,-85.424,121.75,92.58,344.043,28.977,83.346,107.618,130.795,114.806,92.628,97.018,179.004,97.397,99.364,75.646,109.739,117.388,118.985,91.327,81.887,93.505,257.502,76.403,98.083,5.216,51.046
1.7547949000727385,111.183,129.121,-63.195,-65.359,132.387,118.103,315.522,54.563,106.829,131.076,151.156,138.77,115.589,127.147,196.244,118.817,116.683,95.551,130.633,136.738,139.87,108.141,95.125,116.978,253.658,97.332,115.916,21.605,83.783
1.7696805000305176,121.318,143.849,-69.279,-54.022,139.939,131.817,282.931,69.365,113.382,138.63,160.739,149.902,121.621,118.311,216.54,124.846,116.054,98.017,134.601,139.163,142.292,111.107,98.616,126.595,244.183,105.944,127.583,35.928,77.551
1.7715086000971496,107.877,133.459,-74.846,-71.899,129.553,108.631,266.255,49.828,88.678,115.437,139.573,128.235,103.569,93.089,206.077,107.815,101.081,78.451,120.634,124.679,131.391,98.188,87.247,105.463,248.55,92.518,114.648,32.818,48.272
1.7847656999947503,109.306,132.301,-65.549,-72.852,123.788,103.912,274.698,42.606,85.003,112.76,139.434,129.131,100.391,103.243,204.334,111.293,107.64,85.032,124.612,132.239,137.407,101.676,93.82,112.53,247.789,99.085,116.07,28.687,70.253
1.7848314000293612,133.275,150.612,-42.43,-54.336,134.423,130.448,296.452,68.179,110.021,139.288,165.422,156.667,120.783,123.119,233.332,136.797,132.123,115.173,148.566,158.747,159.299,123.604,116.267,140.595,264.959,121.015,139.008,39.417,102.971
1.7997494000010192,137.752,155.072,-35.727,-55.819,138.387,133.392,328.943,68.623,110.936,139.148,167.306,158.047,124.761,122.996,244.881,139.222,133.015,112.497,154.053,159.101,164.775,128.091,115.639,132.769,281.088,117.308,139.893,49.111,96.208
1.8147187000140548,114.048,137.498,-57.721,-77.792,120.83,104.057,354.23,36.279,83.672,110.32,142.036,133.298,97.996,112.115,220.558,114.492,113.927,87.281,129.308,134.351,141.557,107.471,94.518,109.07,265.438,97.723,117.212,30.619,74.595
1.8147784000029787,94.979,119.942,-74.057,-96.157,101.754,88.583,321.6,19.849,69.756,98.427,125.5,117.284,76.894,97.146,198.308,97.471,105.616,88.219,111.248,123.458,125.534,92.506,83.153,104.351,248.266,86.867,103.775,-0.662,61.2
1.8298233000095934,95.909,120.847,-67.835,-97.086,106.263,102.327,289.003,40.834,79.933,110.111,132.034,123.826,88.088,92.438,197.598,101.985,109.097,98.889,122.407,132.044,136.167,102.148,88.705,112.955,228.55,87.805,108.794,-3.736,52.942
1.8298776000738144,112.719,135.583,-65.206,-78.546,124.6,119.643,321.502,58.724,100.345,129.469,152.907,147.269,112.59,109.251,210.72,118.277,115.135,96.741,141.753,146.256,150.887,119.976,104.498,128.212,206.293,103.086,119.956,19.834,61.598
1.844846700085327,124.901,140.57,-73.85,-73.344,126.524,120.548,353.968,52.005,107.929,140.61,160.951,157.88,117.601,118.364,219.731,122.769,120.143,97.156,141.611,151.233,151.249,122.418,107.98,133.719,219.919,111.692,124.959,28.524,69.221
1.844910200103186,116.58,130.696,-80.948,-93.763,113.078,109.157,365.397,28.899,91.428,126.637,147.982,140.303,99.552,106.975,206.703,105.74,111.826,96.034,127.125,138.786,142.901,110.512,92.503,116.167,239.679,96.211,117.149,12.101,58.393
1.8602634000126272,112.365,130.565,-80.355,-95.206,112.965,108.023,332.756,26.309,84.164,114.728,144.248,133.503,93.817,102.257,195.226,98.462,104.03,91.328,126.998,133.012,143.27,107.84,89.336,105.292,237.902,90.48,115.495,4.917,58.847
1.8603292000479996,120.449,138.632,-73.615,-76.668,123.61,119.698,300.148,51.385,101.498,126.908,154.35,149.764,109.605,108.815,209.888,112.196,112.123,94.822,136.604,144.15,150.299,115.929,101.03,111.847,258.157,101.148,122.04,16.183,59.813
1.8749238000018522,116.743,131.833,-75.59,-84.788,118.364,120.091,294.725,58.506,105.495,129.343,151.122,150.638,111.545,103.07,217.362,109.522,112.523,91.141,130.833,139.907,148.099,111.715,95.806,109.686,271.218,95.411,114.233,15.142,42.335
1.8749862000113353,115.089,129.14,-77.052,-97.511,116.196,114.848,281.11,46.152,94.631,122.041,147.384,142.803,102.724,94.258,212.022,97.117,105.238,85.415,126.091,134.132,146.414,105.968,91.099,109.576,238.672,91.217,107.459,5.905,58.686
1.8898715000832453,131.368,145.917,-64.679,-83.069,131.961,122.93,311.568,46.106,95.049,131.653,158.508,152.906,108.769,104.922,224.105,108.291,115.379,96.088,140.822,150.904,158.051,119.182,103.816,126.373,215.379,108.545,124.77,16.658,91.415
1.8899304000660777,130.212,148.845,-67.176,-80.936,132.342,119.733,344.044,34.277,91.368,129.984,155.275,154.29,106.099,109.94,227.467,112.793,119.874,96.504,143.755,152.29,158.405,121.624,101.663,129.832,220.799,108.948,130.281,21.764,71.344
1.9049723000498489,124.958,138.962,-78.892,-88.54,126.062,111.416,311.424,28.095,86.666,120.121,149.485,147.476,97.796,94.974,194.964,99.873,112.07,88.211,135.926,144.965,151.587,113.818,95.414,120.993,236.972,100.13,118.367,16.107,38.997
1.9050362000707537,150.449,152.143,-62.932,-75.132,144.891,132.309,278.837,60.855,103.485,140.493,170.34,164.235,115.116,96.928,162.494,111.044,122.204,102.98,149.623,173.51,165.268,127.024,109.663,124.459,269.523,113.35,126.958,30.948,57.401
1.9200725000118837,147.224,150.966,-68.504,-85.815,146.795,129.616,311.346,55.671,99.795,138.303,169.657,164.583,114.489,110.151,130.056,111.445,121.057,101.34,147.936,181.533,163.053,123.823,105.455,115.625,266.692,106.577,127.856,21.183,66.565
1.9201413000700995,114.802,118.54,-100.711,-118.005,115.91,97.211,343.823,23.34,67.42,105.889,137.212,132.143,82.099,97.745,127.877,79.058,95.321,71.524,117.562,149.076,133.689,93.986,81.783,91.431,234.15,77.781,101.6,-11.113,44.982
1.9349833000451326,124.421,125.594,-98.049,-103.03,118.356,104.798,311.203,34.075,75.037,116.03,141.686,137.134,87.14,90.475,160.537,82.565,100.861,78.113,124.617,147.903,142.776,104.65,92.46,105.684,232.379,92.56,106.622,0.168,52.109
1.9350567000219598,157.084,158.256,-65.163,-70.139,148.463,137.481,278.617,66.828,105.189,148.701,171.77,168.76,117.791,102.168,193.164,111.172,120.227,100.576,148.571,176.956,167.737,130.161,108.249,131.194,264.934,116.546,130.081,32.956,62.816
1.9499866000842303,130.799,139.654,-82.516,-91.586,140.118,117.876,311.126,43.708,88.69,127.036,154.18,153.734,102.817,91.82,169.405,88.519,101.152,82.033,126.905,156.799,147.589,104.928,88.673,109.033,232.394,92.351,115.094,10.381,42.261
1.950042700045742,104.541,114.924,-107.537,-110.449,118.973,90.093,343.603,11.389,69.645,104.879,133.534,130.527,83.246,77.896,165.137,62.303,88.755,65.557,107.311,132.052,131.048,84.33,76.801,90.481,199.886,75.865,97.561,-16.269,28.386
1.9650886000599712,122.879,128.641,-94.109,-93.945,123.977,104.348,310.984,31.357,81.871,121.168,144.159,139.618,90.335,86.015,181.878,71.975,98.913,75.737,117.449,141.653,142.7,97.566,82.36,102.174,223.765,87.06,105.148,2.19,26.821
1.9651532000862062,119.683,123.902,-86.331,-103.585,124.878,101.682,278.397,33.887,75.642,112.85,136.33,132.818,78.974,76.195,170.937,61.144,83.445,67.465,108.623,132.803,133.848,88.759,71.519,90.801,246.082,75.189,99.407,-4.472,29.355
1.980085700051859,106.243,113.532,-79.584,-114.752,119.63,92.871,310.906,22.071,65.832,99.93,127.996,121.927,69.161,62.798,175.377,48.275,75.676,61.25,103.903,123.448,128.078,80.474,71.96,82.513,245.836,67.43,93.672,-24.447,55.966
1.9801520000910386,127.654,135.448,-66.185,-89.534,130.269,111.733,343.383,42.028,86.771,120.834,148.873,140.248,88.56,83.228,202.354,67.182,99.167,76.558,126.341,144.329,148.443,103.959,93.917,110.607,277.866,90.416,108.436,-3.931,65.644
1.9960882000159472,133.674,139.411,-84.049,-85.346,132.188,112.646,310.764,48.646,88.221,122.763,149.749,143.694,88.471,88.268,188.832,66.091,96.506,71.358,122.116,143.673,145.733,104.88,90.749,111.009,288.347,91.35,108.84,6.832,33.303
2.010112200048752,116.634,120.828,-98.31,-103.704,122.834,97.677,282.277,30.667,68.153,105.734,134.23,128.181,71.989,63.589,159.954,45.02,80.016,57.454,106.625,129.697,131.755,87.357,78.363,92.455,255.783,76.914,98.997,-10.081,23.536
2.010176800074987,129.325,128.904,-77.207,-97.453,131.933,104.751,314.782,30.636,76.282,117.411,147.416,141.885,84.212,70.185,162.868,55.733,91.719,73.791,124.961,147.498,148.017,102.638,93.654,114.392,229.912,92.207,107.607,-2.899,49.64
2.0251573000568897,146.102,141.071,-68.933,-89.671,139.998,113.356,307.295,37.266,88.501,130.614,159.564,159.162,97.448,97.78,167.315,69.51,100.336,83.963,137.132,161.183,159.652,117.905,100.22,127.085,253.76,102.873,117.233,9.4,53.689
2.026840200065635,137.246,135.807,-77.573,-91.118,135.759,112.73,274.712,37.228,82.265,123.823,152.744,153.367,92.74,100.243,166.636,59.707,95.625,73.121,125.724,153.337,151.808,108.053,86.288,104.417,275.536,94.061,115.579,2.218,45.438
2.0401831000344828,140.183,138.232,-69.811,-83.855,144.333,117.228,307.225,41.29,88.842,129.335,159.764,158.849,99.307,92.971,182.351,62.721,102.19,79.707,130.209,158.819,159.34,113.581,93.374,106.361,287.043,98.577,120.587,6.826,54.102
2.0402479000622407,149.777,140.656,-66.667,-86.332,149.312,116.086,339.706,36.125,96.95,135.865,164.215,171.498,108.429,90.316,187.291,73.929,103.112,92.948,139.813,165.832,165.329,122.176,104.039,121.112,282.658,105.139,123.028,10.918,60.708
2.055191299994476,134.258,126.683,-81.457,-101.103,132.256,103.163,307.091,21.745,81.996,120.873,146.12,156.982,93.464,84.078,163.026,58.998,90.714,82.096,129.939,153.884,150.306,105.66,90.102,105.622,260.858,89.665,108.56,-5.999,47.327
2.05525720003061,120.803,117.847,-85.987,-105.1,126.489,94.35,274.508,23.26,70.131,110.506,138.801,139.406,80.563,76.31,144.932,41.008,84.988,65.62,119.05,145.02,143.496,97.87,81.303,94.757,260.597,79.329,100.767,-12.653,26.275
2.0702093000290915,137.589,129.0,-68.995,-97.31,141.219,103.99,241.958,42.192,79.283,121.666,153.007,152.075,90.216,76.746,160.669,53.263,87.464,67.092,127.128,154.097,157.185,114.678,98.128,115.667,274.681,97.692,117.572,1.192,32.909
2.0702683000126854,158.968,146.289,-51.507,-83.893,149.275,122.841,274.504,54.445,95.085,136.913,167.711,173.439,103.958,90.501,190.222,72.677,97.11,82.394,145.444,170.337,171.372,126.859,112.887,136.556,269.796,117.575,133.848,15.023,64.127
2.0852402000455186,149.075,143.069,-65.8,-85.858,143.49,117.595,307.017,33.898,95.502,133.19,164.982,170.704,100.78,97.071,189.007,65.944,104.698,88.971,143.25,167.605,166.59,120.584,102.015,127.71,252.62,109.26,125.005,17.57,57.915
2.0869362000375986,118.188,116.798,-98.01,-113.437,131.563,88.788,290.317,1.589,73.89,111.54,142.275,150.554,84.798,75.969,156.542,43.849,93.323,76.075,116.466,142.334,144.907,102.533,79.884,101.455,229.826,82.511,103.363,-3.453,25.582
2.1003495000768453,117.045,111.046,-97.399,-117.935,129.895,88.187,257.751,9.272,65.107,106.306,136.497,145.792,80.103,65.135,141.017,41.756,86.569,67.289,114.301,139.118,140.663,96.795,81.853,97.255,228.059,78.842,101.211,-17.794,25.556
2.100414799991995,148.691,136.55,-64.514,-91.689,142.06,111.665,265.69,36.927,83.485,124.642,158.903,161.016,93.855,88.636,154.196,57.084,101.34,81.055,137.24,164.594,159.99,114.629,100.727,115.601,260.619,99.768,114.942,5.79,54.22
2.1157228000229225,153.153,144.098,-55.741,-93.134,141.918,108.48,298.212,27.157,84.938,128.104,161.817,164.441,97.347,99.818,146.357,58.051,100.726,90.195,134.541,164.942,157.781,117.076,97.552,114.461,293.146,102.23,115.852,21.154,55.702
2.1157859000377357,132.508,129.61,-73.103,-108.923,132.043,95.051,302.525,12.273,75.119,115.68,143.725,155.055,85.467,84.861,123.157,44.673,86.281,81.908,118.013,146.334,142.254,99.54,84.135,102.563,260.577,86.246,106.514,3.714,51.036
2.130351100000553,134.424,128.456,-78.666,-96.518,137.546,106.227,269.947,26.605,84.778,118.126,148.704,155.412,85.893,80.165,128.157,43.604,91.83,76.191,124.043,150.798,151.333,101.49,90.198,108.608,228.041,85.135,106.408,-2.437,54.059
2.1452828000765294,141.462,132.426,-78.587,-90.274,141.507,108.682,268.14,27.603,85.206,122.107,155.728,157.306,90.418,82.647,141.348,49.196,97.373,76.627,126.993,156.795,156.305,111.122,94.719,114.135,230.375,93.247,108.863,4.225,43.246
2.1453354000113904,141.833,137.416,-70.311,-98.381,137.267,101.914,263.261,22.452,76.923,120.96,151.986,159.198,89.303,83.589,144.793,52.732,92.665,81.673,127.378,155.614,152.05,111.524,94.624,116.07,221.947,97.252,112.852,10.368,45.764
2.147264000028372,160.134,156.234,-47.7,-83.938,149.425,120.255,244.555,48.557,95.802,134.159,169.252,176.457,103.559,97.337,163.604,67.024,105.892,94.399,147.743,171.34,171.366,123.708,105.288,132.86,231.459,109.45,127.597,32.387,77.994
2.1604170000646263,161.511,153.516,-48.677,-80.78,149.276,123.721,277.098,49.534,101.854,135.049,172.157,177.818,107.553,101.339,169.076,69.007,108.348,92.256,146.57,170.144,174.781,123.584,104.671,129.141,264.015,107.292,124.395,30.306,84.064
2.1744301000144333,129.074,121.087,-74.756,-111.438,122.486,91.322,309.608,17.209,71.014,107.25,139.709,147.414,77.22,78.183,138.168,40.248,81.6,68.597,114.661,139.235,142.331,94.259,84.586,96.737,270.411,75.421,96.094,-2.0,51.704
2.174494200036861,122.285,116.868,-72.632,-113.888,122.364,85.595,277.023,17.704,68.381,103.044,135.984,142.656,70.483,70.933,129.321,33.036,78.957,66.479,114.546,137.047,140.139,91.091,82.964,93.054,244.526,67.149,92.924,-6.609,31.16
2.1894699000986293,143.168,138.268,-55.653,-89.695,143.758,111.125,244.471,50.474,91.879,122.409,160.438,166.079,94.491,88.28,154.294,56.569,101.419,87.417,133.899,155.353,164.59,112.004,94.664,116.527,227.375,91.16,112.299,26.186,39.838
2.189533600001596,133.29,128.908,-69.942,-96.778,132.344,102.817,277.014,38.128,83.59,115.114,147.983,158.741,87.736,86.143,152.603,52.414,92.609,83.232,120.958,142.902,153.154,102.671,87.398,109.75,215.877,86.971,101.94,14.889,51.582
2.2044421000173315,117.788,112.385,-81.655,-114.1,117.355,83.246,309.525,9.4,71.211,103.728,129.904,142.7,71.254,66.589,137.081,34.431,74.585,64.193,105.98,126.878,135.07,86.686,74.502,92.222,211.563,65.879,85.444,-11.766,54.092
2.2045100000686944,122.281,118.421,-68.253,-107.838,125.434,91.872,276.94,22.711,80.874,111.309,139.508,150.755,83.479,61.912,142.067,40.032,79.634,62.592,110.485,128.8,138.522,90.698,74.94,96.228,226.72,69.399,90.994,-0.484,43.279
2.219562100013718,111.913,116.765,-70.234,-111.316,121.21,86.657,277.175,19.615,71.571,100.951,131.171,143.432,80.321,68.51,143.462,37.942,80.066,63.042,101.665,119.45,131.211,84.46,74.353,92.546,229.567,68.305,87.829,4.128,26.33
2.219630000065081,101.042,108.452,-79.898,-123.5,110.843,67.615,302.513,-5.508,55.618,86.506,116.183,128.431,63.335,83.298,142.806,28.683,77.425,62.466,95.416,113.695,125.444,79.252,73.254,83.744,202.185,57.991,79.545,-11.246,25.279
2.234524500090629,118.872,119.614,-67.523,-109.544,124.052,79.843,269.936,11.403,72.981,103.326,132.461,146.234,76.079,96.535,162.131,45.048,89.643,73.674,112.226,130.487,140.688,95.054,82.402,95.956,203.008,71.253,89.711,-4.575,43.696
2.234589700005017,128.999,126.154,-56.184,-94.066,131.613,96.157,248.661,35.983,85.716,113.981,145.136,158.895,87.786,80.557,173.752,55.761,91.09,78.212,117.749,135.992,142.596,96.496,86.418,101.495,235.593,79.379,95.769,6.701,53.387
2.2499095000093803,122.21,120.393,-58.69,-101.656,124.309,91.962,281.2,28.262,79.482,107.719,138.843,148.49,80.014,70.742,172.554,49.046,83.827,78.646,110.459,130.221,134.769,89.74,81.721,93.709,242.529,71.102,92.6,5.157,44.112
2.2499710000120103,128.236,125.908,-54.532,-98.993,125.721,96.993,281.431,31.82,87.6,118.37,145.364,155.514,89.668,98.849,180.578,59.243,92.964,86.252,117.009,137.263,144.881,101.946,85.738,107.448,210.011,81.79,97.118,14.886,37.92
2.2645189000759274,131.181,127.319,-57.552,-90.185,126.108,100.483,253.485,37.936,89.049,119.276,146.244,159.969,95.726,100.799,178.861,65.331,92.359,76.944,116.892,136.613,148.834,103.893,88.726,115.025,194.432,86.831,93.947,17.432,36.345
2.264574300032109,112.607,108.748,-73.888,-105.976,114.711,81.939,258.355,15.357,66.931,96.103,125.093,136.243,72.576,68.423,158.19,45.286,72.287,59.448,98.844,120.595,128.705,82.784,74.293,88.27,218.316,61.129,82.07,-3.59,28.112
2.2796117000980303,104.81,96.344,-76.888,-121.239,112.035,73.148,267.318,4.583,62.253,92.933,120.869,127.397,64.819,65.793,148.81,38.581,71.19,65.537,92.598,114.839,121.404,78.091,67.558,74.349,208.364,53.383,82.5,-13.32,31.158
2.279677400016226,121.611,110.593,-59.905,-104.724,120.12,88.444,259.366,23.021,80.634,111.795,138.679,144.176,84.734,91.342,161.469,58.01,87.512,79.816,108.899,129.069,139.726,96.456,83.885,93.23,221.988,71.773,90.615,1.55,50.082
2.294703899999149,136.859,127.9,-41.914,-86.689,127.172,101.163,262.18,32.732,90.799,120.905,149.299,153.254,93.359,91.763,173.09,70.759,92.036,83.834,123.647,142.772,150.345,109.167,94.559,106.457,254.554,79.898,99.233,13.332,60.278
2.2947693000314757,132.623,123.162,-42.385,-95.824,128.069,101.062,268.578,29.113,87.122,118.735,145.051,148.49,87.63,76.815,169.331,69.152,86.308,82.214,122.499,139.555,140.973,105.472,85.243,104.302,222.024,78.793,106.306,11.269,54.582
2.3096552999923006,124.294,115.354,-60.785,-105.462,122.818,98.912,273.433,28.572,82.425,114.518,139.271,142.706,83.444,72.639,164.551,66.521,81.611,73.935,116.229,131.731,138.783,99.731,80.035,105.222,189.526,81.276,102.614,12.795,43.769
2.3097154001006857,130.317,125.997,-73.02,-95.11,121.158,100.35,274.696,31.617,82.342,114.403,142.205,140.514,81.311,86.399,179.243,71.578,79.48,69.25,120.211,137.747,149.915,106.803,88.152,107.678,222.124,83.244,99.437,23.028,32.967
2.3246371001005173,136.335,131.507,-67.312,-86.306,126.673,99.225,249.831,30.561,79.186,115.314,145.649,140.886,80.717,99.12,192.384,75.092,80.938,74.304,124.701,140.683,150.789,113.357,89.088,106.546,254.69,82.648,105.486,21.468,31.397
2.3246928000589833,139.272,126.252,-56.998,-89.806,132.181,100.15,221.916,31.555,79.107,118.784,150.114,145.868,88.834,95.947,198.339,81.677,90.591,84.476,129.187,142.592,153.712,113.243,91.561,110.538,228.308,85.64,112.04,18.885,46.735
2.339739700080827,157.064,139.958,-45.67,-81.007,139.221,120.03,238.601,50.479,97.983,136.596,166.358,163.14,106.676,100.975,217.097,102.088,104.845,100.273,148.014,160.38,172.002,124.913,106.326,122.723,217.321,96.825,120.125,39.359,60.008
2.3548105000518262,155.37,142.892,-48.699,-79.389,131.398,126.058,271.15,56.576,103.52,139.021,165.68,163.489,105.544,108.558,212.269,103.523,99.104,96.586,145.816,156.634,163.121,123.763,100.584,121.575,205.32,93.654,117.956,41.881,46.628
2.35487570008263,122.939,111.498,-66.068,-106.462,109.237,93.656,303.666,25.269,76.777,109.681,135.288,131.051,80.336,85.908,179.781,73.193,74.927,71.899,113.395,124.714,130.682,94.951,76.405,101.986,181.037,66.408,96.321,10.588,27.626
2.3700655000284314,128.451,111.899,-55.756,-109.429,116.812,90.489,300.289,23.706,79.774,110.083,137.714,126.821,81.792,82.748,180.626,74.657,81.0,75.925,116.356,129.2,138.748,97.417,83.501,101.884,213.643,64.293,94.175,14.164,44.505
2.3701224999967963,157.524,144.063,-30.597,-78.581,139.749,123.186,267.713,56.47,107.871,138.15,165.241,154.359,107.326,112.379,213.233,102.759,103.46,95.317,139.293,151.612,161.663,119.861,100.836,112.541,246.217,85.233,114.573,40.79,67.002
2.3847145000472665,133.288,129.062,-49.01,-86.187,120.654,107.693,235.17,46.168,87.271,122.13,144.071,135.249,91.337,96.898,195.601,85.238,85.938,73.193,112.001,127.382,137.423,95.663,82.804,91.936,213.696,64.143,101.651,16.671,46.955
2.384774500038475,111.126,101.268,-72.527,-110.179,103.627,80.433,211.881,22.555,66.691,101.004,121.385,108.474,68.704,64.526,172.864,65.172,67.922,57.75,93.446,111.373,120.38,80.198,72.988,81.598,181.207,42.562,82.082,-8.962,35.125
2.3997145000612363,140.216,121.659,-54.524,-92.651,125.553,104.944,244.457,44.562,93.265,122.42,147.392,131.419,91.177,86.49,199.844,94.309,91.932,87.919,126.141,138.927,146.387,112.905,95.456,114.304,213.813,74.282,101.467,17.687,59.68
2.4014132000738755,140.076,125.123,-52.42,-87.435,118.255,100.228,277.0,30.685,88.561,119.736,144.17,129.239,91.598,96.65,201.693,97.801,94.402,90.904,123.965,134.177,145.728,109.719,89.726,116.239,221.284,82.917,107.001,24.842,42.714
2.4148448000196368,107.661,94.26,-78.495,-113.988,87.398,67.852,292.604,-1.621,56.197,90.414,111.751,96.834,59.231,66.327,170.24,65.427,64.593,58.538,91.566,102.28,116.893,77.334,65.045,83.847,193.398,50.559,81.279,-3.36,10.396
2.4149123000679538,120.361,103.899,-70.22,-104.14,105.754,86.228,260.036,26.045,70.997,101.595,125.984,106.983,68.906,72.921,180.829,74.584,72.213,63.09,107.868,117.034,127.023,93.65,79.325,84.788,225.992,54.095,86.833,3.816,39.587
2.4298287000274286,152.516,136.583,-39.923,-76.371,132.288,118.929,245.944,58.807,97.054,129.67,158.645,135.566,101.624,105.636,212.923,107.297,104.417,94.79,140.548,148.68,156.609,125.32,105.373,110.318,258.554,86.828,114.923,36.6,67.725
2.4298924000468105,155.949,140.033,-28.1,-81.418,120.885,108.052,278.486,44.404,94.908,131.59,155.925,134.405,103.06,115.776,216.296,113.849,108.411,102.38,137.846,147.507,159.014,123.145,104.755,125.577,226.02,94.938,117.37,50.396,49.726
2.444839800009504,144.523,132.208,-28.072,-89.021,114.104,96.161,273.597,29.502,91.227,122.749,146.036,124.025,92.711,104.39,201.223,104.002,92.421,85.884,121.314,134.039,146.56,116.362,91.843,130.575,193.519,86.134,108.543,41.636,55.824
2.4448973000980914,128.497,121.83,-43.413,-88.932,116.04,95.04,241.048,31.01,77.303,109.818,136.668,108.532,79.81,78.157,182.579,85.967,76.959,64.281,105.824,122.635,131.556,104.975,80.48,108.415,226.113,72.728,98.701,22.127,62.941
2.459839200018905,134.003,121.196,-54.128,-87.306,111.825,96.482,230.56,33.54,72.103,111.758,136.531,103.812,77.681,72.444,184.446,84.856,80.981,68.315,110.329,126.61,133.986,101.796,86.035,94.474,258.674,70.094,97.065,28.764,40.849
2.4616763000376523,166.657,150.276,-21.287,-64.677,128.107,123.025,263.118,63.733,104.818,144.434,167.133,133.422,108.342,105.159,212.95,117.559,108.564,101.035,140.444,155.173,163.054,130.383,109.515,127.168,256.879,99.738,120.534,61.523,65.911
2.474965700064786,161.367,155.761,1.276,-54.879,134.639,127.513,295.642,66.231,112.911,144.802,167.991,132.264,112.844,110.177,207.614,117.442,107.431,101.958,134.156,153.993,159.305,130.253,103.258,131.139,224.347,104.249,124.512,57.876,98.633
2.475031900103204,128.931,123.33,-31.0,-86.075,106.84,95.11,299.445,33.889,80.522,112.381,135.547,99.857,80.456,77.792,175.131,85.049,75.048,69.581,101.747,121.564,126.87,97.847,70.879,98.732,197.482,71.869,92.112,25.542,66.259
2.4910094999941066,130.339,118.596,-45.314,-94.698,102.122,88.355,266.87,29.244,73.269,106.634,133.363,91.56,72.691,74.64,168.296,80.353,72.412,64.388,103.182,117.856,128.28,99.286,73.882,101.195,196.26,67.186,85.872,32.177,34.429
2.4910752000287175,159.41,145.63,-12.993,-64.889,121.488,121.054,242.525,62.003,105.984,139.315,166.017,124.256,105.406,105.816,197.842,113.06,101.028,90.964,132.28,148.989,158.378,128.901,96.862,133.882,211.433,99.395,112.426,64.932,61.547
2.5050095000769943,151.566,142.41,-14.517,-57.652,116.243,119.909,275.07,60.404,103.829,139.688,160.728,126.181,105.301,101.612,206.353,113.972,99.391,86.775,127.537,145.766,149.51,120.575,92.667,125.039,242.472,93.66,110.777,55.646,70.707
2.505076800007373,141.168,129.972,-29.36,-69.377,108.442,103.907,268.647,43.95,88.356,124.691,148.784,112.222,93.412,94.338,203.585,102.587,89.045,81.565,119.725,133.837,140.652,114.819,87.964,107.495,265.284,80.758,99.908,41.758,63.976
2.5200212000636384,154.347,134.965,-11.4,-68.796,116.531,115.586,236.103,57.738,98.001,132.251,160.418,115.696,101.516,102.953,208.505,110.169,96.641,97.365,128.827,143.95,153.319,127.512,98.122,122.244,239.403,95.022,109.03,49.401,75.183
2.521742400014773,148.557,129.195,-12.413,-71.801,111.803,111.885,268.655,53.582,98.415,128.02,153.086,109.945,96.291,91.579,198.05,104.424,89.884,85.484,119.477,138.683,140.358,116.114,89.827,120.073,206.888,89.292,104.822,40.13,66.911
2.5350526000838727,129.966,114.209,-37.503,-79.926,104.519,92.817,301.174,37.647,86.022,112.523,137.563,95.491,83.899,84.315,183.507,90.999,80.06,65.419,107.062,124.199,124.848,102.165,77.954,106.633,194.386,72.296,91.397,28.819,42.253
2.550085900002159,133.934,115.119,-34.392,-74.723,107.489,97.848,268.597,46.318,87.985,117.021,142.549,97.957,90.476,97.038,189.984,97.568,91.763,85.846,118.225,127.661,137.019,112.822,88.122,114.211,226.979,82.47,95.404,39.036,34.527
2.55015090003144,140.972,120.64,-20.013,-70.55,99.697,103.897,251.422,46.272,90.458,120.49,143.431,102.47,92.434,96.429,193.892,103.106,93.721,98.567,122.206,128.558,134.832,114.758,94.694,115.121,259.54,86.999,95.821,45.657,39.615
2.5650742000434548,133.659,116.42,-21.018,-76.114,92.425,91.498,283.959,31.881,82.683,111.661,136.627,93.146,84.145,87.623,177.817,93.269,78.77,74.903,109.276,121.257,119.841,102.86,83.328,102.711,262.867,70.518,88.041,42.025,58.531
2.5651352000422776,135.575,115.279,-21.509,-72.452,102.578,92.944,268.818,43.12,87.724,114.623,139.565,89.466,85.598,88.56,174.053,92.663,78.691,69.705,109.679,124.21,126.893,105.319,80.171,105.682,230.329,70.959,93.588,41.983,84.088
2.5800576000474393,149.271,128.484,-17.389,-57.011,111.697,112.831,236.274,66.131,101.468,126.291,150.183,101.672,94.734,90.009,195.908,105.378,88.346,89.103,122.889,134.332,139.574,119.046,91.874,116.335,202.946,89.844,102.204,47.065,84.516
2.580113000003621,152.708,134.503,-10.199,-55.417,112.098,115.792,268.825,61.454,101.367,128.214,154.644,109.255,99.762,89.919,204.422,111.933,89.795,89.526,127.377,140.858,139.947,124.05,97.93,120.317,235.531,97.439,102.102,56.239,65.476
2.595142600010149,140.26,120.537,-11.726,-70.73,106.35,97.233,301.344,37.826,88.97,117.84,143.731,97.363,92.49,89.829,182.7,103.624,85.607,74.579,121.102,133.544,134.171,113.68,88.098,117.635,253.226,85.558,97.389,55.158,50.041
2.5952059000264853,129.874,110.682,-27.596,-77.832,97.023,88.426,268.767,33.69,81.196,108.501,131.292,85.995,82.151,85.641,170.222,93.787,81.935,73.48,112.272,122.652,125.328,103.832,78.789,108.296,227.87,71.128,89.607,40.758,42.819
2.6105684000067413,141.527,121.33,-23.982,-62.385,99.999,102.683,236.223,56.198,87.775,118.126,142.944,98.716,91.291,91.19,184.396,107.013,88.513,90.825,117.282,133.801,130.326,111.413,86.394,104.089,235.326,78.229,89.517,44.816,56.096
2.610645700013265,161.366,135.553,1.657,-46.441,114.756,118.461,268.775,70.486,100.495,136.451,160.731,113.987,107.081,110.567,192.921,125.349,100.208,105.591,132.022,149.548,145.052,124.622,96.554,113.206,253.022,98.131,101.723,66.801,75.508
2.625272300094366,153.007,131.832,0.119,-54.079,114.642,111.683,301.293,55.046,96.808,127.093,148.788,100.041,96.215,111.481,180.433,112.928,93.447,94.727,126.767,136.079,135.173,117.837,90.822,118.216,235.863,93.422,100.084,63.148,68.26
2.625334999989718,125.19,111.207,-23.96,-75.03,97.621,90.567,268.717,36.548,79.293,101.863,126.097,78.936,74.602,83.705,166.933,90.786,77.985,76.19,104.099,115.963,114.034,98.251,74.85,103.754,226.405,69.25,79.492,36.957,46.675
2.640143600059673,120.966,98.801,-28.034,-79.565,89.326,82.791,246.419,37.536,77.165,101.761,126.484,81.419,75.04,72.863,165.741,92.232,79.444,79.187,100.921,117.384,115.456,94.055,70.164,91.354,233.863,62.009,72.752,29.235,43.554
2.640199000015855,134.677,108.948,-19.809,-67.703,94.36,90.393,278.96,47.745,91.432,116.004,139.165,92.096,89.822,93.794,172.235,104.948,89.098,88.842,114.652,127.0,125.075,105.231,80.853,98.948,215.699,70.656,86.512,44.575,52.22
2.6552830000873655,140.178,119.598,-15.179,-62.512,100.413,95.938,276.632,53.333,92.878,115.888,141.587,95.59,93.318,102.41,178.723,110.478,89.521,86.191,116.074,128.922,124.95,108.2,85.895,109.607,199.089,75.708,94.622,57.338,51.655
2.655346400104463,141.575,116.917,-11.577,-67.573,100.313,98.404,247.666,54.816,89.199,113.21,140.421,97.543,91.176,91.037,177.52,113.442,89.944,83.544,112.884,129.306,129.436,104.506,81.198,105.911,219.895,80.756,91.966,63.429,42.382
2.670295700081624,149.118,119.873,-15.152,-62.382,102.774,106.502,269.448,57.835,98.331,121.806,147.965,97.446,97.744,93.507,176.318,117.939,91.903,82.436,120.968,135.836,134.429,113.623,85.215,104.269,226.847,89.384,93.411,72.074,41.827
2.670358700095676,151.018,123.852,-21.797,-50.024,110.868,107.933,301.966,61.364,102.843,125.783,151.916,96.836,103.282,99.049,185.363,122.432,90.274,80.304,125.458,139.799,130.709,122.218,91.278,109.8,202.03,91.856,98.953,68.929,51.52
2.685238500009291,141.133,111.945,-22.287,-55.097,109.733,100.653,276.048,58.228,94.031,119.509,145.104,98.276,98.056,90.753,191.837,121.797,88.135,83.81,115.599,132.999,128.016,113.899,81.453,103.03,209.512,82.543,93.219,49.904,53.005
2.6852967001032084,134.332,101.587,-25.339,-70.924,97.328,100.552,243.497,55.096,89.839,116.828,140.348,94.079,95.908,89.125,183.449,116.552,84.973,85.775,110.36,126.206,126.864,105.588,71.637,88.07,241.578,70.677,82.367,43.707,40.144
2.7002713000401855,138.296,104.559,-28.388,-70.853,93.644,104.55,244.278,56.066,91.798,120.81,141.232,90.911,99.399,96.721,174.556,116.948,82.839,80.566,116.91,129.154,121.614,109.069,76.689,91.056,225.455,71.119,84.334,52.372,34.469
2.7003297000192106,142.256,109.065,-19.65,-57.974,102.26,103.421,276.822,52.936,92.731,122.226,142.115,94.407,99.812,94.063,177.968,121.442,85.317,78.949,120.379,130.049,122.005,112.034,80.198,101.723,197.052,80.782,90.397,52.32,45.705
2.7153966000769287,138.016,109.469,-12.97,-52.793,104.719,102.805,309.332,47.248,96.224,121.079,142.998,93.288,98.175,89.87,184.962,120.296,87.281,81.944,115.136,127.358,124.444,109.872,76.532,101.109,217.86,81.725,86.721,52.267,47.196
2.715465600020252,136.341,111.921,-13.47,-52.74,99.491,103.214,276.748,53.86,96.641,121.471,140.806,90.121,97.052,95.416,187.851,119.151,86.17,77.763,113.484,128.255,121.758,110.275,78.505,96.91,224.302,78.57,84.585,64.511,33.829
2.7303877000231296,142.352,115.907,-9.358,-45.515,99.392,102.087,244.196,67.639,92.445,121.349,140.665,96.178,96.955,105.054,189.712,126.716,86.596,77.173,120.03,130.176,125.222,115.288,83.037,101.423,191.803,86.688,92.185,71.618,36.869
2.730452400050126,145.796,119.89,-8.324,-37.273,103.903,108.132,254.198,72.182,96.964,122.765,145.135,99.156,102.493,110.584,193.621,134.786,93.169,90.416,124.009,132.095,134.319,118.759,83.466,106.957,195.197,95.311,97.216,71.034,54.251
2.744664300000295,147.699,124.381,-12.926,-35.186,107.385,117.758,286.731,70.573,104.039,129.814,150.113,98.544,105.465,109.961,197.526,137.213,98.199,101.084,123.372,137.086,134.697,119.664,84.407,102.752,227.789,93.166,95.582,76.086,53.684
2.759334300062619,152.162,127.843,-8.815,-31.053,105.741,118.152,319.232,71.527,102.398,134.295,152.012,104.081,104.335,109.339,196.304,137.588,97.588,97.397,125.298,136.949,129.951,118.52,86.372,97.014,230.635,92.561,95.486,84.72,49.532
2.759396000066772,145.862,123.104,-6.244,-33.071,97.951,106.251,345.553,61.209,97.173,122.378,142.639,98.854,100.644,106.156,189.447,132.328,92.368,85.004,121.074,126.566,125.723,110.717,80.65,96.404,216.572,89.394,90.267,81.049,51.019
2.774360500043258,130.347,110.685,-17.509,-42.772,91.193,90.776,321.641,47.316,88.366,105.349,125.59,80.824,90.297,92.218,180.549,118.875,83.566,74.161,105.584,115.169,116.376,101.385,70.836,90.673,220.454,73.936,80.443,65.086,30.988
2.7760624000802636,133.803,108.526,-18.516,-37.094,93.663,94.271,289.044,61.101,88.278,109.342,129.563,85.867,89.183,89.564,180.368,119.269,85.02,76.648,108.04,120.176,118.308,109.48,73.839,91.094,228.943,77.448,82.924,69.632,18.662
2.789459599996917,153.137,121.225,-5.177,-22.712,100.742,113.645,282.095,83.581,103.047,126.651,151.462,107.81,106.512,108.942,188.385,138.617,98.255,89.891,128.424,136.45,133.047,128.838,89.647,116.619,225.64,105.035,97.186,94.153,51.431
2.7895248000277206,158.107,125.714,-8.246,-29.349,103.715,115.58,314.601,72.739,104.993,128.062,153.872,109.751,111.528,118.567,189.221,147.7,98.669,92.875,129.833,138.363,135.988,132.808,96.729,131.359,222.341,110.053,102.212,99.182,79.556
2.804452700074762,151.801,122.515,-9.775,-34.443,102.586,106.243,335.803,56.785,95.666,119.737,142.96,103.494,101.683,110.764,184.421,142.429,92.422,88.684,123.555,132.589,130.217,127.552,94.071,115.858,242.611,100.209,96.987,94.472,59.497
2.804518199991435,148.575,121.368,8.678,-19.039,97.873,105.625,303.192,69.023,98.644,118.08,139.743,103.39,98.507,108.604,185.261,138.188,96.941,92.694,131.116,132.457,129.574,130.499,94.489,114.206,255.176,105.232,94.841,104.624,39.97
2.819438800099306,134.082,105.877,-1.065,-22.094,86.504,96.81,270.613,75.614,97.521,111.302,129.357,89.455,87.65,101.323,174.317,127.292,91.208,89.015,121.764,121.053,120.735,125.245,89.272,123.825,225.719,98.979,87.573,92.736,36.856
2.8194985000882298,120.116,86.303,-33.339,-43.076,79.758,83.905,267.269,59.657,83.591,100.945,116.933,75.021,72.706,88.414,151.602,115.381,75.748,73.557,100.637,106.588,108.831,110.263,78.424,110.381,223.957,79.412,76.727,65.491,26.573
2.8344522000988945,128.705,91.34,-30.232,-36.886,86.851,90.994,299.789,54.474,85.557,105.454,123.988,85.192,82.879,100.108,148.888,123.975,82.844,75.02,109.246,115.19,116.919,113.226,82.444,100.025,256.52,82.919,78.7,76.696,24.497
2.83629230002407,136.261,99.958,-15.344,-21.48,85.227,94.489,320.494,59.543,92.644,112.521,130.012,95.353,95.092,112.816,157.961,133.585,92.495,85.191,121.432,123.784,124.487,120.798,89.022,110.683,234.747,92.058,82.207,93.013,33.182
2.8495464000152424,122.805,84.489,-29.161,-36.315,73.871,80.05,304.292,48.725,82.817,101.65,118.611,85.524,85.263,96.822,151.143,122.693,83.694,81.008,107.991,111.365,112.58,109.406,78.686,107.499,202.237,82.232,71.879,69.866,25.464
2.864968900103122,113.973,71.597,-33.743,-55.746,75.334,75.359,314.746,38.43,77.611,92.839,112.345,78.778,81.592,89.552,146.381,116.935,83.098,77.34,99.173,101.52,104.782,98.538,69.898,95.096,219.453,77.027,67.709,55.964,6.995
2.865034500020556,122.056,81.259,-18.34,-43.908,83.968,86.042,314.944,55.81,90.341,103.505,120.429,86.896,89.195,107.906,160.579,127.576,93.773,84.435,106.246,109.103,112.362,104.075,76.489,99.099,252.021,84.122,78.912,77.938,2.378
2.8650772999972105,130.13,91.936,-14.223,-21.834,83.884,93.128,282.353,75.734,95.886,112.111,127.481,93.469,89.618,116.507,167.079,135.133,93.167,87.425,112.288,116.679,121.471,112.68,83.584,105.148,254.331,88.649,82.419,91.692,18.769
2.8795512000797316,126.414,88.258,-17.795,-25.911,83.288,91.498,249.796,70.536,84.007,102.265,123.767,87.228,86.454,104.095,148.469,132.949,87.951,82.214,114.225,116.562,118.788,112.568,82.476,102.481,233.072,89.072,78.238,83.403,37.193
2.879611400072463,119.115,83.047,-17.265,-41.254,83.204,85.259,280.797,62.268,78.288,96.015,117.496,80.993,85.855,96.819,130.389,130.767,87.863,81.107,112.574,113.884,113.547,110.406,79.832,104.428,229.765,87.959,78.672,81.783,32.546
2.8945873000193387,127.193,95.259,-13.149,-27.381,84.658,88.76,313.303,68.866,91.53,109.751,125.063,92.183,93.967,107.481,142.042,139.345,92.898,90.76,114.51,121.967,121.118,114.394,83.851,113.033,253.101,91.969,81.667,96.046,24.828
2.896282900008373,134.751,109.508,-3.402,-6.861,90.721,97.38,345.778,68.285,100.147,119.888,134.672,100.8,102.582,111.472,163.929,148.428,96.904,93.231,120.544,127.48,127.656,116.841,87.353,117.53,259.508,98.537,82.61,100.048,42.734
2.9096181000350043,121.808,100.69,0.187,-16.588,90.118,91.648,313.157,61.044,90.826,106.96,124.291,85.842,92.745,95.479,162.228,140.082,87.073,77.768,112.738,113.52,115.746,108.527,80.606,112.802,226.973,93.828,80.478,85.604,51.913
2.9246482000453398,116.563,91.88,-2.887,-23.744,87.466,85.408,280.568,73.278,86.636,100.193,116.482,75.51,81.894,89.748,158.992,130.721,80.326,70.518,103.404,103.161,108.97,104.32,75.402,106.542,216.5,87.074,77.836,89.616,40.078
2.9247130000730976,132.841,109.719,7.874,-2.715,95.576,98.643,300.78,89.599,96.284,113.925,128.661,85.681,94.108,102.466,174.203,139.299,90.492,81.206,112.522,114.841,121.669,111.388,83.011,107.972,249.071,93.647,81.857,110.531,45.673
2.9396810000762343,134.757,119.855,18.625,7.533,96.505,103.155,333.267,82.849,95.163,116.373,126.995,84.058,96.063,96.216,175.053,140.697,88.864,81.125,111.897,115.238,119.498,108.203,82.416,102.229,237.039,93.041,81.263,107.859,53.312
2.9397582000819966,114.642,101.292,8.873,-3.745,80.014,85.121,300.658,68.934,79.698,97.301,104.839,60.408,72.401,75.115,149.263,120.064,69.308,64.65,86.17,92.069,98.374,90.164,64.915,86.245,204.527,73.48,67.349,92.895,30.205
2.954649000079371,102.745,89.408,3.741,-10.401,70.713,72.228,276.791,64.767,68.348,85.933,96.025,44.979,59.008,72.478,132.719,106.624,64.115,54.339,72.252,78.145,90.078,79.315,53.579,78.986,225.327,59.062,56.523,91.265,13.781
2.9696663999930024,105.203,93.929,12.958,-10.903,72.691,77.791,309.302,61.628,74.427,89.433,100.54,50.057,67.658,84.189,134.124,112.665,73.785,61.457,80.889,83.702,94.599,83.335,60.698,80.444,257.889,63.614,56.979,87.587,26.063
2.971517900004983,114.32,91.786,12.433,-7.818,74.156,84.886,326.924,62.591,86.648,96.004,105.05,57.691,76.812,90.765,136.039,122.798,78.834,75.74,85.419,91.815,99.628,89.911,64.224,79.851,225.868,71.747,60.508,85.963,34.746
2.9715723000699654,118.816,86.059,4.224,-0.638,78.18,85.826,294.321,70.726,84.512,98.469,108.019,53.535,74.686,88.625,133.854,125.237,75.169,73.616,80.722,92.236,102.09,89.309,55.962,80.284,193.367,69.626,62.497,93.049,24.977
2.9848591000773013,109.988,84.436,3.707,0.387,78.614,83.178,261.752,74.241,73.157,93.248,103.3,45.285,64.878,80.339,133.72,121.013,68.946,61.247,80.129,85.483,96.864,85.121,55.394,79.691,220.838,63.921,59.873,85.271,10.608
2.9849314000457525,109.366,85.376,8.314,-1.15,70.339,83.095,294.278,69.044,79.232,94.179,101.66,48.313,69.936,81.796,140.246,122.942,74.513,71.431,87.734,85.398,98.817,88.11,65.073,74.489,246.745,63.345,58.276,77.502,8.548
3.000740300049074,128.212,93.488,18.04,4.999,73.854,93.258,326.771,73.073,99.645,111.503,120.001,62.097,92.92,97.083,152.913,139.725,90.32,91.34,100.966,102.219,116.136,100.83,70.643,80.049,234.203,71.478,67.44,94.843,21.859
3.000812800019048,135.768,99.029,27.756,7.043,88.637,105.46,294.169,93.492,106.717,124.199,133.714,72.281,103.073,104.671,159.933,152.393,95.353,92.273,107.525,111.338,121.656,108.413,71.085,95.339,208.353,82.165,73.52,104.482,31.059
3.0148078000638634,121.288,87.147,19.531,-0.137,88.037,102.793,261.599,100.059,95.34,112.805,121.285,65.037,90.162,97.394,154.65,142.506,84.499,81.423,96.659,97.394,106.165,100.62,71.526,95.243,207.633,77.473,63.2,91.569,22.319
3.0148753999965265,109.896,71.179,3.118,-2.698,74.116,90.907,294.125,81.003,82.949,98.347,108.868,47.553,80.851,89.612,147.323,129.556,75.193,70.07,80.681,83.977,95.812,88.224,64.282,79.779,232.016,61.001,52.891,84.306,6.415
3.0298401000909507,113.372,71.62,5.164,1.916,74.042,86.206,326.619,69.139,83.378,101.323,112.345,44.944,83.844,90.547,151.786,132.501,76.654,65.389,83.674,87.479,101.864,87.111,59.607,75.601,233.833,61.452,57.961,92.418,3.847
3.029905500006862,123.505,86.405,22.065,9.598,84.214,94.316,310.411,80.341,92.517,110.955,118.893,56.17,90.42,100.702,168.028,142.102,84.262,74.546,96.398,95.076,112.521,97.783,68.769,89.357,210.545,77.273,67.637,102.572,23.823
3.0448054000735283,121.844,90.417,28.703,12.662,77.982,97.808,277.825,82.822,92.936,107.258,115.188,53.04,90.329,100.601,166.836,139.911,83.154,74.471,93.228,94.981,110.359,104.857,69.725,92.854,209.31,77.195,65.008,102.469,39.681
3.0448689000913873,104.304,72.396,12.28,-3.232,59.461,79.78,269.35,65.321,77.987,90.245,100.216,32.494,76.407,80.009,136.955,126.451,72.824,63.638,76.228,82.591,93.855,98.092,54.798,71.757,226.007,58.163,50.598,87.51,20.686
3.0598409000085667,99.077,63.102,3.559,-13.987,61.451,71.503,244.49,69.354,75.859,87.593,96.017,25.802,68.133,78.392,127.596,121.201,72.751,74.333,75.64,76.873,94.786,94.408,53.206,59.39,236.539,49.395,47.986,82.812,4.783
3.0599093000637367,124.593,88.142,32.244,7.544,86.493,97.047,272.423,100.023,98.837,108.51,115.389,42.682,85.996,108.539,150.01,135.937,86.511,87.579,97.081,98.313,117.745,112.245,73.645,80.335,251.16,69.326,67.406,106.807,33.98
3.074821799993515,147.522,113.669,57.315,28.029,99.214,108.733,304.938,102.485,108.985,119.16,129.106,51.349,100.255,116.115,122.708,147.584,92.06,74.683,110.304,120.244,126.849,126.989,85.355,102.284,248.859,89.749,80.146,124.119,59.562
3.0748795000836253,140.202,103.822,35.229,16.73,86.819,87.107,287.214,76.767,86.334,100.598,117.706,36.441,85.297,89.872,90.31,137.19,83.259,69.998,97.898,116.537,115.451,116.616,74.511,99.108,216.335,82.487,70.332,113.749,37.473
3.0899315000278875,124.693,88.349,15.213,5.442,76.999,79.848,254.652,74.641,71.903,86.665,108.366,27.183,74.966,87.733,91.757,127.832,79.589,83.76,90.116,109.761,112.262,110.352,67.777,91.836,205.873,70.109,65.138,106.463,20.017
3.104927400010638,126.618,95.433,36.715,12.097,83.069,91.039,273.865,87.886,86.176,97.336,116.455,38.939,89.748,115.309,124.453,137.438,93.342,88.287,106.932,110.676,122.908,123.561,77.443,92.257,238.455,78.236,74.295,119.164,38.952
3.1049926000414416,135.2,103.534,50.511,20.794,87.085,94.021,306.379,86.774,95.311,107.998,122.486,47.096,97.855,120.829,154.042,143.448,100.933,85.637,112.973,109.54,124.322,125.487,80.439,91.14,256.659,83.793,75.758,130.828,49.16
3.120325000025332,131.991,99.332,33.042,21.286,82.387,91.366,273.797,91.298,87.019,102.254,114.167,37.316,87.511,102.266,130.322,129.984,86.488,81.453,95.954,103.796,113.439,108.968,70.625,87.462,224.127,72.951,65.436,129.672,39.376
3.12038360000588,126.224,99.745,27.373,16.141,80.767,89.225,241.248,99.915,84.883,95.492,108.417,30.618,83.325,100.626,141.462,121.145,81.278,79.835,93.808,98.056,113.838,106.297,69.017,89.424,229.538,71.853,64.346,122.37,46.509
3.1349007000681013,134.807,107.842,41.69,16.637,84.785,90.161,273.794,89.569,91.97,101.544,115.993,39.297,92.976,115.895,166.936,128.709,97.591,94.1,110.621,103.594,128.069,122.073,79.707,100.093,260.047,88.175,77.089,124.809,65.418
3.1349544000113383,146.455,112.345,47.284,29.428,85.725,97.755,306.308,79.746,95.977,111.689,124.074,46.43,100.055,116.804,157.035,132.678,100.567,100.153,114.609,116.81,132.551,130.66,86.287,113.313,238.27,97.308,82.647,141.079,63.304
3.1499611000763252,147.333,113.257,45.188,37.596,84.615,101.756,273.726,95.035,98.955,115.676,123.95,46.896,103.029,109.515,152.78,126.398,91.245,87.758,108.346,116.181,128.32,126.943,85.176,112.687,230.347,95.162,76.417,149.647,50.433
3.151781600085087,144.624,111.095,50.778,36.021,87.604,102.679,241.177,112.359,103.466,116.584,125.363,45.824,105.487,111.454,170.558,123.198,96.277,88.182,109.775,108.892,130.754,123.23,80.48,100.792,260.856,93.53,76.853,143.349,49.358
3.1650326000526547,143.967,102.787,50.727,30.862,88.541,103.088,248.108,109.173,98.752,114.419,123.701,41.168,99.746,112.367,171.924,116.927,95.156,89.119,110.69,109.296,130.623,121.057,79.375,97.617,251.885,92.412,78.825,140.132,51.357
3.165098200086504,139.725,95.0,32.233,22.635,85.378,96.325,215.585,101.891,89.432,106.62,115.38,34.466,89.4,105.595,162.531,104.002,82.253,76.222,105.968,104.064,127.931,120.936,83.394,101.618,230.629,90.782,70.037,143.578,42.597
3.1800833001034334,142.659,99.515,26.566,28.247,89.904,99.815,208.709,111.523,95.49,111.124,119.363,40.58,96.996,109.588,172.102,105.947,90.88,85.367,109.448,104.984,134.463,126.451,85.36,106.639,244.231,95.302,72.529,147.533,44.604
3.1801457999972627,153.787,106.076,48.056,45.638,98.011,112.523,241.288,111.412,105.128,122.796,134.101,55.908,112.78,122.286,180.127,118.137,107.183,101.676,117.024,118.711,139.964,129.91,82.713,109.607,246.036,98.793,84.751,148.41,63.514
3.195014400058426,150.047,99.31,56.717,37.395,92.278,102.164,273.835,87.222,95.802,115.501,130.381,57.902,106.007,125.75,168.676,112.383,103.489,93.889,113.833,117.568,133.164,122.608,81.093,102.325,240.667,91.522,74.421,141.089,57.815
3.1950707000214607,139.139,89.989,40.779,21.988,85.525,89.254,241.286,85.598,88.534,105.651,117.443,49.135,95.655,122.038,157.749,101.0,98.775,92.771,110.645,108.229,128.932,117.363,83.062,95.05,259.381,85.283,61.026,137.362,27.531
3.210059200064279,136.438,87.85,29.467,30.163,89.026,96.338,208.769,104.467,94.081,108.107,115.276,42.425,98.633,118.33,153.493,96.801,98.164,98.826,106.948,107.608,126.242,114.684,78.88,94.443,257.585,83.661,66.088,138.762,25.455
3.2251408000010997,125.543,78.54,22.778,25.522,81.765,85.483,200.876,92.068,85.277,93.654,106.452,31.625,88.801,108.478,141.044,80.822,86.283,81.821,90.447,95.718,113.82,100.224,63.432,82.053,228.126,70.769,60.387,125.303,42.335
3.225204100017436,119.27,73.851,23.267,13.201,71.437,74.126,174.035,85.316,78.02,84.339,98.148,26.47,79.491,102.734,136.292,72.032,84.66,77.128,87.796,90.499,113.194,96.538,61.832,76.848,226.361,64.039,50.08,118.005,40.756
3.2252453000983223,138.106,95.294,45.273,36.242,83.148,99.155,183.594,114.944,100.995,109.358,115.981,44.886,101.953,112.365,150.5,91.428,100.969,99.593,111.274,112.95,130.499,116.934,83.287,97.775,256.361,84.467,65.912,140.429,37.642
3.240494200028479,140.017,101.859,49.839,47.477,88.188,100.593,216.199,104.071,103.456,108.736,119.963,49.965,107.486,113.277,148.301,94.923,99.331,98.981,112.7,114.374,126.782,113.743,84.74,96.141,267.887,88.993,73.018,148.998,34.53
3.240558800054714,112.725,74.092,25.711,19.765,67.608,68.217,240.061,71.691,72.614,76.352,93.716,26.861,78.177,99.844,123.049,67.163,82.838,76.853,88.508,88.132,106.676,84.94,62.114,72.479,235.344,64.826,48.354,125.795,19.639
3.255157300038263,114.661,67.358,29.271,15.646,64.466,71.735,207.545,91.087,76.128,83.448,94.134,26.322,76.562,107.429,124.463,63.51,86.853,77.8,91.494,90.605,112.717,89.466,65.638,87.775,202.833,65.785,43.183,119.009,31.914
3.2552171000279486,132.99,83.172,47.685,31.512,80.796,98.303,194.018,122.759,99.618,106.419,111.458,44.226,93.392,124.74,145.856,79.84,99.062,93.092,106.259,102.81,125.924,104.233,84.015,102.544,235.418,82.114,57.997,128.112,56.473
3.2701523000141606,119.537,76.429,32.78,25.333,77.129,84.373,189.213,103.169,84.661,88.381,99.052,33.936,81.515,112.832,141.099,70.539,93.84,95.048,94.882,88.363,116.577,87.735,75.222,77.339,267.97,70.761,52.815,125.934,35.412
3.2853667000308633,119.417,78.914,31.211,33.505,72.441,81.727,156.748,108.189,79.453,86.756,97.928,33.389,81.946,108.621,143.007,66.37,95.283,90.342,95.3,88.787,119.534,85.598,71.049,83.409,235.427,73.251,51.738,140.153,21.032
3.2854547000024468,147.475,108.549,63.967,60.623,85.176,110.847,189.379,140.868,107.551,117.408,124.982,62.558,110.553,134.64,168.992,89.357,110.044,91.789,115.184,108.678,138.882,105.493,86.859,116.113,202.916,99.818,70.129,167.677,53.799
3.300252399989404,135.544,98.707,65.952,50.317,75.357,100.49,221.978,116.136,101.296,109.093,114.099,54.81,104.295,130.919,161.138,82.096,100.201,91.185,103.286,95.761,124.398,93.604,77.038,96.53,223.206,86.911,63.912,149.579,60.405
3.3003289999905974,103.133,66.333,33.611,22.602,50.691,68.114,189.48,83.745,68.919,77.221,81.709,22.48,71.915,98.513,129.214,49.738,77.047,78.286,74.493,66.464,96.609,70.457,54.932,64.158,218.884,54.548,37.208,117.154,28.069
3.3152351001044735,107.129,69.853,23.331,26.678,55.251,76.243,157.015,106.203,73.461,81.755,85.214,24.507,70.306,98.414,133.695,49.688,80.556,68.474,74.419,64.861,102.661,76.022,59.488,72.29,202.784,60.129,34.609,124.209,17.283
3.31529360008426,127.514,88.226,35.603,39.459,69.028,96.659,189.646,123.515,91.83,98.067,101.523,38.315,87.655,116.759,145.857,63.983,92.77,77.627,84.078,75.042,114.853,81.069,65.064,81.44,212.315,72.364,43.283,144.577,27.511
3.3303267000010237,125.337,81.99,44.277,36.858,65.373,91.439,222.244,108.535,92.251,98.993,99.372,36.74,89.616,107.42,139.051,62.382,86.018,86.258,85.531,78.553,113.201,77.914,59.876,78.284,195.708,69.218,47.339,141.871,31.582
3.3303807000629604,125.724,83.445,52.942,38.87,65.307,90.323,189.747,113.037,91.646,101.968,101.834,44.387,89.527,95.018,146.597,64.882,80.296,78.487,91.081,81.036,118.724,86.545,67.5,90.502,190.902,76.834,54.464,142.242,44.359
3.3455543000018224,131.234,90.534,58.524,44.466,66.779,100.991,158.818,127.781,91.042,103.403,107.88,52.028,95.072,107.73,157.721,72.501,84.314,69.7,90.99,78.906,121.679,86.971,72.044,89.386,223.499,77.269,52.36,144.149,53.023
3.345670900074765,124.955,79.685,50.781,41.348,59.54,97.816,191.447,117.407,82.754,96.128,100.6,42.754,89.854,122.992,143.219,68.843,83.206,73.728,83.214,72.679,108.749,74.076,57.627,69.317,238.132,60.286,41.037,133.758,39.138
3.3603880000300705,118.17,74.994,42.533,37.208,57.944,81.837,224.043,99.871,77.036,88.347,93.327,34.002,77.469,114.672,128.219,62.114,81.585,78.265,81.594,69.533,103.005,70.416,52.446,68.223,205.619,58.689,40.996,137.723,24.242
3.360452500055544,119.076,84.653,48.639,41.782,63.009,76.12,224.844,98.746,77.472,83.135,91.696,31.407,74.318,99.7,128.603,58.466,84.065,76.138,82.025,68.439,108.538,75.469,61.103,80.963,183.896,70.413,44.541,152.954,27.804
3.37575280002784,124.08,87.642,59.861,49.937,61.921,84.24,192.344,111.455,81.493,84.077,90.58,30.863,79.366,104.211,135.646,59.432,82.957,71.963,81.943,69.907,109.454,76.93,62.067,86.005,186.274,75.466,44.496,157.925,48.781
3.375814100028947,129.591,86.018,56.215,48.35,58.273,89.279,159.876,123.127,83.46,89.628,93.051,34.418,80.824,110.767,139.097,62.446,79.8,68.818,83.398,69.837,108.832,74.804,57.394,83.869,188.137,75.39,47.526,158.279,56.417
3.389322000090033,128.95,83.882,51.035,40.617,56.678,89.702,158.179,122.492,79.278,90.563,95.007,34.384,79.206,100.923,134.859,60.847,78.695,67.212,80.753,66.181,111.285,71.143,60.41,77.126,220.736,69.679,45.429,157.096,43.04
3.389377500046976,133.431,87.897,70.964,47.749,62.769,101.396,170.829,128.004,85.859,98.157,100.035,39.472,89.373,105.432,141.897,66.934,86.301,75.342,85.283,72.775,119.37,77.219,69.571,80.635,253.303,71.659,45.896,154.89,58.366
3.4044197000330314,144.569,98.568,87.287,56.41,69.366,107.954,186.54,138.123,98.581,109.33,107.62,49.167,100.555,122.233,160.71,81.211,97.486,89.611,93.907,81.924,126.936,86.364,69.502,89.776,220.775,84.395,56.096,157.296,87.51
3.404483100050129,132.641,87.711,61.585,39.96,59.05,84.28,211.456,118.517,85.162,91.29,97.266,37.335,84.06,101.619,149.791,68.322,87.142,83.374,80.493,68.522,116.05,76.031,53.038,76.366,188.278,72.015,49.892,149.967,55.147
3.419448500033468,111.504,65.081,36.932,27.112,46.696,62.167,225.077,92.783,62.536,65.583,79.75,17.83,61.947,72.828,127.1,47.762,67.587,60.236,65.043,53.084,101.59,63.66,44.788,62.969,200.386,51.963,34.986,140.083,22.816
3.419526300043799,127.274,79.873,60.974,49.115,59.457,82.084,210.507,113.695,74.256,82.424,91.454,29.595,75.717,91.198,144.903,63.083,74.18,61.201,81.372,66.351,112.759,78.453,62.162,85.448,207.87,73.94,47.758,158.898,55.581
3.4344104999909177,151.737,107.458,88.065,70.07,70.156,107.105,185.706,144.319,96.723,107.444,109.293,50.057,96.646,119.284,165.763,81.976,93.061,81.632,98.197,81.654,126.991,93.232,72.346,102.269,231.228,95.896,62.567,180.256,88.313
3.434466900071129,137.241,97.104,73.12,59.754,56.766,94.191,174.762,131.88,88.43,94.017,94.327,41.298,84.254,115.066,142.543,68.574,88.869,78.476,82.729,68.252,112.007,78.281,57.417,78.6,253.538,75.307,50.209,168.293,55.949
3.4494140000315383,114.05,74.978,48.969,45.349,43.389,71.555,158.193,112.28,67.849,71.381,73.228,20.252,63.165,99.069,119.859,52.111,71.362,53.295,61.13,45.13,90.378,55.149,42.502,51.369,221.009,51.666,36.327,153.268,23.618
3.4494705999968573,111.887,74.903,43.284,47.866,43.346,70.459,146.252,116.266,66.757,69.773,73.155,15.109,62.59,89.749,128.961,49.498,65.143,44.02,57.483,38.425,87.726,50.483,41.948,51.83,188.513,51.102,31.168,155.164,45.111
3.464519700035453,117.41,80.976,55.024,56.527,46.889,80.634,178.893,117.175,79.498,80.462,79.742,26.365,71.236,92.733,145.226,53.034,74.299,61.907,66.134,49.145,96.347,60.679,49.078,67.66,221.112,59.248,30.112,156.033,76.829
3.4796378000173718,124.977,84.481,75.974,62.106,51.965,87.214,211.502,111.934,86.59,89.603,84.273,38.121,81.411,109.546,155.327,64.764,85.496,81.312,75.29,59.342,103.936,67.278,58.251,79.375,232.674,68.922,41.352,156.902,75.216
3.4797129000071436,126.389,83.884,73.848,61.531,48.839,85.077,179.015,118.483,82.405,86.952,84.188,36.546,82.867,107.9,155.172,65.212,78.75,71.497,72.141,52.623,101.782,63.113,55.631,74.685,205.802,71.927,43.36,159.819,55.673
3.4955140000674874,119.091,76.116,50.721,56.347,37.519,79.869,146.561,125.536,75.151,79.18,77.444,27.8,69.976,83.713,145.283,50.29,65.352,48.884,63.359,42.324,95.021,57.926,47.378,66.926,208.67,65.708,29.997,157.097,41.785
3.4955914000747725,124.095,75.527,53.231,56.291,38.506,82.863,179.202,118.751,77.637,82.687,80.953,32.896,68.882,85.167,142.063,53.313,70.922,54.983,70.98,50.479,98.512,60.942,51.429,71.47,221.781,67.179,36.115,162.576,40.718
3.5095087999943644,138.827,88.259,73.671,66.48,52.3,89.953,211.81,117.607,87.293,91.826,92.655,47.207,84.182,111.209,154.217,69.654,86.22,76.957,83.717,64.773,109.684,70.615,59.062,74.472,230.268,79.407,54.522,181.368,49.387
3.509573800023645,142.275,97.393,76.671,77.172,58.908,95.498,179.323,135.933,93.866,96.345,96.148,54.845,89.221,116.221,169.432,72.658,89.72,77.905,85.17,66.757,113.16,77.205,57.466,74.91,239.772,87.525,52.93,190.921,66.756
3.524551600101404,133.936,91.148,73.008,73.509,51.677,97.964,158.139,143.482,90.186,92.662,90.929,50.179,80.935,100.223,166.188,63.364,82.458,65.019,79.962,58.493,104.85,69.955,51.774,79.446,223.138,81.289,43.143,176.385,78.984
3.5263411999912933,122.019,73.638,65.25,61.14,37.793,87.62,190.769,125.407,76.263,79.762,80.08,41.932,73.682,89.877,146.555,49.98,72.129,63.93,70.661,46.14,93.475,56.565,45.574,72.706,211.132,65.839,37.465,152.643,64.561
3.539544300059788,119.335,68.441,56.988,63.128,34.681,79.335,186.48,119.134,73.626,79.682,77.95,47.013,74.633,95.935,144.871,46.857,73.082,74.112,69.565,45.581,94.406,59.582,46.041,68.023,226.29,65.261,36.403,153.515,52.201
3.539611100102775,130.486,80.156,68.202,74.848,43.868,90.527,184.756,132.335,88.921,94.459,88.631,61.311,83.779,109.671,155.997,60.642,84.792,77.624,80.254,56.806,101.996,71.306,56.241,83.324,215.305,78.516,43.026,176.415,62.395
3.5545789001043886,127.794,77.002,71.72,64.527,38.189,88.899,210.187,122.469,87.295,88.73,83.419,59.2,81.646,108.024,142.521,58.02,80.609,65.251,75.563,48.553,93.185,63.55,55.16,79.655,200.746,73.314,39.397,178.288,52.599
3.554643700015731,108.711,57.457,46.545,42.433,24.318,66.269,184.361,105.44,67.74,69.685,64.38,46.333,64.659,91.523,126.497,36.957,66.696,59.038,61.143,29.549,79.772,51.703,45.371,59.083,225.136,57.359,26.038,155.056,23.345
3.569548900006339,108.602,54.838,37.789,45.977,28.905,69.789,151.902,118.655,69.21,74.227,66.878,51.923,65.106,87.845,140.715,39.994,74.314,68.201,70.303,36.691,87.377,59.336,50.961,66.708,234.644,62.425,29.598,144.142,29.981
3.58461600006558,124.888,70.153,57.731,63.862,37.073,91.236,163.533,132.881,85.534,88.497,81.668,70.314,82.972,104.151,154.919,55.836,88.584,70.182,84.578,53.049,100.097,69.523,62.181,77.912,229.799,75.17,40.839,154.757,59.153
3.584671000018716,131.935,78.279,66.895,66.872,33.449,90.12,195.645,126.088,86.986,88.408,84.148,75.879,85.45,116.342,153.739,55.78,85.934,72.161,79.882,49.409,97.948,65.355,57.508,69.125,246.987,75.607,38.237,173.557,62.167
3.586355400038883,124.631,72.053,58.631,59.633,31.879,80.296,203.646,117.765,77.677,81.148,77.403,69.655,76.144,105.467,153.073,46.502,78.163,82.847,71.606,39.114,88.116,57.093,46.692,68.544,235.982,68.872,32.563,176.97,45.199
3.5996647001011297,115.285,64.809,54.474,60.598,31.335,77.654,203.955,115.086,69.915,73.894,68.104,64.462,69.92,85.382,152.92,37.234,72.962,75.079,67.948,34.976,83.929,53.45,43.059,70.524,206.545,64.192,30.481,160.911,33.883
3.5997270999941975,122.854,77.552,61.592,74.882,30.279,81.675,214.509,117.532,72.406,78.431,71.623,73.107,72.924,94.006,163.526,41.296,76.987,64.758,72.491,39.04,91.018,61.593,53.262,69.942,224.781,72.837,34.549,166.898,42.046
3.6150884000817314,137.076,90.794,63.58,84.028,35.884,91.84,203.024,128.173,84.629,91.673,87.945,91.99,85.658,119.527,182.83,59.697,89.718,79.038,86.25,48.222,101.685,72.802,63.455,85.241,235.315,86.084,44.249,185.174,64.546
3.615152799990028,128.742,77.384,54.295,73.698,34.311,91.236,170.545,132.656,87.106,93.63,85.295,95.996,91.72,114.797,182.135,59.638,89.628,84.594,87.189,49.199,100.559,72.217,60.318,90.279,208.439,81.9,43.18,168.083,70.629
3.6297580000245944,120.416,64.498,51.679,63.891,23.006,80.386,171.399,126.375,80.359,86.877,73.939,86.678,84.456,104.436,173.756,47.283,83.391,69.141,78.905,43.002,93.286,68.046,58.208,73.795,217.453,76.695,34.94,148.959,55.189
3.629814999992959,125.419,68.02,53.164,63.827,16.835,78.769,187.622,120.614,77.717,82.179,72.841,84.03,77.712,117.651,169.996,48.772,87.406,65.485,78.313,36.811,89.606,65.417,58.662,68.085,236.19,77.13,31.318,160.081,34.641
3.6447059999918565,119.658,66.415,44.402,62.226,17.843,78.69,155.159,119.468,75.59,76.974,68.157,85.483,75.073,116.509,155.481,46.674,88.856,78.74,74.137,32.163,85.418,59.716,49.382,72.116,219.048,69.881,30.263,167.606,19.75
3.6597939000930637,128.248,77.107,54.091,72.41,29.608,83.222,173.447,128.058,81.15,83.044,74.749,94.619,83.707,112.294,159.424,50.214,93.89,95.567,79.186,43.402,94.042,69.39,55.481,81.777,236.248,81.082,40.478,176.66,35.099
3.659857099992223,148.612,92.912,73.505,84.633,39.313,92.36,206.061,125.881,87.729,93.72,87.994,106.82,93.357,128.063,174.634,64.508,100.968,93.422,91.402,51.043,105.219,80.079,69.257,92.454,262.651,98.419,49.147,188.778,66.827
3.6748167000478134,125.921,72.839,53.964,67.642,21.343,76.386,175.116,103.213,72.272,78.769,67.926,92.881,77.382,112.054,151.406,48.05,79.35,61.566,73.38,30.5,88.207,59.507,51.77,75.456,230.113,75.779,30.655,166.56,59.588
3.674879900063388,115.037,62.52,40.077,57.841,10.563,70.674,142.666,113.869,68.101,72.543,59.661,84.591,71.669,85.302,139.471,35.194,68.0,57.918,66.134,28.932,82.996,55.861,44.546,64.622,220.149,68.019,27.038,160.759,44.672
3.6897740000858903,147.71,91.146,69.751,81.349,34.118,103.392,173.262,146.542,95.698,97.573,92.389,113.196,97.725,111.856,172.119,67.947,97.134,90.648,98.856,58.617,114.164,88.593,75.752,93.759,252.717,100.738,53.651,193.385,62.045
3.6898358000908047,135.779,79.272,64.558,77.169,27.424,95.091,205.876,132.564,88.43,89.279,82.563,108.984,88.918,125.065,165.8,65.317,97.037,84.922,93.634,46.776,105.341,81.332,71.065,94.177,231.972,92.953,42.327,180.897,49.176
3.7048472000751644,103.368,46.918,32.218,44.817,-4.879,62.721,173.395,100.156,56.066,56.914,50.205,76.6,56.554,95.226,133.358,32.976,67.226,52.562,61.265,14.454,72.96,48.975,38.719,61.808,199.464,60.585,10.009,148.44,16.851
3.704905900056474,130.417,66.851,53.703,60.141,11.52,81.613,199.349,113.375,72.404,74.276,74.233,95.478,76.99,107.426,150.643,52.923,80.991,67.366,79.134,32.882,90.305,63.783,55.074,74.553,232.053,81.529,33.053,170.834,45.011
3.7199000000255182,163.074,98.035,82.339,92.869,44.296,114.319,231.938,146.05,104.607,106.989,106.947,128.171,107.651,134.471,176.621,85.658,101.402,83.692,107.232,62.563,121.466,89.335,80.634,104.193,253.338,114.235,59.147,199.352,77.754
3.7199660000624135,136.783,76.42,54.592,83.042,23.76,92.688,199.43,143.855,91.182,88.439,84.298,107.038,87.051,110.258,144.169,60.469,84.907,66.19,80.997,44.058,96.754,69.266,57.5,84.621,220.809,86.968,33.985,168.926,53.085
3.7348967000143602,117.691,60.462,40.705,59.393,1.194,70.566,193.595,132.44,76.746,70.42,63.722,86.438,74.157,88.631,123.02,43.503,78.162,63.563,71.182,27.62,81.8,59.463,46.171,71.729,236.982,72.024,21.656,162.61,20.757
3.734961900045164,135.504,75.258,64.23,64.456,13.489,86.89,226.19,128.209,86.916,86.231,76.466,104.795,89.452,104.424,146.463,64.976,85.256,70.671,91.091,40.912,101.186,76.822,66.105,94.198,269.533,97.568,41.102,194.723,41.229
3.750270300079137,141.516,83.38,72.875,75.15,17.061,93.463,235.697,131.667,91.44,89.219,82.025,109.813,89.875,122.762,152.464,66.448,83.634,69.064,84.34,42.92,99.548,75.208,66.552,96.666,264.14,101.056,42.598,194.528,63.729
3.7503285000566393,133.69,79.198,64.093,79.174,9.872,86.197,203.186,137.683,89.811,79.908,75.795,100.482,84.662,125.201,139.504,57.673,89.698,77.704,68.886,29.557,85.616,59.763,52.14,75.052,251.58,82.512,30.26,174.866,37.537
3.7648845000658184,123.31,65.799,52.758,74.996,8.325,76.889,187.614,125.762,82.037,77.779,64.961,94.746,79.966,109.194,133.729,57.103,85.51,70.454,65.231,20.306,80.919,52.019,45.941,62.682,227.25,71.671,23.057,169.055,24.18
3.7649391000159085,111.916,48.315,40.41,56.478,-2.954,64.517,155.151,112.829,64.536,65.918,53.113,82.868,64.517,91.667,126.935,47.312,66.469,46.817,61.068,17.212,74.691,49.405,42.308,63.131,196.797,67.501,20.473,160.177,49.259
3.780016800039448,117.952,53.389,47.03,50.786,-11.66,68.551,171.902,121.425,65.496,62.266,56.133,83.298,65.477,95.161,127.321,47.264,72.038,58.041,64.593,18.732,78.202,57.041,47.389,67.167,221.191,74.094,25.575,153.357,51.771
3.78008260007482,134.228,70.242,63.889,73.277,-1.402,84.364,204.518,131.55,84.899,81.671,67.86,98.584,82.318,104.8,144.1,62.586,86.311,73.352,74.774,25.373,89.907,67.742,58.1,72.223,239.413,84.266,30.673,169.597,26.616
3.7950387001037598,144.34,80.93,70.997,90.622,8.333,94.013,172.038,141.152,90.961,89.786,74.452,104.121,86.334,114.429,156.763,71.233,85.2,62.521,78.798,33.032,91.866,71.773,61.628,83.933,208.947,89.817,34.228,190.432,36.836
3.7951038000173867,146.245,86.997,79.123,84.384,9.349,97.505,144.201,153.306,86.26,84.061,76.427,106.066,83.174,118.413,157.631,74.236,86.139,64.507,83.842,34.024,92.799,72.726,62.079,94.096,216.423,96.387,42.903,191.779,68.562
3.81002770003397,137.389,80.25,79.556,73.029,5.754,89.211,176.844,140.345,80.538,82.44,71.228,105.447,81.554,99.851,154.399,71.6,84.004,70.591,82.221,25.793,91.682,69.579,57.406,86.317,239.773,94.241,37.225,183.39,62.346
3.8100917000556365,135.203,72.485,64.62,76.029,3.699,81.95,204.845,124.836,78.408,80.821,69.107,99.706,80.447,92.067,148.61,68.454,78.284,61.298,73.942,23.206,84.93,65.411,51.713,78.546,229.287,86.975,28.991,190.891,43.84
3.8250772000756115,149.924,86.757,66.604,92.347,8.306,95.7,172.364,142.642,89.088,85.351,79.284,107.804,90.101,117.078,150.51,80.681,88.452,71.483,79.504,31.379,90.481,69.956,56.272,85.64,242.89,93.036,40.745,202.996,56.092
3.825135000050068,144.651,88.207,77.296,90.206,4.199,97.141,139.917,153.77,94.635,89.364,75.619,112.307,91.548,123.109,150.872,82.137,88.364,81.146,79.937,27.762,90.902,67.325,53.655,75.308,248.282,87.307,37.118,186.911,63.208
3.8402165001025423,117.354,60.455,65.948,62.963,-13.736,73.478,118.26,134.661,76.097,72.368,57.1,93.239,71.988,104.542,130.229,63.1,69.32,59.548,61.926,11.34,71.344,50.864,38.232,51.666,215.759,61.604,8.904,158.035,43.165
3.855106700095348,114.676,51.173,55.124,55.728,-15.772,66.744,150.929,121.718,67.312,64.611,55.506,88.023,70.379,105.975,115.242,62.525,73.349,54.877,59.815,11.841,68.711,48.764,40.243,51.615,214.006,57.957,6.846,163.513,30.826
3.855170199996792,131.979,68.028,63.266,77.189,0.638,80.51,183.566,131.331,85.175,82.99,67.234,104.328,88.752,113.553,127.422,78.344,89.67,75.315,77.686,26.686,86.573,65.109,53.522,67.957,246.58,77.879,26.819,187.428,42.579
3.870491400011815,137.995,79.23,73.448,86.333,3.711,84.528,151.107,139.908,89.701,86.493,69.728,108.323,89.688,111.903,140.615,80.314,86.506,73.702,81.706,29.221,91.097,69.142,53.469,79.16,229.939,84.461,29.866,188.777,65.078
3.8705507999984547,130.172,77.614,75.937,78.562,-6.539,77.271,122.267,135.158,72.192,71.55,63.511,100.017,77.303,116.402,136.375,76.136,82.321,64.92,70.866,19.97,79.735,59.851,50.854,80.105,198.971,73.106,20.102,173.731,75.771
3.8850807000417262,120.308,65.241,68.176,73.873,-13.192,72.071,121.12,128.363,66.485,70.453,57.299,93.77,73.64,113.211,127.53,70.424,83.263,69.465,62.086,11.753,71.459,56.718,47.729,66.193,216.703,61.762,13.934,165.361,57.252
3.885134700103663,119.676,53.393,54.276,69.701,-11.642,77.122,95.383,133.357,74.615,76.018,57.754,92.651,76.127,103.364,128.939,64.206,76.52,67.859,63.049,11.742,72.924,58.198,40.509,55.368,229.806,59.651,15.457,163.146,35.166
3.900136800017208,126.216,56.413,51.147,67.582,-6.507,82.168,115.268,134.761,75.565,72.356,61.795,98.706,79.125,107.872,137.007,67.216,74.907,61.643,67.084,14.804,77.462,59.164,41.493,64.534,216.768,65.739,20.565,162.983,38.204
3.9018667000345886,124.041,60.455,60.318,71.1,-8.038,75.425,147.94,125.917,72.416,69.722,58.147,98.608,79.558,110.838,135.846,69.71,79.443,62.094,65.992,14.789,76.36,60.13,49.136,70.105,217.576,69.772,19.008,165.382,50.461
3.9152257000096142,119.306,57.833,68.967,68.468,-10.591,72.788,115.517,127.84,73.368,69.653,55.015,94.411,78.454,106.116,130.587,67.079,79.363,66.643,66.951,15.799,73.21,60.582,50.624,62.863,245.023,68.677,16.427,167.778,56.046
3.9152892000274733,117.137,54.702,60.189,56.616,-9.044,74.253,98.495,131.811,69.709,65.485,54.448,97.902,76.839,106.522,127.382,66.499,78.771,66.576,66.372,13.734,69.038,52.324,45.963,55.628,258.098,59.387,14.361,163.511,50.355
3.9303215000545606,109.336,43.889,41.173,52.461,-19.281,65.981,117.864,122.97,62.979,61.321,47.221,95.243,70.614,106.928,114.447,61.31,78.18,59.85,55.547,2.449,59.747,42.538,36.183,51.474,225.565,46.52,2.564,154.639,32.886
3.930395200033672,117.935,42.82,52.403,66.241,-23.872,71.039,90.082,133.605,72.65,68.944,51.272,95.66,73.617,113.481,107.673,64.835,84.25,63.888,60.102,9.619,65.835,50.18,38.708,59.619,193.064,56.207,4.611,156.533,40.538
3.945265999995172,141.896,64.294,77.453,83.081,-0.794,92.484,83.844,157.038,87.434,83.732,71.713,114.52,89.938,122.589,121.91,86.287,97.998,81.243,82.071,33.176,86.262,67.036,56.088,73.392,225.658,77.156,29.197,162.524,69.187
3.945327900000848,138.168,67.304,60.982,78.899,5.354,85.732,116.548,140.999,76.076,78.525,69.08,112.356,84.725,104.024,120.763,81.077,91.752,79.112,72.768,27.507,81.053,64.92,52.446,66.146,236.191,69.906,29.68,152.628,55.285
3.9602735000662506,119.587,48.793,40.429,64.988,-18.73,64.129,149.219,112.169,59.094,59.491,49.031,88.165,66.197,84.964,103.736,57.43,73.217,61.615,51.69,5.963,64.065,54.609,36.0,57.883,204.192,56.516,11.207,142.229,28.077
3.9619624000042677,130.226,54.892,66.004,70.559,-19.223,74.311,124.479,123.328,69.793,66.092,55.642,95.761,74.328,105.884,113.366,67.107,81.853,67.188,64.959,16.715,77.834,62.751,46.722,69.096,236.775,68.755,18.88,152.846,50.591
3.975349900079891,145.465,69.694,78.745,81.759,-0.761,91.143,92.079,140.623,79.969,81.907,72.493,115.646,86.549,128.32,132.208,84.458,97.653,80.441,82.824,33.092,94.15,73.447,60.508,73.125,269.326,78.42,32.182,168.574,66.422
3.97541340009775,139.171,65.014,64.834,78.603,-2.297,83.367,101.209,132.797,71.692,74.141,68.834,107.333,78.777,122.556,126.441,73.103,89.359,73.701,73.008,23.325,83.809,69.787,53.275,69.978,236.782,73.731,23.44,173.529,44.838
