Timestamp,Cz,Fz,Fp1,F3,C1,C3,T7,C5,CP5,CP3,CP1,P1,P3,O1,CPz,Pz,Oz,O2,P4,P2,CP2,CP4,CP6,C6,T8,C4,C2,F4,Fp2
0.0,-25.37,-22.012,-386.828,-53.552,-1.497,-28.029,124.483,-53.703,-15.549,-25.387,-12.059,-79.881,-13.172,15.504,20.563,-14.81,34.257,1.665,-9.473,31.381,3.242,8.392,12.978,12.371,33.104,-11.175,0.575,-38.667,-195.847
6.710004527121782e-05,-33.029,-28.138,-418.716,-55.548,-10.205,-29.538,92.083,-44.94,-20.657,-34.071,-19.219,-87.486,-23.918,8.829,13.37,-25.041,27.05,2.175,-17.66,19.566,-2.396,2.748,-0.355,1.6,35.12,-22.435,-6.085,-43.752,-221.779
0.013919000048190355,-30.435,-27.085,-419.322,-59.079,-7.121,-28.484,115.045,-43.358,-19.099,-30.451,-17.151,-87.399,-25.431,10.869,17.968,-23.479,31.122,4.735,-16.106,22.62,-1.882,7.356,2.207,-2.5,39.696,-19.339,-1.469,-41.659,-229.242
0.0139939000364393,-30.404,-25.521,-400.46,-63.63,-0.454,-31.529,147.717,-55.61,-21.642,-28.884,-16.621,-86.799,-23.356,3.686,21.024,-19.87,28.017,-5.004,-15.577,26.696,-2.392,5.3,8.865,0.064,31.971,-14.196,2.631,-38.031,-210.57
0.030059700016863644,-29.862,-26.52,-409.281,-63.567,-3.015,-32.01,151.668,-56.579,-21.62,-29.367,-16.093,-82.614,-20.771,-1.441,16.392,-18.825,30.55,-6.023,-15.049,26.157,-0.853,5.807,8.856,2.626,20.669,-16.231,4.678,-40.554,-203.187
0.04394150001462549,-22.659,-22.908,-411.433,-55.306,-1.475,-23.781,136.66,-45.252,-11.352,-21.653,-9.416,-73.822,-12.553,18.028,16.888,-10.609,43.328,10.889,-6.325,34.328,6.833,13.998,10.897,5.697,25.771,-13.141,7.235,-40.002,-210.668
0.044030999997630715,-29.809,-25.446,-404.362,-57.3,-5.06,-28.368,113.469,-49.817,-16.464,-26.242,-16.067,-77.846,-15.615,25.183,14.309,-11.623,38.673,12.927,-8.368,31.732,1.703,6.811,8.836,0.056,29.332,-16.714,-0.969,-42.523,-220.192
0.05895560001954436,-49.759,-39.253,-418.302,-70.563,-25.547,-47.807,81.08,-66.673,-35.403,-45.171,-35.006,-95.699,-35.579,-0.458,-1.074,-31.592,18.655,-6.041,-29.364,8.134,-18.279,-10.614,-4.492,-15.314,22.13,-35.141,-15.313,-55.801,-232.779
0.05901830003131181,-54.32,-42.8,-422.495,-71.517,-31.669,-52.37,82.536,-67.119,-36.904,-49.737,-39.582,-99.702,-43.228,-17.364,-9.782,-40.782,13.513,-15.257,-38.556,-0.583,-24.408,-12.652,-9.611,-21.446,23.132,-43.815,-19.909,-61.892,-232.546
0.07292060006875545,-41.971,-34.048,-405.678,-60.174,-15.244,-37.973,115.241,-54.757,-22.01,-36.88,-27.247,-82.184,-28.84,-8.125,-0.551,-25.372,22.209,-2.946,-22.636,15.299,-11.576,-0.857,0.645,-12.203,22.085,-30.451,-11.692,-52.097,-215.92
0.07298400008585304,-30.145,-27.866,-395.539,-51.405,-7.544,-31.275,147.914,-53.677,-15.841,-28.646,-16.461,-67.757,-19.078,8.277,12.257,-11.514,33.457,9.352,-8.781,26.042,0.218,7.853,8.329,-0.408,10.792,-16.076,-0.922,-45.385,-205.97
0.08795489999465644,-23.455,-24.252,-381.311,-47.768,-9.073,-32.268,119.076,-59.259,-20.436,-28.105,-13.371,-65.128,-21.62,15.954,16.856,-9.966,38.035,4.22,-10.822,26.016,3.292,9.895,10.882,6.765,18.466,-12.474,5.227,-42.265,-204.227
0.08977040008176118,-20.87,-18.08,-368.634,-48.744,-5.99,-26.089,86.682,-51.003,-22.977,-27.052,-12.333,-58.403,-20.062,11.327,18.376,-7.906,34.41,1.142,-11.835,28.039,4.826,11.934,12.92,8.295,46.112,-10.924,10.345,-26.342,-203.511
0.10301379999145865,-11.116,-9.353,-381.586,-45.622,-2.91,-19.402,90.181,-38.144,-15.269,-19.853,-6.685,-44.512,-11.845,14.902,23.993,0.811,39.499,17.535,-2.09,32.622,10.456,19.094,15.469,11.873,52.726,-3.229,20.581,-12.995,-204.844
0.10308940010145307,1.191,-2.684,-388.376,-34.818,4.265,-15.797,122.879,-37.594,-6.032,-11.636,2.543,-35.246,-8.759,29.744,31.141,11.568,49.706,26.226,5.597,39.762,18.643,26.76,19.04,23.132,42.427,7.021,27.22,-17.593,-192.856
0.11837030004244298,0.165,-4.73,-373.131,-32.734,10.408,-11.17,119.17,-39.093,-5.002,-10.087,4.077,-29.063,-10.799,28.689,27.012,15.655,44.533,13.392,3.542,45.87,21.186,28.782,20.557,27.72,47.507,8.038,24.119,-20.137,-174.733
0.11843200004659593,-7.52,-10.873,-367.122,-41.41,4.762,-15.77,86.775,-38.029,-8.583,-14.176,-2.075,-23.398,-10.276,18.927,14.689,8.98,40.39,14.404,1.489,40.701,16.554,26.704,16.951,20.007,46.435,0.346,23.07,-12.432,-184.292
0.13301460002548993,-8.024,-11.887,-368.805,-45.467,-2.415,-24.976,101.033,-42.09,-12.161,-18.26,-8.22,-24.4,-10.778,26.593,10.064,2.823,45.985,25.148,0.463,32.975,11.926,22.067,15.397,15.376,23.335,-5.29,21.51,-14.469,-204.6
0.14808730001095682,-10.066,-11.363,-369.973,-45.934,-1.388,-24.438,113.228,-47.171,-15.222,-22.34,-9.749,-23.863,-16.403,30.664,10.054,1.796,41.328,13.852,-4.148,31.918,11.402,17.434,15.381,17.41,24.336,-6.822,15.853,-26.75,-201.834
0.14815520006231964,-9.543,-10.839,-375.238,-42.814,0.151,-19.291,107.479,-46.099,-15.207,-20.269,-6.665,-11.031,-14.85,20.388,10.556,0.769,38.725,8.202,-2.095,32.911,13.44,18.954,16.391,14.831,56.587,-5.79,17.375,-29.285,-191.898
0.14994870009832084,-1.337,-4.168,-370.764,-34.575,6.811,-15.173,119.667,-41.954,-14.167,-12.564,-1.536,3.837,-4.589,24.978,15.156,6.404,50.982,27.662,8.666,38.001,18.037,26.107,20.985,13.28,62.678,-2.711,24.529,-22.595,-191.194
0.16312830010429025,-2.36,-1.09,-369.369,-36.077,9.878,-13.109,91.37,-37.302,-16.715,-12.551,-2.046,6.907,-7.146,29.564,16.166,11.52,47.345,24.56,9.682,42.061,19.044,29.155,23.013,20.951,43.66,1.903,23.993,-22.061,-195.101
0.1631923000095412,-12.092,-6.212,-382.832,-46.799,-0.891,-17.194,59.004,-39.314,-22.333,-19.199,-8.704,4.85,-21.995,8.017,6.928,-0.274,25.268,-3.641,-3.648,28.699,10.828,22.466,14.793,23.491,40.031,-3.734,17.309,-30.748,-202.59
0.1781393000856042,-14.129,-8.768,-377.838,-45.728,-8.062,-22.3,91.732,-48.496,-27.946,-22.253,-15.868,7.919,-28.121,-4.798,-2.301,-12.569,20.632,-8.248,-14.915,16.375,2.108,12.197,2.996,9.123,30.769,-16.538,11.656,-35.84,-200.851
0.17821590008679777,-12.065,-7.734,-358.505,-38.51,-7.542,-19.716,97.788,-49.984,-27.406,-23.256,-15.34,17.645,-23.482,8.014,-5.884,-9.483,32.907,7.642,-15.412,21.994,2.106,8.086,0.431,-1.644,15.369,-18.571,12.157,-32.218,-188.867
0.19317189999856055,-7.955,-3.116,-363.782,-40.008,-9.584,-11.499,65.415,-40.713,-21.743,-19.646,-9.177,30.435,-20.385,17.228,-3.829,-5.375,36.46,12.245,-7.712,25.558,9.276,14.226,8.627,7.579,34.309,-10.356,19.829,-24.501,-189.703
0.19324140006210655,-1.799,4.06,-374.689,-41.505,-8.037,-5.853,90.453,-37.086,-20.697,-15.528,-8.143,38.09,-19.34,16.698,0.273,-5.369,32.325,8.134,-3.606,21.946,12.853,18.31,13.742,13.719,54.767,-10.857,20.834,-24.477,-194.124
0.2082569000776857,-5.384,2.006,-364.58,-38.902,-5.467,-7.896,123.15,-44.221,-23.75,-21.148,-12.233,42.662,-20.857,19.755,0.273,-4.852,32.805,4.027,-8.213,23.461,9.766,14.193,10.142,8.582,36.269,-14.433,13.641,-33.674,-180.097
0.2101132000098005,-11.014,-2.094,-357.556,-37.839,-6.487,-13.011,90.751,-44.689,-19.628,-20.615,-8.122,55.427,-16.226,18.711,0.785,-3.31,39.433,6.585,-6.668,24.463,9.756,15.716,11.157,12.672,25.474,-6.734,17.213,-34.665,-175.819
0.22341590002179146,-6.904,-0.043,-366.42,-39.85,-3.406,-11.461,79.902,-41.058,-16.534,-11.885,-5.553,67.155,-8.525,17.155,3.346,-1.258,41.955,14.263,-1.026,21.364,13.333,20.823,14.732,20.344,39.281,-1.604,23.856,-24.896,-200.746
0.23863270005676895,-8.946,-4.653,-377.837,-46.47,-3.915,-12.987,112.61,-50.239,-24.202,-18.533,-13.744,64.526,-14.664,24.823,-0.756,-5.867,37.302,12.712,-7.685,18.781,10.246,16.704,8.569,16.225,36.68,-7.75,15.635,-26.408,-214.378
0.23870220000389963,-10.474,-6.698,-371.311,-46.424,-7.497,-13.998,120.694,-51.725,-25.203,-20.051,-12.194,69.585,-21.822,29.409,-5.366,-11.497,35.215,3.99,-11.264,18.763,9.211,18.737,9.585,17.234,27.935,-6.205,13.058,-32.017,-185.986
0.25320430006831884,7.979,12.776,-350.96,-26.91,3.781,3.946,88.298,-27.083,-10.321,0.973,5.749,93.594,-7.968,29.892,3.348,1.323,41.84,9.621,3.092,29.502,19.448,31.526,21.871,29.0,38.153,5.072,27.39,-21.227,-153.013
0.25326710008084774,16.168,21.985,-348.047,-18.173,11.974,15.726,67.205,-14.76,-8.773,3.534,10.354,103.746,0.237,36.009,7.443,9.518,47.434,19.858,7.188,36.645,23.014,29.957,20.312,27.946,48.873,4.042,31.461,-14.545,-166.18
0.26833310001529753,0.27,4.545,-362.556,-38.135,-0.846,-3.246,68.675,-37.287,-25.671,-15.937,-6.05,92.884,-17.694,30.85,-6.396,-8.422,41.751,16.252,-7.164,22.264,9.671,15.07,9.533,13.573,52.41,-11.844,18.109,-30.412,-198.289
0.2683965000323951,-4.341,-3.144,-363.73,-47.831,-5.968,-14.513,79.877,-46.984,-29.231,-16.434,-12.191,93.816,-24.336,11.864,-13.05,-20.197,35.561,14.186,-8.694,14.557,3.514,17.104,11.573,7.412,53.383,-17.467,12.456,-39.091,-202.701
0.28333100001327693,4.373,6.08,-358.756,-38.562,0.186,-1.179,95.166,-31.055,-18.956,-7.708,-3.982,106.017,-12.016,11.34,-4.328,-7.881,41.161,18.783,0.536,26.838,13.244,26.309,15.148,12.015,42.571,-10.277,19.103,-29.318,-174.834
0.28339750005397946,-1.779,0.951,-368.643,-39.548,-4.425,-2.714,93.534,-35.635,-24.572,-15.385,-5.515,104.887,-16.103,23.624,-6.885,-9.922,43.169,9.543,-5.612,23.225,10.67,17.573,5.399,7.393,25.622,-13.853,16.523,-29.801,-179.27
0.2983126000035554,-12.024,-10.321,-380.57,-45.656,-13.642,-18.593,76.022,-55.067,-37.355,-25.616,-17.293,97.097,-29.919,18.477,-22.247,-29.38,29.294,-1.738,-16.877,4.759,-3.686,6.797,-2.804,-1.836,22.01,-26.135,5.748,-38.481,-197.021
0.29837490001227707,-4.839,-2.113,-374.042,-41.512,-11.067,-12.427,59.04,-46.303,-28.097,-19.955,-12.665,106.734,-20.155,15.385,-21.2,-27.814,30.289,8.51,-9.688,10.901,3.49,16.012,5.908,11.486,32.747,-16.375,13.427,-30.758,-175.82
0.3133222000906244,6.436,8.647,-353.688,-40.958,-4.396,2.955,61.543,-26.789,-13.212,-7.639,1.18,125.07,-2.204,34.325,-6.835,-11.392,49.727,18.748,5.691,27.797,21.93,28.804,19.222,31.454,46.034,2.597,28.782,-17.407,-156.176
0.31338539998978376,2.332,-0.583,-347.699,-45.015,-5.416,-1.659,89.146,-38.545,-21.395,-8.144,-3.944,125.457,-9.374,40.438,-8.365,-13.942,48.652,8.995,5.173,23.158,15.76,22.627,15.105,20.664,43.939,-3.553,21.581,-24.05,-177.537
0.3283285000361502,-7.917,-9.804,-373.991,-42.409,-12.071,-15.49,100.327,-57.462,-34.182,-21.456,-18.285,113.549,-22.173,19.906,-23.725,-29.81,34.771,6.425,-9.177,11.864,2.424,12.358,0.745,3.737,29.55,-16.357,9.777,-32.735,-197.852
0.3283894000342116,-5.348,-0.573,-390.523,-39.805,-12.059,-15.474,79.222,-48.695,-29.537,-23.996,-17.754,115.485,-19.077,12.713,-26.263,-35.416,38.323,17.689,-13.778,10.315,7.545,14.395,2.281,12.443,25.422,-10.193,14.378,-21.944,-195.605
0.3434743999969214,-0.731,4.551,-361.956,-39.765,-5.899,-10.336,75.045,-36.863,-25.409,-17.312,-13.126,124.078,-18.033,26.533,-20.602,-32.306,40.846,13.573,-8.129,13.379,10.611,20.016,12.525,21.652,39.741,-4.036,17.437,-18.335,-184.651
0.343537800014019,0.294,-1.089,-338.54,-35.114,-1.282,-8.276,80.605,-36.827,-25.383,-15.758,-11.576,128.053,-19.04,36.24,-18.532,-26.639,39.268,6.899,-3.51,20.026,9.064,20.509,12.0,17.02,55.583,-5.568,17.42,-31.637,-163.974
0.3584539000876248,12.077,4.548,-354.595,-30.469,0.256,0.442,71.815,-26.544,-15.624,-7.545,-0.293,139.708,-6.725,40.302,-5.193,-16.366,52.037,20.725,6.227,30.252,21.862,25.099,11.988,18.027,49.892,1.609,26.624,-32.118,-156.125
0.3585239000385627,17.188,7.105,-369.098,-35.049,-2.818,3.003,89.674,-24.98,-17.658,-3.951,1.756,143.667,-5.181,36.164,4.033,-17.886,50.96,22.241,10.832,29.197,26.451,30.709,14.026,21.595,27.813,4.169,28.646,-26.963,-182.097
0.37422440003138036,-0.76,-9.809,-364.63,-47.822,-12.037,-12.882,97.781,-49.034,-36.595,-23.415,-16.176,127.641,-25.669,15.635,-14.926,-36.312,31.441,0.702,-2.499,16.872,11.056,23.506,6.839,13.889,19.588,-7.618,17.347,-37.694,-199.845
0.37428920005913824,-3.321,-13.897,-365.29,-49.823,-14.586,-15.943,65.408,-53.083,-37.583,-30.052,-20.258,124.952,-28.204,6.398,-27.206,-44.472,31.922,-1.348,-7.107,12.757,6.946,13.749,3.246,6.703,30.327,-12.221,13.743,-37.144,-190.936
0.38848560000769794,10.002,-2.613,-367.999,-39.015,-9.449,-2.607,63.806,-37.661,-26.787,-14.652,-6.406,140.196,-14.344,20.224,-14.884,-37.768,41.624,10.948,2.121,16.843,15.136,18.346,8.366,4.647,33.883,-7.598,20.39,-24.299,-188.696
0.3885526000522077,4.357,-5.684,-361.483,-42.049,-12.513,-9.264,96.53,-48.381,-31.371,-15.662,-6.399,139.544,-17.916,28.913,-14.357,-38.755,38.509,12.987,1.094,19.387,13.584,24.475,8.358,8.741,28.726,-7.59,23.955,-32.472,-184.921
0.4035070000682026,13.574,-0.555,-349.338,-44.569,-7.378,-7.718,73.379,-45.259,-25.704,-13.597,-2.807,145.552,-12.775,35.544,-13.83,-34.617,47.692,23.732,5.192,29.614,20.231,30.086,15.522,26.663,27.16,3.176,32.128,-33.464,-159.121
0.41852160007692873,45.324,27.11,-336.181,-18.397,16.708,25.077,41.031,-12.426,-3.65,15.105,21.274,172.047,15.415,53.952,7.188,-13.578,64.038,36.004,23.63,46.491,39.678,42.351,29.338,41.493,25.084,24.177,47.978,-3.204,-151.79
0.418589900014922,32.983,24.521,-347.628,-11.206,16.179,25.052,73.777,-21.123,-13.38,12.017,18.179,166.239,9.764,46.725,5.132,-17.151,48.092,17.013,14.385,38.76,31.441,35.137,15.477,25.058,26.596,15.444,40.245,-1.664,-183.913
0.4334820000221953,0.675,-7.779,-375.97,-43.47,-8.94,-7.248,106.491,-53.377,-42.056,-20.271,-13.602,136.359,-22.521,14.403,-21.513,-48.897,23.453,0.089,-11.245,15.667,9.381,13.585,-1.957,3.003,47.574,-10.699,16.639,-33.938,-200.635
0.4335442000301555,21.166,0.938,-359.712,-42.914,-3.296,0.444,74.109,-35.906,-32.792,-13.078,-6.416,148.006,-12.765,14.389,-10.733,-45.262,35.725,20.069,5.672,28.459,24.228,28.428,16.488,14.783,66.994,1.607,29.942,-26.732,-167.647
0.4484888000879437,49.322,32.188,-326.565,-10.084,16.688,33.231,74.548,-3.082,-8.681,17.673,22.792,173.473,17.987,43.576,14.381,-18.064,55.157,34.394,30.77,53.534,44.696,52.478,30.816,33.724,56.168,28.245,56.04,6.083,-146.475
0.44854610005859286,22.12,13.201,-348.78,-24.418,-1.26,13.73,100.088,-29.719,-25.578,0.749,5.351,154.857,1.062,32.262,-5.101,-35.977,38.708,16.429,8.197,32.475,21.598,29.884,12.854,17.809,34.595,7.212,31.905,-12.366,-178.604
0.46351900009904057,-6.079,-19.088,-380.706,-56.669,-23.288,-18.559,67.713,-59.915,-51.68,-26.916,-24.369,131.136,-27.116,8.151,-30.712,-68.216,19.714,2.068,-14.865,6.315,1.084,8.337,2.083,-2.701,26.364,-22.509,2.16,-44.629,-199.43
0.4652677000267431,8.272,-8.31,-369.567,-45.854,-11.994,-6.758,37.419,-40.388,-39.846,-15.106,-13.586,142.275,-17.867,21.975,-17.873,-57.902,31.99,11.287,1.544,22.703,16.964,26.772,12.327,11.134,24.288,-5.58,20.088,-27.166,-189.496
0.4786324000451714,21.071,8.092,-345.119,-25.828,-3.785,5.032,70.169,-37.786,-28.023,-3.308,-1.277,152.891,-6.578,32.712,-6.072,-45.036,42.716,18.448,11.276,35.488,25.657,33.917,17.438,27.004,26.826,10.307,35.95,-1.012,-191.869
0.4786991000873968,6.706,-5.749,-349.385,-42.196,-14.027,-11.367,83.419,-58.753,-44.901,-17.137,-13.571,140.443,-16.306,16.797,-17.337,-63.434,31.915,11.257,-3.592,19.058,12.823,18.002,9.224,14.682,26.286,-9.171,19.008,-18.941,-191.677
0.4946849000407383,-0.986,-14.964,-358.257,-53.425,-13.501,-12.892,51.06,-51.522,-49.979,-21.218,-15.094,135.692,-22.437,12.682,-20.394,-74.129,26.76,7.148,-11.785,14.941,11.274,15.422,-0.007,4.933,13.452,-17.359,9.767,-35.828,-176.116
0.49475030007306486,12.848,-5.216,-357.899,-38.002,-1.704,5.052,64.329,-36.613,-32.511,-5.828,-0.735,150.413,-12.681,25.477,-8.59,-62.272,38.516,18.411,-2.552,29.271,21.508,23.092,5.628,11.588,25.222,-1.972,21.028,-19.911,-179.013
0.50870040000882,24.106,4.011,-349.856,-32.841,5.982,8.633,97.053,-43.749,-26.33,2.375,5.414,160.509,-0.373,40.308,-0.897,-52.988,46.675,28.639,10.771,37.438,27.122,29.216,17.406,13.626,57.984,4.69,30.229,-8.62,-181.908
0.5087672000518069,15.885,2.47,-340.797,-48.178,2.39,-2.134,64.68,-50.365,-36.038,-8.386,-3.813,152.151,-4.983,40.268,-3.97,-60.62,38.943,19.389,7.174,31.253,22.997,27.138,10.216,6.952,42.045,-4.024,24.051,-20.395,-166.869
0.5237056000623852,5.623,-7.778,-348.653,-51.203,-7.346,-7.255,32.34,-46.729,-44.199,-20.673,-13.543,140.216,-21.884,17.174,-14.212,-74.904,25.585,5.537,-6.666,21.488,13.752,17.377,0.984,4.896,9.728,-11.705,12.756,-30.108,-176.436
0.525449600070715,15.351,-2.648,-353.428,-27.074,-1.191,1.461,65.096,-40.534,-40.056,-10.918,-6.87,147.248,-16.227,13.571,-9.075,-70.73,29.145,10.142,2.05,29.663,21.935,26.581,13.279,12.576,39.432,-1.959,19.915,-14.709,-193.678
0.5387392000993714,30.192,16.311,-333.094,-12.702,14.179,11.706,97.818,-33.321,-30.282,2.925,5.433,158.884,0.183,39.173,7.841,-58.364,38.85,17.817,16.393,41.417,35.746,40.387,19.413,21.785,72.18,11.875,33.728,4.261,-175.554
0.5388075000373647,14.793,2.462,-334.81,-36.768,0.845,0.423,65.445,-40.973,-41.523,-13.472,-9.43,143.868,-14.674,29.4,-7.024,-78.798,26.003,7.553,-5.653,20.371,15.73,18.317,-0.074,8.955,39.832,-7.605,19.349,-10.6,-170.255
0.5537622000556439,-17.497,-29.816,-366.751,-61.322,-25.284,-26.217,49.498,-63.985,-62.998,-39.074,-35.548,115.548,-43.348,-2.905,-39.293,-110.995,5.485,-6.799,-33.824,-7.826,-15.024,-8.341,-18.005,-17.181,7.517,-37.823,-8.847,-40.816,-202.361
0.55382999998983,-23.627,-29.786,-381.241,-54.088,-25.771,-32.851,62.256,-66.995,-60.374,-39.547,-37.049,112.358,-43.305,-0.341,-42.327,-110.372,7.016,-4.231,-28.667,-4.232,-11.935,-1.673,-13.888,-19.726,21.342,-36.248,-11.912,-38.726,-214.454
0.5687141000526026,-2.599,-5.166,-353.708,-35.591,-13.45,-13.863,29.919,-41.825,-42.895,-27.724,-23.18,128.64,-27.893,20.152,-24.354,-95.917,19.305,4.482,-9.683,14.215,9.593,12.673,0.982,-0.238,54.108,-18.281,7.055,-13.584,-186.062
0.5687747000483796,12.26,4.061,-326.202,-32.481,-6.776,-1.041,62.676,-28.976,-36.192,-18.475,-12.911,140.294,-17.106,28.329,-14.084,-89.673,26.97,8.576,-0.964,25.984,20.855,20.345,10.715,10.008,72.497,-9.042,20.881,-11.521,-157.187
0.5838132000062615,11.223,-1.066,-322.802,-46.281,-3.183,-6.163,95.401,-44.828,-37.693,-13.333,-8.287,143.228,-13.503,31.886,-12.02,-81.899,26.943,10.105,-2.5,31.081,20.322,24.936,10.705,6.924,65.252,-5.446,18.811,-31.489,-158.054
0.5856574000790715,10.188,-8.237,-342.971,-59.555,-3.692,-12.817,63.031,-54.517,-43.29,-16.906,-7.254,142.572,-17.076,23.145,-39.673,-81.817,21.281,8.045,-3.522,32.587,16.715,22.349,8.132,5.38,38.547,-8.515,15.206,-36.581,-186.585
0.5988130000187084,23.497,-4.643,-361.071,-50.274,3.996,-5.12,30.692,-40.63,-43.759,-13.303,1.975,151.139,-12.96,19.536,-71.909,-78.661,26.895,6.5,10.826,50.485,28.994,32.573,15.297,10.498,42.095,-3.895,24.412,-15.54,-203.817
0.614201300079003,39.355,10.219,-353.538,-26.145,18.337,6.156,63.449,-31.368,-31.932,0.03,14.78,165.332,0.885,34.373,-77.472,-61.676,37.626,12.642,24.135,71.439,44.334,47.91,26.04,18.685,62.545,11.478,34.121,-0.667,-186.195
0.6142650000983849,32.144,12.77,-341.401,-20.484,13.708,3.589,96.173,-37.997,-28.827,-0.482,8.618,159.531,0.372,30.753,-44.607,-65.201,32.978,22.363,14.889,57.023,35.068,37.103,22.94,20.203,57.359,7.88,27.94,-10.401,-171.152
0.6288785000797361,12.132,1.999,-343.621,-34.808,0.374,-7.173,63.802,-47.18,-42.63,-12.777,-4.711,139.904,-11.924,19.451,-14.848,-88.189,29.871,25.927,0.017,32.375,17.102,17.086,8.06,9.936,66.011,-12.108,15.616,-22.686,-173.542
0.6289448000025004,-3.25,-12.86,-355.061,-53.728,-5.262,-18.949,31.463,-58.404,-52.834,-23.011,-12.903,127.469,-23.695,23.53,-30.715,-98.86,28.817,11.044,-10.741,23.121,5.814,4.774,-2.707,-10.566,72.605,-27.977,2.793,-32.397,-184.127
0.6439304000232369,-13.493,-28.729,-379.809,-66.995,-16.527,-29.176,11.451,-67.567,-55.342,-29.648,-23.648,118.12,-32.893,16.334,-38.369,-105.933,13.931,-7.41,-19.44,12.34,-3.925,-4.965,-5.778,-23.875,40.257,-38.708,-6.431,-41.586,-212.12
0.6440073000267148,-2.721,-19.479,-383.527,-55.145,-13.949,-15.827,17.587,-48.544,-44.016,-15.786,-11.842,126.711,-18.515,19.392,-5.543,-100.704,22.114,9.503,-0.977,20.524,11.96,11.946,3.962,-5.408,28.946,-22.275,9.969,-26.687,-222.154
0.6589164000470191,28.02,10.255,-350.356,-30.499,10.655,13.39,50.357,-17.245,-21.943,10.358,19.421,154.761,11.729,51.648,27.25,-71.914,50.781,39.208,26.176,50.73,41.662,42.673,21.376,25.848,61.705,10.535,38.648,-3.095,-189.144
0.6589820000808686,26.968,6.658,-326.44,-34.054,9.62,8.766,48.258,-21.838,-24.995,2.663,11.717,151.533,5.57,49.547,16.977,-74.916,39.972,26.361,13.855,43.507,31.887,33.921,16.232,20.699,68.303,7.963,33.999,-14.362,-168.975
0.6729447999969125,1.326,-12.304,-352.753,-47.853,-11.906,-14.297,44.111,-44.358,-46.999,-22.955,-16.984,120.643,-22.1,22.345,-3.532,-106.604,15.341,5.842,-10.238,14.774,9.313,12.882,-1.203,-3.4,35.96,-21.247,13.472,-26.643,-195.958
0.6730138000566512,7.472,1.029,-360.085,-30.386,-7.284,-6.086,72.244,-36.117,-42.854,-16.272,-8.258,120.522,-18.492,34.106,6.205,-102.399,27.621,19.156,-2.031,23.468,18.525,22.603,5.458,3.263,46.17,-14.053,19.094,-8.686,-199.349
0.6878749000607058,20.784,10.249,-339.233,-12.425,0.408,7.241,59.364,-18.662,-29.491,-3.448,1.484,130.648,-8.227,38.683,16.445,-90.514,29.643,21.699,3.095,32.667,24.655,24.118,14.675,11.969,74.301,-3.281,25.223,-8.677,-173.022
0.6879366000648588,2.833,-7.692,-341.967,-29.831,-12.912,-7.111,44.96,-31.964,-41.244,-16.765,-13.374,112.074,-22.564,10.979,4.133,-110.916,10.145,4.258,-12.278,13.679,10.285,6.163,-1.222,-5.974,42.463,-23.77,11.365,-25.062,-174.385
0.7029795000562444,-4.855,-10.246,-347.261,-44.658,-15.973,-15.813,77.703,-49.35,-46.839,-24.433,-13.873,103.765,-25.615,15.579,-2.019,-114.391,16.795,11.426,-13.29,13.153,10.787,8.718,-5.831,-9.041,26.539,-26.308,10.329,-11.205,-193.166
0.7030417000642046,16.155,4.621,-328.983,-29.244,3.51,-2.478,71.477,-38.542,-32.959,-8.014,-0.027,122.617,-8.171,37.593,12.328,-92.247,31.123,27.297,5.679,35.169,28.195,27.153,12.618,14.021,57.251,-2.715,27.738,3.663,-188.875
0.7180313999997452,24.336,4.617,-319.945,-20.506,13.241,5.21,39.131,-22.11,-32.414,1.728,3.047,129.666,-2.527,29.871,22.562,-87.544,26.994,23.683,16.431,43.33,37.901,32.248,19.265,21.692,71.026,4.46,34.37,-13.247,-171.268
0.7180961000267416,13.553,-4.609,-332.432,-33.805,1.444,-3.505,23.722,-27.211,-43.14,-8.008,1.507,118.778,-10.209,23.693,20.49,-94.117,25.43,20.586,11.804,37.139,32.74,27.605,13.098,10.4,71.98,-3.229,28.188,-24.504,-171.609
0.7330745999934152,8.416,-5.117,-341.321,-39.407,-6.242,-14.772,56.486,-43.065,-44.634,-17.222,-4.13,110.975,-14.81,27.768,22.006,-95.559,25.917,20.053,7.182,34.028,24.51,23.479,12.06,7.828,77.031,-6.3,25.086,-12.697,-187.318
0.7331411000341177,9.945,0.523,-342.005,-34.244,-0.088,-17.319,89.217,-51.219,-44.589,-15.155,-7.712,109.839,-14.283,24.154,25.058,-99.562,22.817,14.91,5.125,33.482,23.461,21.919,11.536,12.943,58.511,-5.269,24.548,0.124,-187.131
0.7484430000185966,8.398,1.548,-347.298,-39.846,-0.6,-12.691,64.537,-50.656,-48.131,-15.14,-5.655,107.168,-14.781,29.765,19.398,-103.561,24.843,15.919,0.509,29.35,22.925,19.335,6.914,6.782,33.349,-8.85,19.913,2.173,-178.235
0.7485084000509232,1.729,-4.602,-353.611,-44.929,-8.796,-13.19,35.784,-48.043,-48.595,-21.273,-11.797,98.351,-19.377,37.42,14.255,-107.044,25.331,18.465,-3.077,25.735,17.267,14.193,5.37,-3.983,38.951,-18.062,15.282,-11.149,-186.253
0.7630359000759199,1.215,-7.671,-350.696,-37.199,-8.275,-16.251,17.817,-42.36,-45.985,-21.251,-15.371,92.105,-20.894,31.235,15.266,-112.572,23.768,18.446,0.0,26.733,17.762,16.74,9.463,-1.418,59.917,-18.557,15.267,-23.946,-190.678
0.7630960000678897,8.387,1.046,-339.586,-30.502,-0.582,-8.038,1.918,-31.047,-40.816,-14.57,-5.622,95.599,-15.238,29.154,16.275,-111.435,27.843,22.526,1.536,30.293,21.842,22.871,10.99,10.367,68.054,-9.829,19.35,-15.213,-177.68
0.7781620000023395,13.501,13.853,-322.853,-24.836,6.078,4.778,31.63,-20.77,-32.578,-7.383,-0.493,97.041,-10.612,33.224,22.406,-104.664,28.84,25.065,3.072,34.361,22.845,23.361,10.467,14.967,62.35,-6.745,25.479,-2.39,-176.477
0.7931323000229895,14.0,18.45,-311.772,-13.028,8.122,5.285,64.386,-22.798,-30.496,-3.79,1.556,90.796,-11.626,24.481,33.655,-104.559,26.249,19.405,5.118,36.376,24.872,22.825,9.432,10.342,54.091,-5.202,29.039,-4.437,-183.473
0.7931993000674993,7.326,5.623,-332.465,-15.577,-0.084,-4.966,66.883,-35.583,-38.15,-9.933,0.53,82.508,-17.25,10.112,26.449,-112.139,21.1,9.139,-5.646,26.606,17.162,13.068,-0.311,-3.501,40.205,-13.393,19.276,-15.191,-188.413
0.8082536000292748,-4.464,-8.727,-361.846,-30.418,-5.719,-11.621,34.541,-36.572,-44.26,-18.12,-10.741,75.766,-21.843,9.077,9.516,-119.711,12.882,-2.653,-17.423,17.87,4.337,-1.289,-9.532,-17.33,21.721,-34.384,4.913,-25.422,-200.52
0.8083152000326663,6.299,1.016,-345.603,-24.24,6.582,-0.339,9.915,-19.629,-34.994,-8.368,-3.558,80.813,-13.112,23.413,22.827,-110.882,20.042,4.01,-5.11,30.147,16.628,10.495,1.236,-9.628,24.774,-28.202,12.08,-22.322,-203.905
0.8231116000097245,28.834,17.921,-314.518,-8.846,16.822,15.031,42.693,-12.437,-22.151,4.448,17.45,94.565,1.245,37.222,49.444,-91.816,37.44,29.109,12.826,44.462,38.129,33.026,15.067,7.288,54.463,3.589,30.511,-5.394,-188.332
0.8231683000922203,17.022,9.706,-335.209,-25.231,6.559,1.696,70.827,-33.429,-34.425,-9.901,4.625,85.761,-7.977,34.111,42.222,-101.458,29.718,28.568,4.104,33.659,25.795,23.772,6.342,3.694,59.019,2.048,27.407,-6.925,-185.582
0.838178800069727,-11.684,-10.284,-367.149,-51.334,-10.354,-29.557,38.481,-63.11,-64.104,-36.019,-24.069,54.937,-34.097,21.781,15.028,-131.583,12.27,2.924,-15.368,15.182,2.715,3.768,-5.959,-9.629,31.808,-25.618,6.375,-29.972,-194.106
0.839962900034152,-3.988,-7.2,-343.728,-45.647,-8.294,-26.453,6.167,-58.436,-63.015,-33.934,-17.385,52.32,-32.014,22.272,15.013,-127.865,21.991,9.068,-8.693,22.339,15.52,16.572,2.243,-2.96,36.387,-19.957,10.467,-22.77,-184.178
0.853277700021863,28.804,19.448,-310.596,-18.449,16.305,6.361,0.526,-25.59,-30.165,-1.625,11.834,81.982,-2.268,39.156,41.125,-94.95,41.437,34.675,17.956,51.519,44.706,43.195,22.734,21.634,68.113,10.801,39.145,10.041,-165.551
0.85334520007018,34.922,30.187,-317.458,-7.672,27.559,16.088,33.313,-17.367,-22.45,9.648,18.995,87.535,5.419,43.215,39.035,-92.293,36.785,26.443,20.5,59.664,41.588,40.59,24.76,25.199,60.361,12.327,42.692,15.154,-171.021
0.8686917000450194,8.248,2.492,-342.756,-23.034,10.113,-9.031,48.649,-49.625,-48.555,-14.953,-2.029,61.32,-19.177,19.606,6.721,-116.792,18.305,6.949,-6.161,35.013,13.882,14.422,2.194,-4.54,31.611,-19.448,12.424,-17.137,-187.756
0.8687611999921501,-1.495,-16.466,-333.192,-31.208,4.98,-15.682,16.325,-49.063,-52.093,-22.11,-12.273,53.062,-24.793,12.414,-15.315,-119.749,18.799,15.139,-11.278,29.343,10.794,9.797,-0.882,-17.344,43.875,-32.749,2.165,-39.149,-181.42
0.8832709999987856,16.95,-2.105,-314.928,-15.807,20.857,-0.297,22.456,-22.887,-31.548,-1.083,5.158,67.353,-7.862,38.017,3.143,-104.26,31.588,20.247,8.713,50.318,27.177,25.156,17.049,-0.42,63.811,-15.81,20.094,-26.815,-170.993
0.8833344000158831,14.884,-4.152,-333.056,-16.816,17.25,-5.42,55.221,-39.258,-37.665,-3.644,9.251,63.187,-12.978,36.442,0.578,-107.229,23.872,3.32,3.582,45.657,22.027,21.033,8.323,-4.518,36.595,-15.794,21.098,-21.665,-196.437
0.8982731000287458,-0.5,-20.029,-352.191,-37.804,9.548,-19.759,54.141,-61.248,-54.533,-21.571,-5.615,51.341,-25.772,14.376,-21.452,-116.344,13.089,3.317,-11.791,32.804,12.783,10.253,-3.468,-14.76,18.115,-28.074,9.806,-23.18,-214.684
0.9000764000229537,12.82,-5.152,-329.297,-33.668,23.883,-7.956,21.812,-43.256,-44.745,-8.742,2.587,62.56,-12.427,28.706,-8.622,-106.493,28.445,24.831,3.077,49.165,28.14,25.1,15.491,8.821,50.885,-11.139,21.067,-12.398,-181.681
0.9133760000113398,27.152,9.71,-304.377,-16.216,32.568,6.909,9.495,-31.429,-33.941,7.661,18.466,73.256,1.418,47.633,16.489,-93.579,39.688,26.855,18.444,60.899,37.845,38.395,24.184,22.132,69.789,6.29,35.903,-12.898,-156.909
0.9134487000992522,19.953,6.114,-310.732,-16.712,30.999,3.828,14.096,-37.033,-39.031,1.506,15.374,67.548,0.392,33.241,20.571,-94.51,29.914,13.508,14.839,54.69,33.709,33.746,14.426,10.839,49.739,0.136,33.818,-21.595,-178.269
0.9283866999903694,22.494,15.841,-319.643,-14.646,35.066,3.824,29.451,-32.385,-36.43,2.016,15.871,64.919,-1.145,23.986,26.698,-96.977,26.298,14.007,15.849,57.709,38.286,35.249,21.072,16.976,54.813,2.185,34.296,-8.765,-184.238
0.9284476001048461,28.107,25.047,-320.348,-6.946,28.883,6.382,61.697,-35.427,-31.783,4.576,16.367,61.268,-7.804,24.474,34.869,-99.954,27.296,20.141,18.395,56.115,40.297,39.824,25.149,25.156,76.275,8.843,39.385,7.637,-159.976
0.9433612000430003,17.833,17.337,-324.126,-12.063,19.633,-0.797,44.729,-45.638,-39.948,-8.236,4.055,51.985,-15.481,19.327,32.785,-104.977,25.732,21.658,15.302,47.862,34.621,36.198,17.439,13.86,63.903,0.637,37.809,0.97,-152.643
0.9584053000435233,9.618,17.832,-324.827,-22.297,24.736,-5.919,12.409,-42.518,-45.031,-12.327,2.002,48.859,-14.441,22.894,34.289,-107.434,26.731,17.537,13.75,47.814,31.001,30.015,17.422,8.723,42.835,-4.999,32.136,-6.716,-169.909
0.958466500043869,6.022,15.765,-326.551,-28.422,24.712,-5.913,17.007,-39.402,-46.011,-9.24,3.537,42.662,-20.574,19.797,33.23,-111.425,17.483,2.151,2.978,40.081,20.723,21.275,13.306,9.739,44.329,-9.604,23.394,-6.197,-186.133
0.9734665000578389,8.578,9.602,-328.274,-25.832,21.613,-4.883,49.778,-43.461,-44.94,-11.793,0.972,37.497,-21.066,9.019,31.147,-111.826,10.805,-1.438,-2.148,34.918,18.141,20.742,12.268,9.217,56.58,-14.206,23.883,-8.24,-176.213
0.9735304000787437,18.303,21.888,-319.236,-13.511,30.301,0.245,72.27,-40.856,-37.21,-7.17,9.168,48.218,-5.675,21.305,42.899,-102.492,24.627,16.495,11.686,49.74,31.443,31.992,25.064,15.356,70.868,-5.994,33.081,-7.719,-157.082
0.9895227000815794,13.674,24.427,-310.72,-16.571,31.807,0.245,68.611,-39.79,-37.686,-6.651,9.159,47.145,-9.768,29.993,42.344,-102.39,27.164,16.478,11.162,47.129,27.313,29.398,19.403,10.73,70.797,-8.55,28.949,-6.687,-171.781
0.9895865001017228,8.025,13.132,-307.336,-26.289,28.189,-2.317,61.883,-38.214,-45.332,-11.255,0.44,35.314,-19.492,20.741,32.568,-107.411,19.452,5.191,0.393,35.811,19.089,21.684,9.65,4.571,55.357,-18.275,25.847,-6.68,-181.856
1.003617300069891,24.411,24.902,-299.856,-11.918,39.944,9.469,77.703,-24.855,-35.041,3.613,12.735,47.062,1.019,29.43,53.028,-94.495,33.777,16.456,14.737,52.681,35.464,36.007,27.059,18.399,53.765,-0.839,42.215,-0.014,-148.886
1.0037028000224382,24.386,27.951,-306.728,-4.221,41.441,12.533,47.399,-21.757,-28.858,8.221,16.821,52.138,4.605,32.987,62.196,-93.889,34.768,17.977,17.796,53.141,33.379,36.996,23.958,13.257,58.834,2.748,38.074,-5.137,-146.176
1.0185663000447676,-4.327,0.258,-329.475,-24.197,20.395,-8.996,15.076,-38.129,-50.346,-19.452,-9.323,23.909,-27.675,6.826,29.859,-120.947,7.581,-2.533,-10.399,21.325,4.144,8.27,-5.268,-19.031,41.357,-29.53,7.81,-26.648,-178.305
1.018629000056535,-10.471,-8.451,-332.732,-32.37,15.764,-15.135,47.849,-47.825,-60.542,-25.581,-16.486,11.078,-34.308,1.184,22.144,-127.998,4.5,-4.068,-18.585,17.205,1.066,0.577,-6.287,-24.135,23.897,-40.259,3.703,-33.794,-192.471
1.0335634000366554,8.495,4.365,-323.178,-22.603,27.531,1.786,80.588,-43.678,-39.477,-3.526,1.973,27.46,-9.17,18.601,52.348,-107.89,22.938,9.769,1.926,38.193,19.508,20.044,9.601,-2.082,37.193,-15.628,22.143,-22.49,-159.491
1.0336298000765964,14.122,8.972,-322.855,-17.458,32.115,9.469,48.232,-29.29,-26.117,4.162,11.193,35.63,0.573,23.193,60.493,-96.512,23.94,14.37,10.121,44.302,26.661,28.221,11.64,5.605,58.16,-5.366,29.293,-13.246,-156.258
1.0485310000367463,7.448,7.938,-319.458,-18.465,31.57,4.849,15.909,-19.015,-33.776,-0.453,9.132,29.447,-4.039,27.268,49.674,-100.001,15.719,15.38,1.914,40.159,22.023,21.532,9.58,0.476,45.807,-12.02,27.214,-14.769,-166.86
1.0485954000614583,-1.269,-2.828,-320.675,-31.766,24.366,-7.451,48.681,-37.439,-42.451,-9.161,-0.611,16.609,-12.232,21.606,42.452,-111.684,11.605,8.704,-10.384,27.311,7.657,10.24,-2.213,-8.746,16.559,-21.23,16.429,-33.197,-160.546
1.063564500072971,-6.391,-14.609,-334.187,-44.542,19.219,-19.227,81.42,-57.381,-42.409,-20.423,-9.319,8.396,-18.367,0.579,38.823,-118.745,9.544,4.597,-13.447,20.624,1.501,4.594,-9.896,-15.397,25.764,-26.844,7.191,-42.898,-165.508
1.06362800009083,1.813,-1.274,-329.754,-31.178,30.47,-10.499,49.063,-41.442,-35.194,-11.181,0.936,13.511,-8.615,9.288,47.493,-105.819,15.682,13.814,2.96,39.559,15.845,16.373,6.508,-7.185,58.526,-16.059,18.967,-22.363,-167.904
1.0786676000570878,6.934,12.047,-318.154,-17.827,38.125,1.807,16.738,-25.007,-30.548,2.663,8.108,15.034,-0.922,36.431,56.155,-97.004,21.814,17.387,12.691,47.204,20.952,26.603,16.748,3.581,67.689,-5.284,30.218,-10.557,-152.879
1.0787315000779927,0.779,5.375,-327.57,-28.055,32.963,-4.342,43.874,-35.74,-35.641,-7.074,0.927,6.822,-8.605,29.222,49.951,-104.591,21.28,17.369,3.457,32.812,14.783,18.892,8.022,0.503,45.592,-11.427,22.504,-21.818,-154.776
1.0937110000522807,-1.783,1.271,-336.464,-34.687,29.344,-10.998,55.613,-43.902,-41.753,-18.85,-3.172,0.155,-13.72,10.238,45.291,-105.511,19.209,24.524,-2.182,30.218,15.793,12.725,4.428,-7.182,25.055,-18.588,15.821,-23.333,-177.162
1.0937726000556722,-6.392,-2.316,-331.516,-30.554,25.216,-14.573,40.188,-44.882,-46.322,-19.856,-9.829,-11.116,-20.366,7.154,41.659,-105.918,10.993,14.766,-3.205,31.724,9.63,12.2,2.374,-14.347,13.759,-22.155,14.781,-24.334,-182.108
1.1087184000061825,-8.947,-4.363,-324.525,-31.035,26.216,-16.608,72.936,-48.424,-44.739,-17.274,-11.869,-16.228,-23.932,7.147,37.519,-107.349,8.421,1.431,-4.226,27.594,7.571,12.7,0.322,-12.283,22.966,-22.645,14.254,-30.97,-160.922
1.1087957000127062,5.407,12.547,-313.442,-25.369,38.997,-1.734,100.527,-38.129,-33.935,-4.962,3.513,-1.867,-9.051,13.287,48.752,-91.36,21.732,16.286,5.0,39.35,23.445,19.347,8.007,0.537,45.997,-13.401,20.899,-21.717,-146.416
1.1240361999953166,10.012,16.633,-318.764,-23.294,39.471,0.317,68.152,-33.48,-36.463,-2.395,6.071,-3.402,-3.919,11.737,51.265,-83.072,22.223,22.93,6.532,43.921,21.884,19.328,6.462,-2.538,43.39,-13.388,21.391,-18.109,-162.151
1.1241002000169829,-3.83,-1.314,-344.573,-33.517,26.623,-19.663,48.103,-50.865,-50.259,-16.737,-6.231,-22.354,-19.284,0.454,35.332,-94.26,8.881,9.587,-4.233,31.07,9.055,11.112,-1.229,-14.318,24.903,-23.62,14.197,-28.85,-178.895
1.138670300017111,1.296,4.835,-343.204,-30.922,31.208,-16.058,80.843,-50.814,-45.598,-15.184,-0.589,-19.77,-15.679,16.848,37.346,-87.505,17.581,15.213,1.919,37.186,20.316,16.736,7.994,-2.521,36.662,-16.937,21.867,-17.55,-166.421
1.1387287999968976,7.955,15.076,-323.393,-22.694,36.812,-5.795,60.782,-40.005,-40.429,-11.07,2.485,-18.726,-8.491,34.762,40.895,-78.709,23.199,20.833,6.015,43.297,21.321,19.793,7.473,2.092,51.482,-12.309,22.87,-13.434,-155.496
1.1537726999958977,-9.984,-5.943,-332.291,-41.115,24.992,-24.745,31.007,-54.31,-54.733,-27.453,-13.399,-40.224,-26.925,9.112,23.948,-93.999,3.708,5.443,-10.385,26.86,2.344,4.404,-7.391,-20.451,29.913,-29.203,5.429,-42.622,-171.734
1.1687926000449806,-7.412,-13.11,-347.84,-51.832,26.504,-24.208,58.641,-59.378,-51.605,-23.327,-10.312,-40.696,-27.411,-1.656,32.121,-90.831,6.266,9.536,-6.276,31.443,10.026,7.986,0.813,-21.455,18.1,-27.125,10.547,-46.166,-194.616
1.1688567000674084,14.625,8.42,-342.881,-27.19,42.359,0.919,71.39,-39.339,-33.622,-2.811,5.068,-25.798,-7.403,24.986,57.704,-68.711,28.801,26.433,11.661,49.343,22.312,22.835,14.645,0.083,33.452,-10.191,30.004,-18.967,-194.934
1.183733000070788,0.778,3.801,-331.268,-18.965,37.193,-9.84,57.486,-45.447,-46.397,-15.616,-7.745,-41.654,-18.667,19.838,43.302,-78.889,19.551,13.086,-3.207,32.387,7.945,10.517,2.847,-5.552,20.61,-20.94,15.629,-28.682,-163.488
1.1837944000726566,-22.789,-16.183,-321.203,-40.463,20.25,-32.372,41.547,-60.771,-64.793,-35.581,-25.668,-65.179,-38.628,-7.335,19.692,-97.765,2.625,-4.857,-21.647,12.887,-1.285,-2.814,-7.914,-20.916,6.757,-38.849,-4.879,-54.781,-140.271
1.198701100074686,-14.57,-11.043,-322.931,-44.009,19.717,-23.63,19.477,-46.366,-57.044,-27.86,-20.519,-63.064,-30.905,0.87,24.796,-90.495,10.307,6.418,-12.404,22.096,3.84,3.337,-3.808,-19.358,39.538,-33.687,2.811,-44.48,-170.357
1.1987612000666559,-8.92,-4.372,-345.149,-32.182,24.309,-21.557,50.708,-45.295,-53.401,-25.271,-15.375,-62.489,-28.312,14.701,25.283,-86.306,12.346,19.732,-12.392,23.098,-0.263,2.309,-6.878,-20.363,46.159,-29.043,7.419,-28.042,-202.462
1.2138490000506863,-18.132,-13.077,-359.661,-37.785,21.723,-37.93,83.445,-69.84,-63.081,-34.98,-23.557,-72.672,-41.604,2.903,15.012,-92.88,3.624,10.49,-22.625,11.804,-3.849,-4.354,-10.457,-20.343,13.837,-31.575,1.263,-35.698,-195.087
1.2155675000976771,-14.528,-13.064,-347.006,-43.383,21.189,-33.281,64.406,-67.209,-60.969,-31.358,-21.484,-69.526,-39.001,-0.686,22.682,-85.102,7.207,-1.303,-13.381,19.477,3.328,1.798,-3.275,-11.101,14.336,-27.445,5.873,-39.761,-177.986
1.2288665000814945,-6.829,-6.903,-324.63,-35.655,25.778,-17.366,32.066,-46.649,-51.686,-21.081,-8.143,-59.723,-25.642,15.709,35.467,-68.623,14.884,7.92,-0.048,32.266,10.497,11.018,3.389,-11.09,47.109,-21.783,11.502,-37.16,-163.976
1.228941100067459,-11.945,-13.557,-321.231,-33.058,27.289,-19.91,26.399,-45.066,-51.635,-21.06,-8.135,-62.737,-24.079,14.669,31.845,-64.456,11.796,18.67,-1.072,29.159,9.974,12.032,1.848,-17.739,44.501,-22.785,5.856,-42.246,-158.176
1.244189799996093,-19.618,-22.764,-348.062,-40.709,22.139,-32.186,2.294,-54.242,-60.804,-31.285,-22.471,-74.969,-35.838,-11.986,22.592,-72.589,1.538,4.819,-8.756,17.859,1.767,6.384,-4.813,-18.234,12.181,-27.886,1.239,-42.204,-190.294
1.2442574000451714,-16.012,-18.131,-364.108,-40.668,19.555,-34.203,21.247,-62.385,-66.891,-35.352,-23.986,-77.456,-41.95,-17.097,25.643,-73.541,1.024,-6.456,-11.309,17.329,3.814,4.841,-3.272,-15.654,13.705,-27.346,5.336,-31.403,-208.546
1.2587900999933481,-3.701,-4.281,-340.178,-28.845,30.807,-20.336,54.014,-56.687,-53.504,-20.46,-8.08,-63.034,-26.539,10.584,39.449,-54.0,16.392,11.993,-1.564,31.144,17.643,15.595,6.978,-8.978,46.479,-16.047,17.114,-22.662,-175.55
1.2738707000389695,0.402,3.921,-318.833,-23.18,40.51,-5.459,30.393,-34.089,-35.52,-6.095,1.15,-53.749,-12.68,20.82,44.021,-39.601,22.011,25.301,5.61,37.261,19.674,21.214,10.045,-3.846,62.827,-8.859,22.732,-18.541,-152.321
1.2739329000469297,-14.456,-4.792,-326.199,-34.94,33.297,-11.089,-1.912,-29.956,-43.169,-16.335,-9.61,-66.503,-24.45,2.868,31.169,-51.344,7.132,11.956,-6.178,22.367,8.896,11.459,1.838,-8.453,30.489,-16.535,10.414,-23.646,-182.907
1.2757572000846267,-20.589,-13.497,-335.607,-43.615,26.091,-24.91,30.877,-51.956,-59.52,-28.102,-19.334,-76.683,-36.209,-1.745,19.867,-58.465,0.465,2.21,-12.32,16.709,7.863,9.911,-0.726,-9.469,0.744,-19.592,4.768,-28.745,-195.532
1.288946000044234,-1.101,-1.7,-333.734,-27.177,36.824,-16.688,57.486,-51.391,-50.751,-16.803,-7.02,-62.262,-23.878,14.65,26.507,-38.427,14.809,12.966,6.135,35.648,20.663,23.221,9.521,0.786,21.748,-6.253,21.157,-10.273,-180.991
1.289012800087221,12.22,15.208,-324.179,-9.732,46.521,-2.327,27.203,-31.36,-34.307,-7.052,8.357,-46.83,-10.021,25.907,39.801,-21.995,26.577,28.323,19.449,46.37,29.351,31.395,19.245,5.396,54.514,4.512,29.845,7.668,-177.737
1.303077100077644,-2.136,8.532,-315.145,-17.406,36.74,-14.108,37.934,-36.964,-40.932,-20.877,-2.41,-57.029,-18.721,20.758,36.175,-29.657,23.477,25.733,8.671,31.467,18.051,21.117,12.566,-3.831,54.459,-7.788,15.471,-14.881,-176.022
1.3031442000064999,-21.09,-11.969,-322.515,-31.221,23.383,-34.586,53.778,-56.395,-58.822,-37.25,-24.437,-76.952,-37.145,4.855,13.597,-42.948,10.133,8.289,-9.268,14.017,-0.41,3.165,-4.865,-18.684,29.302,-30.321,-0.938,-43.044,-165.6
1.3178821000037715,-26.192,-19.641,-331.926,-40.412,16.7,-35.064,33.231,-58.388,-59.788,-37.213,-30.56,-83.535,-43.768,-7.957,-0.249,-48.54,-6.271,1.62,-16.431,5.806,-5.02,-1.961,-9.471,-24.813,13.391,-33.877,-3.499,-38.39,-166.971
1.3179417999926955,-27.19,-16.035,-329.545,-50.617,12.585,-31.955,27.563,-58.841,-54.605,-33.077,-27.968,-81.915,-39.626,-14.097,8.973,-49.004,-14.461,6.229,-15.902,4.263,-0.917,2.139,-3.826,-19.152,7.23,-26.159,0.091,-26.568,-184.735
1.3329380000941455,-23.064,-13.458,-336.388,-47.493,17.695,-31.923,24.461,-61.344,-57.112,-31.507,-21.792,-75.685,-32.926,-15.62,22.284,-39.221,-7.274,6.223,-8.202,10.919,5.232,5.211,-0.236,-9.912,14.907,-23.571,3.677,-18.857,-200.432
1.3346981999929994,-7.672,-6.784,-340.662,-29.515,29.461,-20.108,18.289,-45.401,-51.419,-21.742,-7.938,-61.265,-23.671,3.351,28.922,-19.202,11.176,14.414,4.102,22.179,18.546,13.915,6.937,-4.779,37.434,-12.277,12.895,-6.031,-193.571
1.348001700011082,-5.615,-4.728,-329.563,-29.997,28.407,-17.014,38.763,-36.134,-44.708,-19.671,-8.955,-59.667,-21.086,22.815,29.917,-14.572,16.8,25.158,1.024,20.108,19.552,15.438,8.467,-7.848,37.397,-7.141,16.468,-14.734,-176.472
1.3633833000203595,-23.028,-18.556,-333.332,-46.361,19.669,-34.928,32.577,-56.078,-59.008,-36.045,-26.365,-74.976,-34.897,6.911,18.104,-27.877,5.0,15.911,-15.883,5.743,1.09,-0.971,-5.886,-18.086,11.232,-26.602,3.131,-37.773,-174.246
1.363448700052686,-25.567,-22.636,-344.269,-44.778,23.236,-37.454,0.269,-63.707,-64.584,-40.62,-25.826,-76.951,-41.01,-14.613,2.205,-28.362,1.921,3.088,-16.892,2.151,-1.473,-4.044,-6.905,-14.482,3.023,-30.674,-1.482,-29.538,-181.756
1.3780108999926597,-12.221,-8.781,-332.654,-32.95,29.36,-26.146,5.904,-49.811,-51.2,-27.772,-12.992,-65.603,-29.698,-1.79,-5.482,-15.526,9.092,4.109,-6.629,10.858,11.336,9.28,6.422,-1.66,12.242,-12.2,7.228,-11.578,-182.087
1.3780768000287935,-11.696,-11.846,-325.662,-40.09,24.72,-29.706,38.686,-51.81,-52.173,-27.744,-16.565,-67.074,-31.206,17.167,-17.26,-12.436,9.083,8.204,-10.721,14.433,7.739,5.685,2.317,-4.732,15.816,-16.799,2.098,-23.862,-174.22
1.3930079001002014,-16.296,-23.617,-330.971,-48.759,25.207,-30.701,44.795,-54.832,-54.683,-31.302,-18.598,-68.032,-37.834,15.613,-28.001,-10.887,10.098,14.343,-12.759,12.37,1.071,0.044,-3.833,-13.436,25.534,-28.565,-2.515,-34.596,-172.509
1.3930699999909848,-11.156,-17.446,-330.128,-38.464,32.867,-19.912,12.475,-37.359,-43.357,-25.123,-11.92,-61.816,-29.6,4.326,-30.022,-4.728,10.088,13.816,-6.599,13.382,6.705,7.728,5.392,-7.788,33.705,-17.778,8.758,-22.779,-184.632
1.4081191000295803,-10.633,-9.231,-336.458,-29.204,31.297,-23.99,15.536,-39.883,-47.412,-28.684,-19.592,-67.902,-31.107,-8.998,-42.287,-6.773,-4.267,-3.616,-13.765,12.344,5.674,7.208,3.338,-7.268,15.741,-15.711,7.725,-14.047,-185.472
1.4081819000421092,-11.134,-6.661,-340.22,-28.662,27.167,-29.089,48.308,-59.823,-55.049,-33.266,-20.597,-70.396,-35.174,-7.452,-56.077,-3.692,-6.312,-1.051,-17.849,15.406,5.156,3.615,-5.887,-10.334,3.43,-22.355,1.57,-12.496,-163.257
1.4231456000125036,-3.951,-2.043,-327.072,-24.535,32.263,-18.302,47.748,-53.616,-43.211,-19.913,-4.695,-54.956,-19.77,3.826,-50.386,11.168,7.015,20.467,-8.098,21.025,12.323,4.636,-2.808,-9.299,17.258,-18.234,9.765,-12.483,-160.02
1.4232110000448301,-13.168,-13.312,-330.843,-27.072,26.083,-19.308,15.424,-44.34,-46.754,-19.893,-11.863,-61.049,-22.824,-11.035,-51.873,7.571,-4.263,4.565,-17.311,9.221,1.04,-6.64,-7.928,-21.585,19.803,-29.487,1.046,-26.303,-186.5
1.4381233000895008,-26.988,-28.156,-343.32,-35.754,15.811,-29.535,-8.67,-51.468,-63.101,-33.193,-24.659,-79.943,-42.781,-25.368,-61.555,-3.195,-17.066,-18.493,-27.028,-0.522,-10.232,-10.219,-14.58,-28.224,14.66,-40.728,-11.763,-35.498,-191.949
1.4381850000936538,-5.956,-10.197,-324.022,-25.985,30.652,-13.112,24.127,-37.585,-44.083,-16.254,-4.654,-60.395,-21.734,7.445,-41.001,19.35,9.591,11.239,-1.897,21.508,13.345,13.357,3.365,-2.068,37.187,-13.023,10.278,-14.97,-170.752
1.453111600014381,13.518,7.744,-308.328,-13.151,44.454,1.758,53.304,-21.153,-21.497,1.693,6.109,-41.38,-0.707,33.053,-22.004,40.335,26.999,31.72,9.887,34.807,26.651,23.59,14.633,8.693,50.47,2.872,22.563,1.438,-164.434
1.453177500050515,-13.648,-9.682,-325.951,-23.896,28.016,-19.248,24.049,-40.087,-39.406,-21.875,-17.975,-67.978,-29.396,4.843,-47.085,17.241,0.845,-0.075,-19.836,8.132,-0.015,-1.024,-3.825,-19.493,23.267,-26.845,-2.562,-16.494,-173.491
1.4682001000037417,-31.053,-18.381,-337.408,-29.508,18.254,-33.573,18.902,-51.318,-55.249,-39.271,-27.691,-84.816,-45.248,-10.531,-63.944,1.854,-10.939,-12.882,-30.575,-3.659,-7.7,-9.733,-13.555,-24.084,7.874,-36.552,-7.683,-24.162,-177.416
1.4682687000604346,-3.357,4.691,-317.091,-11.035,33.092,-18.683,51.671,-42.045,-40.849,-19.764,-10.245,-62.19,-20.612,13.558,-41.851,30.03,9.052,7.623,-3.392,22.984,15.362,11.794,0.803,1.043,22.211,-9.875,13.329,4.039,-169.042
1.4831916000694036,9.966,15.445,-295.769,-3.852,40.232,-12.516,84.407,-47.639,-31.586,-8.986,1.548,-50.345,-9.833,17.643,-29.002,50.492,15.19,14.275,9.419,33.72,24.568,20.492,7.975,5.14,22.189,-1.669,18.439,15.818,-151.454
1.483266600058414,-1.315,4.158,-304.695,-16.656,36.605,-15.578,52.047,-45.029,-36.678,-13.076,1.547,-56.954,-14.434,1.743,-33.071,43.781,8.515,17.847,1.725,22.928,21.982,14.836,5.405,-2.549,19.605,-8.327,15.347,-6.227,-139.007
1.4991955000441521,-4.9,-5.067,-329.493,-24.836,33.495,-14.025,19.72,-30.64,-40.227,-14.6,-4.09,-61.508,-14.42,2.254,-33.55,42.201,9.019,22.952,-0.838,20.855,19.398,15.845,6.424,-0.497,44.689,-7.294,13.795,-19.028,-148.602
1.5131503000156954,-25.899,-21.968,-339.41,-35.57,18.092,-31.43,52.488,-54.688,-54.019,-33.028,-25.091,-81.939,-33.361,-5.433,-54.009,32.937,-2.773,-3.198,-13.645,7.002,-3.163,1.485,-4.34,-18.94,50.279,-26.754,-6.199,-25.157,-180.729
1.513214600039646,-58.149,-47.562,-341.632,-51.416,-1.394,-57.526,45.263,-86.396,-75.995,-58.61,-49.144,-109.009,-59.967,-28.994,-86.231,6.776,-22.238,-31.884,-40.271,-22.206,-29.287,-29.255,-26.365,-50.172,17.954,-59.003,-28.222,-43.063,-212.824
1.5282330000773072,-50.918,-44.953,-346.925,-48.29,3.218,-51.833,12.942,-70.428,-72.845,-53.429,-44.484,-106.851,-58.37,-29.477,-86.657,6.257,-21.191,-26.729,-42.793,-23.209,-24.647,-28.201,-26.851,-45.511,-14.34,-55.358,-25.12,-41.995,-212.611
1.5298784000333399,-28.838,-21.342,-337.869,-34.922,17.047,-33.338,45.717,-51.402,-57.915,-39.031,-24.972,-92.4,-47.041,-17.152,-63.516,25.719,-12.461,-19.53,-25.331,-7.304,-9.253,-8.705,-13.504,-22.412,1.556,-34.81,-11.263,-18.387,-181.147
1.5432045999914408,-34.445,-18.759,-322.675,-37.449,13.957,-36.891,78.459,-62.622,-66.566,-46.676,-29.046,-96.918,-52.629,-20.209,-65.502,24.156,-13.473,-20.023,-24.281,-9.346,-12.83,-12.283,-17.077,-27.0,25.633,-41.948,-10.739,-18.368,-168.158
1.5432666999986395,-32.873,-24.888,-318.766,-37.924,10.869,-40.953,46.105,-63.584,-72.135,-47.654,-33.627,-99.383,-52.065,-17.115,-70.047,24.644,-6.799,-6.171,-22.208,-4.726,-9.743,-10.221,-15.011,-33.633,29.706,-44.467,-8.167,-25.01,-177.212
1.558245800086297,-9.787,-13.592,-311.275,-22.004,21.616,-26.055,70.65,-49.688,-51.058,-27.114,-12.589,-79.816,-31.008,1.346,-44.362,48.698,10.114,4.594,-0.669,17.82,12.295,13.355,6.009,-15.669,41.972,-19.832,6.698,-8.079,-168.325
1.5583114000037313,-6.703,-8.455,-307.89,-18.396,25.181,-19.881,99.781,-50.663,-46.909,-19.915,-5.916,-72.564,-23.292,7.492,-35.608,55.309,12.153,-3.608,1.893,16.266,13.308,12.317,3.954,-11.554,43.467,-15.714,9.253,-8.071,-162.009
1.5732242000522092,-28.726,-22.279,-320.902,-34.771,14.397,-34.718,67.406,-57.784,-65.817,-35.264,-28.964,-94.52,-40.175,-1.737,-67.848,32.712,-3.741,-10.264,-22.187,-6.804,-11.296,-14.335,-19.616,-34.084,11.148,-40.801,-9.199,-34.19,-185.414
1.573285200051032,-35.869,-26.868,-323.142,-39.86,6.698,-42.368,66.826,-54.653,-65.752,-42.401,-36.108,-106.721,-49.869,-9.932,-86.223,22.946,-10.91,-12.815,-30.362,-9.871,-15.896,-19.444,-20.621,-40.198,-1.159,-49.47,-16.875,-34.668,-196.499
1.5882532000541687,-24.562,-18.132,-319.233,-30.598,9.253,-33.104,99.547,-55.11,-54.927,-34.674,-24.801,-97.905,-42.134,-10.435,-70.768,32.657,-7.825,-20.999,-22.134,-1.152,-3.072,-8.666,-10.867,-27.35,30.093,-41.736,-8.661,-17.728,-178.372
1.5901824000757188,-21.976,-21.7,-331.721,-35.178,12.83,-31.022,75.881,-62.228,-59.483,-33.615,-25.801,-98.319,-41.58,-12.474,-66.598,33.649,-9.354,-22.515,-23.649,-4.225,-7.168,-12.756,-17.004,-27.835,27.501,-42.718,-8.652,-25.907,-169.484
1.6033933000871912,-27.59,-31.412,-331.902,-48.463,11.793,-36.626,43.53,-59.091,-63.522,-39.729,-30.386,-105.906,-48.198,-22.195,-75.753,28.492,-10.369,-14.808,-30.286,-5.245,-11.259,-15.304,-20.573,-36.516,9.543,-44.725,-11.205,-38.176,-181.098
1.603453400079161,-20.39,-25.233,-315.176,-41.242,13.83,-30.954,67.052,-53.909,-59.872,-37.128,-24.208,-102.214,-42.515,-23.71,-70.042,33.074,-5.748,-12.232,-25.645,-0.117,-1.001,-5.043,-13.38,-34.431,36.174,-39.045,-1.972,-34.04,-189.626
1.6187699000583962,-3.976,-9.326,-312.812,-21.221,23.55,-20.165,99.773,-55.392,-55.202,-26.844,-12.913,-92.89,-28.128,-10.366,-54.091,44.824,-4.205,-14.269,-11.274,7.055,7.709,5.72,-7.219,-20.564,49.97,-27.223,8.276,-27.346,-177.653
1.6333079000469297,3.713,0.417,-309.938,-17.102,29.674,-16.046,86.353,-51.751,-49.511,-20.157,-3.166,-87.674,-22.976,0.915,-47.377,53.489,-2.152,-10.156,-2.041,17.294,12.824,11.862,-1.576,-4.15,29.94,-13.363,14.927,-15.023,-152.885
1.6333704000571743,0.123,-3.169,-300.918,-27.843,22.984,-18.591,53.992,-50.674,-53.56,-24.748,-5.212,-91.685,-28.076,4.5,-57.575,49.337,0.412,-6.56,-8.187,16.252,11.787,8.264,-0.55,-7.219,34.521,-13.862,16.962,-8.86,-152.732
1.6334233999950811,-7.562,-11.875,-312.913,-35.5,16.301,-26.257,48.815,-59.845,-64.777,-32.92,-15.965,-100.815,-34.196,5.521,-71.862,38.017,-2.662,-11.676,-16.376,5.99,3.066,-3.015,-7.21,-21.557,39.609,-26.656,9.26,-23.196,-173.071
1.648348700022325,-2.431,-3.667,-316.186,-29.829,23.97,-25.719,63.11,-56.199,-59.077,-29.814,-11.338,-99.177,-30.576,6.027,-65.13,43.614,-0.098,-12.177,-9.699,10.595,8.186,2.111,-5.153,-13.85,21.126,-23.555,9.251,-23.173,-164.701
1.6500830000732094,13.453,13.756,-297.939,-16.479,33.167,-12.885,63.56,-42.823,-46.21,-20.05,0.968,-90.368,-20.811,9.607,-47.135,62.013,11.173,0.131,1.069,23.392,19.448,14.405,3.049,-2.054,34.938,-11.749,22.049,-0.608,-149.167
1.663354100077413,12.415,8.106,-305.326,-13.901,29.548,-10.823,39.93,-46.879,-51.8,-22.079,-4.156,-92.327,-22.327,10.11,-46.575,61.951,12.698,5.254,0.043,22.344,15.33,9.267,2.533,-13.835,62.055,-16.348,20.49,-2.657,-162.851
1.663413800066337,-1.43,-7.271,-325.0,-25.67,21.834,-21.571,62.431,-55.029,-58.408,-28.717,-12.861,-100.432,-29.477,2.415,-58.824,53.18,7.05,1.15,-5.592,14.125,10.704,5.16,-2.08,-17.919,49.185,-23.504,8.175,-23.146,-164.737
1.6783608000259846,-0.916,-7.776,-314.429,-34.354,18.738,-24.111,95.157,-57.535,-54.251,-28.176,-11.823,-103.918,-27.911,-2.71,-64.401,55.176,6.019,-1.413,-4.562,13.598,14.792,10.79,-0.029,-9.192,33.255,-20.406,8.166,-20.562,-148.178
1.678426600061357,3.696,-7.768,-301.819,-32.782,19.744,-22.038,93.012,-63.113,-52.66,-28.148,-12.324,-106.888,-27.883,-3.22,-61.775,53.072,3.963,-7.047,-4.558,15.122,11.703,6.168,-0.028,-12.769,42.443,-21.923,12.257,-12.344,-159.813
1.6933161000488326,1.13,-8.785,-302.03,-21.991,21.774,-19.454,60.644,-48.705,-50.558,-27.095,-11.799,-110.879,-31.441,-4.753,-56.59,49.945,0.886,-11.65,-9.164,13.057,9.642,2.576,-2.078,-14.805,49.573,-22.926,14.294,-12.332,-174.51
1.7083214001031592,4.715,0.958,-293.531,-11.211,26.363,-14.311,39.579,-26.627,-44.872,-20.408,-6.664,-112.818,-28.336,-1.162,-56.021,58.604,2.934,-7.028,-9.155,12.02,12.707,9.746,2.535,-3.008,47.474,-13.169,18.89,-5.147,-154.356
1.7083834999939427,1.125,-0.58,-296.824,-20.421,24.799,-19.42,72.327,-42.482,-50.462,-23.974,-10.756,-116.803,-27.283,3.45,-61.6,57.521,2.419,-8.046,-8.121,10.471,6.034,5.637,3.557,-6.591,41.279,-14.18,15.797,-7.704,-145.492
1.7233726000413299,-14.758,-20.56,-321.63,-42.942,14.528,-33.233,80.451,-68.568,-62.195,-37.27,-22.016,-125.908,-35.965,-1.677,-67.686,42.607,-3.731,-14.698,-16.822,4.312,-4.218,-6.664,-7.205,-24.003,28.942,-31.585,1.949,-30.237,-168.913
1.723450900055468,-14.743,-25.15,-336.165,-46.998,6.829,-34.737,48.096,-62.864,-61.621,-36.72,-23.019,-131.417,-39.003,-6.798,-71.717,43.076,-2.191,-11.097,-21.928,0.722,-4.726,-6.657,-11.296,-26.028,19.179,-37.701,-0.102,-36.355,-178.99
1.7387661000248045,-1.921,-14.879,-332.755,-34.143,13.482,-27.017,77.761,-55.628,-54.899,-24.9,-15.311,-125.651,-29.742,-2.181,-67.547,57.89,8.058,-4.426,-12.685,7.894,1.426,1.034,-3.088,-13.194,26.845,-26.392,10.144,-19.925,-166.516
1.7388302000472322,3.204,-8.204,-323.201,-25.4,23.715,-21.355,98.688,-56.085,-51.258,-19.752,-8.636,-118.353,-21.003,3.457,-55.184,65.005,13.685,1.727,-2.426,15.058,9.109,8.206,2.551,-6.009,55.507,-17.657,13.72,-11.195,-158.665
1.7533135000849143,7.812,-2.048,-310.582,-19.739,28.302,-14.674,66.314,-42.197,-46.596,-18.196,-6.066,-120.796,-18.421,7.552,-60.252,67.501,14.696,9.922,-0.374,17.092,10.637,12.296,4.085,-7.54,74.407,-18.151,12.682,-11.184,-156.969
1.753375600092113,12.415,-3.583,-305.661,-24.842,29.811,-15.171,61.637,-38.056,-45.525,-18.177,-7.596,-125.798,-23.013,12.667,-92.467,71.02,16.73,4.789,-2.935,24.247,8.577,9.722,4.593,-12.143,50.766,-19.67,10.108,-11.173,-157.324
1.7682834001025185,6.254,-15.362,-307.917,-45.822,29.781,-25.402,93.338,-52.875,-52.139,-24.307,-8.613,-126.697,-29.138,9.068,-124.65,70.949,14.152,-7.511,-7.031,32.42,9.593,6.126,1.515,-15.717,24.076,-23.237,3.95,-18.847,-162.29
1.7683472000062466,3.687,-17.396,-312.732,-50.387,27.19,-23.84,77.876,-53.847,-53.112,-24.795,-5.019,-129.644,-26.547,-5.285,-120.427,69.853,6.966,-7.504,-6.512,29.314,10.096,7.657,0.489,-16.726,40.445,-26.799,2.409,-27.537,-166.226
1.783341900096275,13.417,-3.546,-319.079,-25.746,29.724,-7.422,45.523,-35.862,-37.689,-11.45,2.671,-128.49,-14.225,-2.718,-87.519,77.468,6.959,-0.324,1.179,24.674,11.111,11.235,4.587,-12.098,56.799,-21.137,10.604,-18.288,-167.085
1.783401200082153,23.65,9.777,-316.711,-5.228,37.379,4.368,53.162,-21.482,-24.332,1.369,10.353,-118.627,-3.453,22.387,-54.643,93.272,16.173,3.775,8.351,30.797,20.833,13.786,6.119,-6.963,43.422,-10.358,19.302,-2.9,-161.282
1.7983237000880763,19.015,7.206,-312.808,-13.419,33.755,-2.296,85.896,-31.706,-34.553,-5.292,3.17,-121.583,-7.548,21.853,-73.544,94.203,16.157,-1.352,6.805,30.766,18.763,10.186,4.576,-5.931,35.182,-11.884,16.721,-6.996,-157.022
1.7983884999994189,0.553,-9.708,-324.278,-32.874,18.865,-21.249,97.081,-55.241,-50.913,-24.242,-14.251,-142.466,-23.934,-9.932,-84.229,76.178,1.796,-13.134,-3.96,10.755,0.814,0.442,0.985,-12.586,27.462,-23.143,3.897,-21.846,-167.112
1.8132878000615165,-3.034,-9.698,-320.88,-30.279,15.26,-21.228,82.127,-51.087,-44.202,-24.218,-13.725,-148.471,-25.959,-8.898,-66.214,70.979,-0.767,-6.973,-10.616,2.547,-1.236,-2.12,-5.163,-15.647,18.213,-23.632,1.844,-17.213,-167.969
1.813355499994941,17.462,11.316,-295.969,-8.732,26.003,0.31,91.266,-23.884,-27.764,-6.776,1.658,-136.027,-11.589,22.874,-61.025,87.302,12.041,13.526,-3.945,16.377,13.622,4.03,-2.597,-9.996,45.859,-14.899,14.65,-0.802,-153.969
1.8283545000012964,18.981,9.256,-298.746,-13.846,25.464,-1.739,102.958,-26.421,-33.884,-5.744,-1.417,-137.94,-11.065,15.167,-64.55,89.776,7.931,5.828,-1.38,15.849,12.584,3.001,0.48,-13.572,64.769,-17.446,14.123,-5.412,-167.135
1.8284249000716954,-2.042,-11.758,-315.866,-38.936,12.119,-22.23,70.58,-45.863,-48.194,-20.595,-16.273,-151.122,-24.374,-10.464,-66.022,74.829,-6.422,-16.719,-14.186,-1.073,-0.749,-4.174,-8.742,-24.317,32.429,-26.138,0.276,-24.362,-182.337
1.8433585000457242,-3.065,-8.672,-304.28,-34.286,12.619,-17.597,59.751,-38.644,-39.949,-20.062,-16.769,-151.996,-22.3,1.33,-68.518,77.316,0.757,-12.604,-15.197,0.977,-0.748,-2.121,-10.783,-18.657,22.15,-23.038,2.838,-25.362,-153.465
1.8434167000232264,12.307,8.242,-295.266,-11.198,24.902,-5.796,92.479,-27.335,-28.639,-8.772,-8.555,-145.184,-13.056,12.599,-57.691,94.657,13.564,-0.296,2.237,16.345,11.036,9.152,4.085,-4.294,54.916,-13.281,17.692,-10.48,-139.48
1.858350700000301,22.029,13.87,-307.778,-10.162,30.0,-4.766,88.8,-30.894,-32.708,-4.664,1.187,-135.817,-9.457,-0.733,-39.702,105.833,12.526,3.29,12.993,24.013,23.32,21.438,15.352,4.932,62.033,-0.972,27.408,4.387,-165.98
1.8584134000120685,26.105,14.88,-308.495,-20.398,33.044,2.411,71.293,-31.375,-33.7,-2.098,11.432,-126.972,-2.788,2.341,-39.663,110.338,14.563,7.898,12.98,28.6,28.42,25.515,16.361,12.099,51.725,7.226,29.942,11.043,-171.45
1.873699099989608,12.247,4.107,-306.138,-28.062,31.474,-1.69,101.448,-36.979,-32.13,-5.17,3.224,-136.579,-6.883,14.122,-46.795,105.617,11.474,3.279,6.307,21.912,18.145,14.219,9.684,10.038,62.432,-1.491,19.154,0.786,-163.593
1.8882686001015827,-5.184,-9.729,-313.004,-33.157,21.709,-15.52,75.219,-41.553,-38.758,-15.923,-12.661,-147.201,-22.758,7.448,-50.335,96.29,-0.833,-2.872,-2.408,9.082,9.93,8.569,2.502,0.806,66.98,-11.223,10.937,-12.535,-164.967
1.8883247000630945,10.703,1.039,-304.494,-28.513,23.736,-3.722,42.868,-20.507,-33.083,-11.297,-4.451,-133.221,-17.1,5.391,-51.821,106.44,5.828,10.451,5.279,19.319,20.166,20.344,10.697,5.929,73.061,0.059,23.222,-4.326,-142.773
1.9033756999997422,22.475,9.747,-298.042,-29.509,28.323,2.942,75.613,-14.339,-25.878,-5.65,1.701,-126.94,-5.3,11.533,-47.671,114.53,14.019,9.928,10.397,24.935,21.171,18.787,16.834,8.484,81.697,2.62,25.248,4.388,-133.921
1.9050211000721902,0.936,-5.12,-311.064,-42.8,11.901,-24.726,108.325,-46.6,-41.221,-24.6,-18.281,-147.306,-21.688,2.813,-49.16,96.997,-4.438,-14.16,-10.618,-0.193,2.194,-1.212,1.448,-4.844,53.95,-16.338,6.267,-9.449,-166.062
1.918472700053826,0.423,-4.09,-301.531,-32.511,4.717,-29.312,84.138,-51.164,-43.229,-29.698,-20.824,-146.134,-28.326,-4.875,-52.697,97.413,-10.069,-14.146,-13.169,-2.754,5.266,1.863,-0.603,-1.253,32.38,-13.248,10.872,-9.439,-167.945
1.9186239000409842,22.964,12.82,-279.2,-11.474,22.131,0.432,51.779,-18.325,-18.083,-4.565,4.3,-121.909,-3.707,0.253,-38.3,124.98,8.384,-0.3,13.996,20.815,23.704,21.841,15.279,16.167,62.061,6.746,29.816,9.013,-137.551
1.933428900083527,11.67,3.586,-294.803,-23.758,22.108,4.53,41.481,-14.208,-19.602,-0.975,2.758,-125.886,-2.679,1.278,-35.188,121.781,7.864,-4.91,5.785,10.548,12.921,12.085,7.579,6.929,79.93,-4.02,16.979,0.807,-153.295
1.9334953000070527,-8.834,-14.348,-317.562,-43.714,5.18,-11.356,56.296,-33.662,-41.099,-18.904,-18.249,-142.154,-23.169,0.764,-55.133,101.167,-0.341,0.218,-20.348,-12.004,-4.51,-5.858,-8.822,-13.058,61.919,-24.508,-2.506,-18.149,-174.659
1.9484646000200883,2.958,-2.039,-309.047,-33.936,11.323,-8.271,48.555,-25.943,-30.812,-13.25,-12.083,-129.716,-17.51,9.472,-50.467,114.386,9.905,17.636,-3.934,1.84,7.278,5.931,2.97,-6.897,57.759,-12.7,9.792,-5.835,-153.992
1.9485294000478461,8.078,9.746,-303.615,-23.144,18.996,-5.189,73.097,-18.745,-21.047,-9.138,-1.825,-116.779,-6.222,15.098,-32.485,130.665,10.408,9.422,11.951,11.06,18.029,18.221,12.701,6.43,58.726,2.169,21.053,3.904,-146.153
1.9634678000584245,-9.349,-8.194,-310.484,-35.416,1.046,-21.578,105.812,-44.342,-43.568,-28.597,-18.217,-128.445,-22.609,10.472,-45.773,116.19,-1.898,-3.908,-10.09,-6.882,6.228,4.37,-1.657,0.275,40.736,-8.591,6.687,-10.444,-161.376
1.965331400046125,-10.364,-16.383,-304.538,-42.553,-6.127,-29.241,96.997,-57.617,-54.283,-32.154,-26.908,-133.952,-33.858,3.802,-54.949,109.926,-0.359,1.219,-15.203,-10.974,0.586,-4.343,-6.778,-3.823,34.035,-14.73,1.045,-9.921,-158.653
1.9784829000709578,7.065,6.687,-294.499,-29.191,11.297,-14.355,64.625,-33.481,-38.859,-17.265,-12.024,-118.449,-22.553,-1.837,-33.889,129.796,4.252,2.243,5.305,5.943,13.393,11.543,7.061,10.013,58.08,0.141,17.438,8.019,-139.539
1.9945852000964805,13.206,17.952,-286.008,-19.94,17.946,-5.631,57.9,-21.153,-35.234,-17.248,-7.401,-108.084,-16.895,-2.348,-26.683,140.425,2.711,2.753,7.349,7.474,20.04,20.753,12.177,15.638,83.125,7.826,25.618,9.548,-124.543
1.9946653000079095,-0.64,0.003,-285.722,-32.215,6.145,-15.872,54.256,-37.013,-49.544,-30.551,-22.251,-118.222,-30.71,-1.321,-44.075,125.94,1.171,12.484,-8.54,-9.952,5.163,3.826,0.382,0.253,70.746,-6.014,12.784,-2.244,-131.591
1.994707600097172,-20.619,-14.854,-312.076,-45.503,-4.619,-30.2,21.926,-46.71,-57.179,-39.742,-35.548,-129.375,-42.975,-13.102,-57.863,111.982,-6.515,4.787,-19.29,-24.799,-11.236,-14.109,-12.426,-12.042,38.4,-21.378,-2.598,-11.976,-162.197
2.008520800038241,-25.209,-15.352,-327.133,-41.359,-8.713,-31.707,54.692,-44.614,-54.56,-39.702,-35.001,-122.073,-40.371,-22.311,-61.391,116.993,-12.656,-14.173,-20.808,-24.262,-7.639,-10.509,-12.414,-11.006,46.559,-24.942,-5.157,-15.55,-172.794
2.008588100085035,-10.327,-9.189,-301.703,-33.633,-6.143,-22.966,87.425,-45.081,-44.259,-28.392,-23.182,-104.02,-26.498,-0.259,-55.695,132.245,-2.397,-3.913,-13.102,-15.528,4.664,1.797,-3.692,-4.335,79.3,-14.671,6.632,-4.776,-149.055
2.023610100033693,-0.071,-1.495,-286.545,-35.649,-0.502,-15.259,55.062,-37.864,-34.993,-19.142,-13.938,-92.133,-17.25,20.233,-43.856,142.359,5.29,17.608,-3.355,-10.389,9.27,7.431,0.922,2.33,68.462,-3.898,16.359,6.499,-136.61
2.0252943000523373,-6.731,-7.641,-300.09,-39.199,-0.501,-15.756,22.732,-28.605,-40.594,-23.221,-19.047,-87.943,-20.306,4.844,-39.201,141.704,-0.351,8.881,-4.377,-13.453,7.724,6.911,-1.64,-1.259,38.68,-9.017,11.219,-6.315,-147.745
2.038602599990554,-19.019,-21.978,-311.573,-43.771,-8.697,-25.986,35.005,-40.359,-51.312,-33.444,-31.323,-92.978,-30.532,-7.969,-45.822,135.415,-3.424,-5.985,-13.594,-21.636,2.081,1.269,-6.762,-14.065,39.153,-21.304,1.987,-23.215,-161.941
2.038669800036587,-22.586,-24.005,-323.557,-48.85,-14.836,-36.206,44.191,-51.077,-51.26,-41.095,-36.927,-98.008,-37.162,4.847,-53.973,131.693,-0.859,5.804,-17.166,-25.201,-3.556,-3.856,-10.853,-16.1,44.237,-22.307,-1.089,-19.093,-174.075
2.0536559000611305,-12.318,-14.76,-320.16,-39.58,-10.211,-31.559,48.245,-39.243,-44.037,-39.517,-30.743,-86.639,-31.489,15.6,-48.796,138.734,5.289,25.266,-4.342,-15.442,3.619,2.296,-4.182,-5.838,53.415,-15.112,1.986,-6.266,-167.241
2.05372150009498,-0.522,-5.523,-287.052,-24.171,-2.516,-16.158,80.985,-27.933,-36.308,-25.645,-20.978,-67.597,-18.138,23.27,-32.353,151.915,21.678,30.876,8.983,-3.131,15.911,12.54,5.556,0.828,78.464,-9.462,10.693,1.937,-142.995
2.068688000086695,-4.62,-1.419,-279.08,-29.782,-8.661,-15.118,54.776,-30.467,-33.71,-22.034,-23.519,-65.48,-16.07,31.955,-34.37,154.325,25.242,26.234,1.802,-9.788,11.797,7.917,-0.085,0.827,74.287,-7.915,11.707,4.497,-139.266
2.083714700071141,-12.813,-6.029,-306.466,-39.486,-16.849,-23.299,22.446,-30.949,-39.312,-29.696,-31.18,-72.075,-24.251,18.091,-47.144,145.974,5.749,16.987,-10.496,-21.561,2.563,-0.288,-8.282,-1.735,48.598,-9.957,5.035,3.98,-151.934
2.0837816999992356,-6.14,-0.387,-305.647,-28.176,-9.148,-16.104,55.211,-26.819,-37.223,-24.031,-22.439,-62.781,-21.665,-1.395,-37.875,149.414,-4.503,10.31,-5.362,-17.441,7.172,4.323,-2.638,1.34,57.258,-7.898,10.665,13.197,-144.61
2.09869770007208,1.551,10.884,-289.46,-19.439,-0.942,-3.792,87.944,-25.768,-29.502,-13.249,-12.683,-47.861,-12.935,-1.393,-26.054,157.461,0.113,9.787,-0.746,-12.301,10.751,7.392,-1.099,2.876,71.546,-5.84,17.315,22.406,-131.145
2.0987629001028836,-4.086,3.701,-293.269,-25.054,-4.527,-5.838,55.58,-22.668,-32.546,-16.821,-20.355,-47.301,-16.508,-1.392,-35.762,151.668,-1.424,5.167,-8.43,-19.461,4.08,0.213,-9.807,-7.886,54.568,-15.056,7.564,11.625,-135.625
2.1141968000447378,-4.594,-3.988,-286.828,-24.005,-7.596,-11.467,50.402,-22.133,-36.1,-19.878,-22.384,-48.279,-20.077,3.733,-38.8,153.054,1.139,8.748,-6.884,-20.978,6.125,1.237,-9.797,-10.439,52.464,-16.066,5.507,-0.17,-135.489
2.1142638000892475,0.534,2.676,-272.196,-22.444,-6.052,-12.993,83.139,-29.796,-31.965,-17.809,-14.677,-37.984,-13.397,23.197,-29.027,166.221,13.945,24.62,4.905,-11.223,14.316,12.507,-1.591,5.453,66.244,0.344,16.772,3.416,-125.62
2.128739600069821,-4.59,1.137,-286.269,-30.618,-7.07,-14.004,50.78,-28.741,-30.908,-18.816,-16.199,-30.774,-13.896,28.297,-31.047,165.03,16.493,28.182,7.462,-7.626,13.789,16.592,0.973,7.496,50.296,4.442,16.755,6.999,-137.79
2.1288054999895394,-5.098,-1.426,-299.303,-24.44,-6.039,-10.917,18.454,-18.979,-29.853,-14.187,-18.232,-29.206,-16.956,23.145,-32.553,159.742,14.939,23.031,7.455,-8.131,15.825,16.064,4.045,3.391,41.537,-1.71,16.226,13.652,-155.583
2.1438149000750855,7.203,9.846,-284.659,-13.145,0.627,-7.32,51.223,-25.62,-27.261,-10.586,-12.579,-19.443,-11.816,25.684,-21.762,170.853,19.535,28.131,13.083,-2.999,22.981,21.171,9.677,18.756,74.283,8.026,24.919,25.422,-138.521
2.1438735000556335,8.732,15.984,-271.054,-22.866,5.237,-7.312,83.96,-33.279,-31.845,-14.162,-11.541,-10.714,-11.292,16.949,-16.105,174.78,15.417,24.516,14.094,-2.484,23.471,22.686,9.667,23.348,98.799,16.727,26.944,26.933,-117.378
2.1589925000444055,2.064,12.382,-270.271,-29.503,3.183,-2.182,51.601,-17.876,-32.838,-12.611,-13.067,-14.802,-18.453,5.149,-19.675,165.384,4.131,9.635,7.42,-12.215,17.812,17.541,5.559,8.468,79.233,12.099,23.843,22.808,-120.334
2.1590611001010984,2.062,8.271,-272.562,-20.764,-3.993,1.407,19.274,-9.661,-28.194,-12.086,-15.103,-19.911,-22.533,9.754,-23.754,160.095,0.541,10.138,-0.272,-19.376,12.671,11.888,1.455,5.386,62.76,7.989,20.745,21.248,-119.702
2.1738751000957564,2.06,5.701,-277.925,-20.231,-10.649,-4.743,52.042,-22.459,-32.264,-17.197,-18.674,-16.817,-25.584,7.695,-26.804,155.837,-1.509,16.787,-6.419,-21.405,9.072,7.777,-4.694,9.479,63.209,3.37,15.601,18.665,-121.631
2.1739423000253737,6.668,15.429,-275.085,-21.235,-6.027,-3.201,77.093,-22.437,-31.208,-12.056,-15.069,-10.652,-24.534,-1.534,-22.679,158.243,-2.532,16.258,-3.851,-19.335,12.649,11.356,-2.64,9.469,58.023,4.391,20.196,25.307,-137.904
2.1887837999965996,13.834,24.123,-270.712,-13.017,1.663,4.999,44.741,-9.094,-22.979,-5.384,-8.906,-2.957,-18.362,6.152,-14.459,167.306,1.057,20.341,5.374,-13.168,21.346,19.029,6.584,13.046,54.891,13.609,27.349,33.99,-137.766
2.1888445999938995,4.598,8.73,-282.736,-14.029,-2.949,-1.153,20.617,-13.184,-29.616,-15.113,-12.996,-0.905,-21.417,14.343,-15.982,162.016,2.592,20.833,2.807,-14.179,18.25,14.911,5.04,7.91,60.472,7.447,20.661,23.198,-129.943
2.2038368000648916,-4.628,-2.55,-289.114,-22.212,-11.655,-14.472,48.774,-26.491,-35.734,-21.245,-20.155,-6.539,-26.007,8.181,-27.236,151.607,2.59,13.639,-4.88,-21.337,9.523,7.212,-2.137,-0.807,55.8,-4.343,16.03,10.367,-133.912
2.203895500046201,4.599,7.187,-278.578,-22.702,-9.594,-13.433,81.513,-26.976,-28.014,-16.613,-19.623,-2.434,-20.858,4.074,-37.968,156.579,5.149,15.675,2.809,-19.267,12.587,11.303,0.427,5.854,49.085,5.395,19.6,12.918,-127.118
2.2189403000520542,9.717,9.229,-278.3,-20.117,-7.536,-5.223,49.156,-16.703,-26.962,-17.109,-17.042,6.79,-15.714,8.169,-38.442,160.521,6.681,16.684,11.003,-13.612,18.722,17.952,6.062,13.02,62.355,14.099,18.043,18.028,-121.868
2.2190059000859037,3.047,5.121,-280.583,-16.511,-11.114,-4.193,16.831,-7.977,-27.447,-16.58,-13.951,6.271,-15.186,18.407,-26.108,154.725,8.211,12.569,4.332,-17.697,15.63,14.86,3.494,7.372,69.978,4.863,16.488,21.084,-140.701
2.232922099996358,0.483,7.678,-269.544,-20.081,-11.103,-5.213,49.602,-12.58,-21.784,-12.977,-13.937,4.215,-17.22,26.073,-18.397,152.521,11.276,19.216,-2.844,-24.339,9.466,7.161,-4.706,3.778,45.829,-0.777,15.96,21.575,-145.684
2.2329875000286847,-0.03,3.571,-267.738,-29.282,-10.067,-5.208,82.34,-21.789,-30.471,-17.062,-18.534,6.772,-24.375,19.899,-21.453,151.344,13.827,25.857,-2.329,-27.901,7.408,3.567,-7.263,3.262,36.562,0.248,11.845,14.382,-125.558
2.2482942000497133,-0.03,1.006,-271.056,-22.593,-11.594,-8.789,49.982,-21.255,-40.687,-21.144,-21.077,6.253,-26.912,11.682,-23.481,150.168,12.788,21.22,-0.79,-27.873,7.4,7.15,-1.108,0.697,69.313,0.76,14.395,12.318,-112.625
2.2628858000971377,2.019,7.153,-262.076,-9.763,-13.119,-9.805,32.002,-20.721,-31.937,-17.024,-17.469,8.809,-19.713,15.769,-23.457,152.579,7.14,19.662,-2.839,-24.259,8.93,9.192,-0.595,-2.89,85.125,1.272,14.893,15.892,-118.66
2.2629464000929147,-0.544,5.097,-264.375,-15.901,-14.643,-4.672,61.684,-22.238,-23.708,-14.446,-14.89,15.46,-14.058,15.753,-25.483,151.914,2.522,19.13,-6.422,-24.747,7.896,2.523,-8.791,-5.961,61.474,-5.389,8.218,13.314,-134.935
2.2779741000849754,-4.13,-2.081,-281.017,-24.594,-17.702,-6.204,29.346,-14.019,-24.709,-14.944,-17.437,14.932,-13.531,7.028,-25.457,148.176,5.081,9.377,-7.44,-29.845,3.79,-1.578,-10.319,-4.418,50.142,-12.556,9.747,9.715,-147.095
2.279829500010237,-1.564,-6.177,-284.834,-23.032,-20.759,-13.37,24.194,-11.955,-25.709,-16.466,-20.493,12.868,-16.079,10.095,-29.53,146.491,8.662,6.294,-6.408,-31.353,2.249,1.497,-6.723,-5.438,47.53,-9.982,12.298,8.168,-143.874
2.3080288000637665,6.634,-1.56,-271.742,-19.936,-15.615,-6.185,56.958,-15.529,-20.56,-13.375,-14.325,21.564,-13.502,23.917,-25.402,151.98,13.264,19.608,-1.278,-22.1,12.493,12.254,-2.618,-1.846,37.236,1.811,14.848,11.234,-125.8
2.3080950001021847,24.046,19.446,-250.978,-7.62,-2.279,15.338,49.728,1.905,-5.171,4.569,3.108,39.986,5.979,35.164,0.751,168.222,26.571,37.519,16.141,-5.171,31.436,31.197,9.68,21.722,61.79,21.277,35.837,25.055,-96.472
2.308136000065133,29.657,27.623,-247.653,0.584,-0.228,18.397,29.186,7.538,-1.579,11.737,7.203,44.557,12.633,36.154,10.996,173.689,28.594,36.969,23.81,-2.605,31.405,34.24,14.282,27.335,92.979,25.866,40.925,26.055,-91.765
2.3081782000372186,6.574,4.03,-274.558,-20.421,-17.134,-6.725,56.822,-24.233,-25.656,-13.89,-15.858,22.995,-13.507,24.334,-14.63,154.048,10.634,20.538,3.806,-23.607,10.881,15.25,-1.614,0.156,64.709,1.762,14.244,4.512,-123.949
2.323051300016232,-3.167,-2.634,-281.968,-31.671,-22.752,-18.501,37.297,-34.967,-36.389,-28.734,-26.601,12.726,-24.764,15.601,-21.788,145.184,7.55,16.932,-4.395,-29.731,10.358,11.649,-7.248,-4.967,32.881,-7.461,12.693,1.433,-138.682
2.3231140000279993,18.354,18.885,-250.435,-6.024,-9.921,-0.552,6.521,-9.316,-20.471,-8.725,-8.643,35.255,-3.222,26.344,4.874,162.97,24.961,28.698,17.127,-9.209,30.327,29.568,9.665,17.579,58.464,15.6,36.758,19.875,-105.755
2.338111700024456,24.995,22.452,-236.864,3.716,-4.788,7.133,39.303,-6.233,-17.377,-0.007,-1.975,44.441,1.392,36.051,13.066,172.541,28.01,29.694,22.745,-5.101,31.322,32.1,14.779,19.611,86.07,22.244,35.697,21.904,-97.965
2.339803900104016,6.015,3.987,-259.681,-22.416,-12.981,-6.706,37.214,-22.621,-29.142,-17.938,-18.367,27.49,-15.004,20.646,-3.341,158.536,16.711,21.979,3.254,-24.051,14.896,15.674,-2.142,5.246,67.541,1.73,20.804,6.001,-121.946
2.3531727000372484,-6.799,-11.386,-285.037,-42.886,-22.701,-14.384,4.901,-25.16,-36.286,-28.166,-30.131,18.754,-22.673,2.182,-13.584,143.008,9.01,15.297,-8.02,-35.298,4.635,0.289,-13.411,-8.079,38.272,-16.203,11.562,-10.399,-128.484
2.3532367000589147,-3.718,-10.35,-290.387,-36.183,-28.314,-11.808,30.512,-23.085,-35.225,-23.015,-27.027,24.37,-20.089,13.963,-14.083,145.939,10.538,18.356,-1.864,-29.627,6.168,1.313,-7.762,-10.12,38.233,-15.674,9.501,-9.876,-131.429
2.3680665000574663,13.704,12.202,-268.068,-14.63,-20.601,-3.599,63.269,-16.402,-20.845,-11.208,-12.656,37.666,-6.749,43.151,-3.822,166.285,27.945,41.391,16.069,-11.155,23.58,23.854,9.664,17.042,66.884,7.395,28.447,19.335,-123.613
2.3681293000699952,28.035,27.046,-245.771,-2.832,-8.285,7.163,39.127,-3.578,-11.602,-2.488,-1.372,50.948,7.09,46.694,13.6,177.39,41.237,56.207,30.397,2.176,38.413,39.199,20.925,36.493,86.797,25.831,42.763,33.66,-92.751
2.383510300074704,18.785,11.138,-254.234,-13.075,-10.838,5.106,6.813,-5.112,-22.349,-6.584,-7.519,46.287,0.935,29.741,15.636,167.479,29.413,41.806,23.707,-4.998,30.69,29.426,14.757,19.55,81.075,15.047,29.913,6.987,-95.22
2.3835763999959454,12.106,1.905,-266.275,-21.259,-16.463,1.003,30.884,-12.791,-25.913,-11.188,-12.122,40.093,-5.726,27.662,9.472,163.213,20.162,30.494,16.511,-11.653,23.487,24.274,10.131,11.846,71.26,6.835,26.297,-3.779,-127.4
2.413092900067568,17.217,10.1,-267.546,-17.139,-11.323,4.588,63.641,-16.364,-19.74,-8.615,-10.573,43.639,-2.134,30.196,5.364,162.025,23.216,25.852,15.982,-15.228,23.976,23.225,7.559,18.494,66.578,9.389,30.369,10.57,-130.346
2.428249999997206,7.979,10.09,-268.303,-16.61,-13.361,-3.614,31.302,-16.86,-26.38,-13.73,-19.271,36.935,-11.353,20.944,-4.887,147.006,14.483,14.043,2.646,-26.483,11.144,9.369,-6.28,5.668,65.487,-2.915,17.531,6.973,-113.31
2.4283141000196338,6.434,13.666,-249.079,-10.446,-16.934,-6.684,-1.004,-5.573,-24.816,-13.204,-18.228,35.873,-12.366,22.972,0.753,146.859,11.395,21.714,2.643,-20.821,12.67,13.97,-2.176,7.712,67.471,-2.4,20.075,7.991,-99.876
2.4283569999970496,25.895,25.435,-231.924,-0.189,-4.11,9.717,29.735,5.191,-11.472,0.642,-0.791,51.719,4.552,33.195,22.269,160.544,24.191,40.135,22.621,-2.87,33.15,31.887,16.27,30.246,61.768,20.144,38.498,23.864,-90.043
2.4432258000597358,24.332,21.312,-256.283,-8.898,-2.568,8.17,62.493,-11.72,-19.145,-1.408,-3.352,48.594,-0.063,30.088,19.173,151.162,24.167,34.46,16.963,-10.039,30.043,25.195,10.618,22.531,57.096,18.587,35.898,15.643,-107.371
2.4432926001027226,16.111,17.704,-265.76,-12.475,-9.738,0.99,51.672,-21.442,-25.273,-6.53,-7.959,44.447,-7.748,32.108,9.42,143.327,24.143,35.45,6.7,-16.177,21.304,20.047,4.46,9.701,74.457,5.76,32.276,9.48,-121.096
2.458229000098072,35.563,32.543,-238.342,7.517,2.567,23.018,19.345,4.707,-4.756,13.969,10.492,66.944,12.24,45.908,26.829,157.528,41.025,56.931,25.136,0.233,37.164,34.884,20.337,25.572,88.215,18.562,43.514,32.012,-91.773
2.458291899994947,36.552,36.097,-245.789,13.145,5.126,27.093,29.059,14.436,-0.14,16.516,8.945,66.364,11.715,40.226,30.901,151.223,35.861,49.702,25.111,-4.89,35.077,28.701,13.656,26.571,73.782,20.593,37.835,33.005,-82.46
2.4732404000824317,6.289,15.569,-277.818,-5.311,-17.933,-5.209,52.597,-16.317,-24.219,-15.263,-21.29,37.609,-17.498,20.719,6.791,125.968,11.747,20.451,-2.579,-27.427,12.501,8.693,-7.874,3.491,55.265,-0.945,22.941,3.77,-114.653
2.475115800043568,1.16,2.233,-270.88,-18.114,-24.575,-14.938,25.904,-31.157,-34.953,-25.494,-27.417,32.96,-24.14,16.599,-0.388,120.719,11.735,20.43,-5.138,-28.936,13.001,10.733,-2.231,0.414,44.964,-3.505,23.942,-3.406,-126.834
2.4882997000822797,17.04,11.452,-255.753,-17.071,-11.743,-0.066,-6.397,-12.171,-25.184,-10.612,-14.582,42.149,-13.87,21.194,7.81,122.648,18.895,36.804,7.163,-22.76,21.185,17.383,8.53,10.659,47.48,8.281,28.017,10.942,-116.461
2.488364399992861,18.56,19.638,-263.694,-11.418,-13.268,2.496,13.077,-4.474,-17.987,-7.527,-12.006,40.57,-12.832,21.172,8.314,118.427,13.754,37.279,4.082,-22.737,17.065,13.779,4.423,8.087,68.95,5.712,25.94,17.079,-111.734
2.5043589000124484,11.369,12.446,-265.992,-12.944,-17.353,-0.068,45.851,-15.74,-21.042,-11.106,-15.068,39.505,-11.794,21.151,6.257,114.21,15.277,24.434,-2.582,-22.714,13.462,9.154,1.857,-2.167,69.393,-1.466,20.278,11.426,-98.302
2.504425000050105,6.747,3.724,-258.553,-23.689,-16.824,-3.654,31.973,-20.335,-27.681,-15.193,-20.176,35.367,-16.905,14.982,-0.922,103.337,15.261,15.188,-6.678,-29.351,8.837,4.022,-2.756,-5.751,37.048,-4.026,13.598,1.681,-93.593
2.518309500068426,10.326,7.307,-256.758,-18.03,-15.27,-5.7,-0.334,-10.581,-25.092,-16.203,-18.618,34.819,-19.962,7.795,-1.946,98.111,6.537,20.809,-2.061,-28.297,9.853,9.654,-3.778,2.452,35.474,-0.949,19.22,4.241,-112.455
2.5183742000954226,21.074,13.447,-250.866,-3.155,-8.082,7.113,-4.945,4.286,-11.747,-3.379,-3.743,49.641,-3.036,18.033,13.938,110.82,12.678,32.571,13.31,-8.289,24.188,24.501,9.034,14.232,68.226,10.323,30.471,16.532,-113.879
2.533410800038837,20.541,12.409,-243.442,-14.423,-7.562,9.155,27.848,2.745,-9.686,0.723,-2.202,52.665,4.139,28.261,20.584,112.246,23.424,33.563,14.834,-5.719,23.139,20.89,8.0,11.144,70.207,10.313,25.83,10.368,-97.884
2.535128700081259,8.737,3.175,-256.519,-32.339,-17.8,-8.784,48.825,-14.676,-22.484,-15.159,-18.594,34.682,-10.21,21.573,10.317,92.154,14.691,29.431,0.987,-23.644,8.259,7.549,-6.865,-1.675,41.448,-7.628,13.509,-5.524,-108.032
2.5484130000695586,8.216,-6.05,-280.853,-26.672,-17.27,-13.899,21.624,-23.371,-29.634,-20.779,-21.137,27.475,-15.835,17.453,3.647,83.865,6.992,32.988,-0.551,-24.133,10.3,8.566,-3.272,-2.185,34.234,-10.694,12.471,-1.932,-131.49
2.5484783001011238,16.405,-0.408,-275.962,-17.936,-10.593,-6.713,28.774,-20.786,-28.067,-15.635,-16.505,31.034,-13.257,25.633,4.155,87.367,15.182,37.565,10.72,-13.35,18.999,17.779,7.49,9.088,48.032,4.685,21.68,6.266,-123.162
2.563444600091316,21.512,13.937,-250.07,-16.381,-12.119,-5.681,12.352,-17.691,-28.039,-19.206,-17.001,29.978,-14.781,28.169,9.787,84.206,19.265,40.089,17.37,-9.751,20.517,24.422,6.458,14.202,62.329,10.828,29.343,5.236,-93.837
2.5635080999927595,23.539,16.484,-249.82,-14.315,-12.107,-3.114,-19.936,-12.038,-26.987,-19.699,-13.398,28.923,-12.205,24.554,22.072,81.048,15.66,43.635,18.889,-6.155,24.595,27.983,7.988,11.626,70.976,7.231,29.313,12.915,-94.255
2.578451900044456,24.028,9.295,-261.354,-17.887,-9.534,-1.574,6.212,-12.026,-24.398,-14.556,-9.798,27.87,-8.094,29.14,25.636,78.405,16.669,43.079,16.821,-5.636,25.595,24.369,10.542,12.639,69.88,7.224,27.235,21.611,-123.363
2.593385100015439,20.93,5.188,-254.432,-22.48,-12.598,-5.159,38.993,-20.211,-24.886,-15.054,-11.325,25.793,-9.623,33.21,24.586,69.106,20.238,37.913,12.193,-11.779,19.422,19.734,3.871,8.528,62.638,3.631,24.646,11.856,-128.362
2.593440700089559,15.786,0.572,-254.178,-23.994,-14.122,-4.641,6.679,-18.142,-25.373,-16.064,-9.777,22.693,-13.2,21.906,26.611,60.327,13.046,32.24,8.595,-13.816,17.865,17.153,-0.231,-3.264,51.817,-3.545,18.474,-1.988,-107.229
2.5951824000803754,17.307,-1.99,-265.194,-23.97,-12.571,-1.563,-23.554,-11.463,-24.323,-13.486,-8.23,18.06,-13.699,11.125,28.121,54.631,6.373,33.745,8.586,-10.216,19.384,16.623,2.331,2.375,44.593,-3.029,19.992,-0.962,-102.511
2.6086061000823975,24.975,5.696,-260.831,-15.75,-12.046,2.025,9.257,-11.452,-19.176,-7.837,-7.71,21.115,-6.513,23.922,32.704,50.478,15.075,44.982,12.676,-8.669,22.951,22.242,5.915,17.742,57.356,5.171,28.681,8.773,-109.069
2.6234944000607356,23.413,7.74,-265.181,-15.734,-13.571,-1.051,27.179,-16.051,-16.595,-7.317,-8.727,23.144,-3.945,35.169,32.159,46.329,19.671,47.498,9.078,-10.197,22.928,19.658,4.372,10.039,66.008,5.166,23.017,10.301,-114.083
2.6235744000878185,11.606,-4.563,-291.555,-32.112,-17.144,-11.808,14.344,-26.281,-24.776,-18.068,-18.964,9.288,-14.699,23.351,18.807,35.012,5.307,29.008,-1.178,-17.359,10.098,4.782,-3.83,-4.315,43.913,-4.573,11.211,4.143,-128.313
2.638896799995564,11.595,-4.559,-290.239,-31.567,-16.614,-11.796,-1.552,-23.694,-26.288,-19.587,-19.457,2.619,-15.197,19.741,20.325,26.268,3.765,21.294,1.897,-17.342,7.526,6.314,-1.264,5.935,32.086,-5.081,16.323,7.213,-130.747
2.6389593000058085,21.317,4.667,-260.747,-19.753,-9.425,-3.075,-33.826,-6.251,-19.089,-10.858,-8.167,12.862,-5.448,36.115,41.309,30.853,18.105,39.716,15.215,-5.029,23.912,19.115,8.983,16.175,50.497,6.195,22.454,11.816,-115.247
2.653529000002891,16.173,-2.51,-256.901,-32.541,-13.002,-12.294,-38.403,-13.417,-26.242,-21.606,-15.844,6.189,-12.615,37.616,39.731,25.186,16.55,45.312,11.102,-5.024,21.839,13.973,4.364,7.45,54.032,1.578,11.674,-2.028,-115.131
2.653586400090717,5.91,-12.241,-274.062,-44.291,-24.772,-24.065,-5.577,-33.384,-35.95,-33.367,-26.586,-7.649,-22.848,23.234,18.686,9.792,6.288,32.459,0.845,-13.216,9.01,6.787,-3.325,1.807,42.707,-9.695,5.514,-13.296,-118.602
2.6686114000622183,14.614,-3.519,-274.813,-31.952,-21.161,-14.307,-3.01,-22.592,-26.18,-17.965,-14.776,-0.469,-13.091,18.087,19.18,11.319,6.281,33.963,7.504,-7.567,16.685,16.001,4.875,6.928,48.812,-2.513,14.218,3.623,-111.312
2.6686877000611275,21.259,2.119,-270.952,-27.821,-13.968,-9.169,-21.45,-14.373,-21.543,-12.311,-11.176,-0.981,-11.029,16.532,33.505,9.771,3.714,41.614,9.545,-7.048,18.718,16.498,6.407,8.458,54.911,4.662,17.79,15.403,-122.471
2.6836024000076577,9.455,-5.567,-280.415,-34.453,-23.688,-22.48,-13.744,-32.289,-34.329,-30.742,-26.534,-18.911,-24.85,8.831,33.472,-8.682,-3.975,36.961,-4.296,-20.873,5.379,6.235,-3.333,4.352,50.758,-4.564,12.649,2.067,-136.693
2.6836658000247553,5.859,-5.049,-282.696,-30.32,-28.275,-25.019,-8.607,-33.281,-34.807,-32.248,-27.532,-18.892,-23.801,5.749,30.877,-11.235,-1.922,32.826,-2.243,-18.803,9.472,9.815,-0.769,3.835,54.806,-5.072,12.124,0.016,-123.749
2.6986274000955746,20.71,7.763,-264.995,-21.581,-15.439,-13.723,4.21,-19.416,-24.014,-18.384,-14.696,-8.627,-10.457,12.915,45.703,1.584,7.814,40.99,14.153,-2.902,23.807,19.539,8.966,12.54,63.46,8.766,19.796,18.971,-112.354
2.6986898001050577,27.862,13.391,-256.533,-19.51,-9.276,-10.636,21.624,-19.396,-22.453,-16.316,-8.022,-11.692,-9.934,21.099,62.051,0.046,9.343,45.047,14.139,-0.85,23.271,19.007,8.445,18.163,61.347,12.343,24.9,27.149,-116.34
2.7136132000014186,22.198,4.668,-271.645,-20.003,-14.902,-10.113,13.405,-22.451,-27.041,-19.374,-9.551,-15.779,-16.072,17.492,60.452,-9.688,-1.937,29.121,1.829,-9.046,19.149,16.427,3.826,9.948,50.528,5.158,20.776,18.413,-120.835
2.71367339999415,13.979,-5.07,-277.521,-24.594,-20.01,-7.541,-18.884,-18.842,-29.064,-18.842,-17.226,-20.374,-18.105,2.618,49.121,-18.9,-10.132,14.747,-3.295,-15.185,11.446,11.287,-1.301,-0.308,45.866,-3.556,12.046,6.099,-127.886
2.728737200028263,-0.379,-13.774,-263.924,-36.864,-28.187,-17.78,-51.14,-21.897,-35.695,-28.557,-30.016,-35.723,-27.821,-4.557,40.875,-32.201,-7.56,27.028,-10.464,-24.391,-1.886,-4.606,-10.009,-5.431,48.894,-17.385,-2.31,-9.276,-131.345
2.7437029000138864,-13.699,-27.081,-268.271,-51.685,-36.356,-37.23,-48.015,-35.708,-48.979,-43.898,-39.72,-49.007,-41.625,1.083,31.1,-43.44,-8.065,35.71,-20.7,-33.076,-8.032,-13.31,-15.635,-11.573,39.624,-30.175,-16.653,-21.562,-131.725
2.743765900027938,-5.488,-21.418,-282.859,-45.997,-30.684,-38.217,-15.179,-42.332,-48.418,-41.292,-36.094,-44.347,-33.387,11.84,34.655,-40.323,-4.983,22.867,-10.946,-22.797,0.173,2.072,-6.397,-4.389,30.363,-19.386,-5.365,-7.709,-134.668
2.743807699996978,20.645,9.342,-268.232,-16.238,-15.284,-16.662,-15.677,-22.822,-27.365,-20.246,-15.566,-26.372,-9.787,23.099,61.261,-21.839,12.953,29.504,12.632,2.329,20.153,23.587,12.564,19.694,44.677,7.273,24.354,20.476,-117.627
2.759110200102441,31.895,21.115,-252.082,-5.463,-9.633,-3.325,-42.813,-3.331,-14.53,-10.492,-3.767,-17.124,-4.654,29.223,72.982,-12.083,19.088,48.43,16.205,8.987,27.818,24.588,14.089,24.797,57.44,13.926,29.453,27.116,-97.529
2.759169900091365,16.494,2.651,-265.662,-26.462,-16.796,-9.982,-9.983,-15.111,-22.2,-21.24,-16.059,-32.988,-16.433,20.485,52.417,-28.465,2.162,30.963,-4.303,-12.027,7.298,7.657,-2.319,2.743,54.821,-4.531,10.468,13.768,-117.412
2.7736833000089973,1.62,-9.134,-277.18,-37.706,-24.976,-19.706,-12.022,-27.391,-29.35,-29.416,-27.313,-52.935,-24.613,1.509,42.119,-46.88,-15.258,2.755,-18.131,-29.433,-8.591,-6.695,-11.538,-9.043,59.889,-17.335,-1.326,4.021,-138.299
2.7737401000922546,2.131,-7.588,-268.706,-37.669,-26.488,-19.686,-44.285,-15.581,-27.783,-25.8,-25.237,-53.907,-26.638,-9.251,54.884,-46.833,-17.292,7.363,-12.99,-25.818,1.151,-5.151,-7.428,-1.349,62.903,-13.219,-1.324,3.504,-122.791
2.788818100001663,10.838,-1.945,-256.654,-40.193,-22.363,-14.543,-11.453,-9.418,-21.608,-20.651,-20.601,-46.169,-20.464,8.177,65.588,-36.54,0.143,31.946,-0.17,-12.984,11.908,9.711,1.288,8.386,57.205,-1.422,8.411,13.747,-108.836
2.7888830000301823,15.438,3.18,-251.786,-35.029,-20.804,-17.603,21.346,-22.728,-18.513,-23.192,-18.019,-44.586,-12.246,30.198,69.621,-29.843,16.025,43.697,5.466,-7.336,10.872,12.263,4.361,8.89,59.197,1.141,17.112,16.807,-114.363
2.803818400017917,3.127,-12.705,-269.465,-36.531,-30.005,-33.979,-10.951,-40.636,-35.912,-37.514,-27.735,-54.275,-24.529,20.434,63.916,-40.572,3.713,31.358,-6.323,-18.599,2.152,-5.68,-7.427,-7.0,45.818,-16.791,1.725,-9.337,-128.081
2.8039001000579447,-10.196,-29.086,-299.422,-48.278,-39.708,-41.117,-43.215,-44.182,-48.684,-45.161,-38.978,-66.004,-36.288,7.606,55.655,-52.315,-5.512,23.13,-11.439,-24.216,-5.023,-8.236,-11.518,-16.215,26.816,-26.508,-12.621,-23.16,-143.834
2.818870500079356,7.745,-9.589,-295.024,-38.496,-26.861,-19.559,-10.384,-22.108,-27.119,-26.16,-19.471,-53.642,-16.272,29.627,71.993,-33.307,17.035,46.161,10.601,-0.626,12.913,16.363,8.474,6.343,53.942,-0.354,8.909,9.651,-141.129
2.8337952001020312,30.791,13.986,-267.065,-18.477,-4.805,3.514,9.094,-1.082,-8.136,-5.129,4.627,-33.096,3.725,45.479,98.049,-10.732,27.777,64.045,26.985,16.281,32.368,30.179,19.736,29.903,85.139,21.163,28.88,36.281,-127.668
2.8338532000780106,23.076,8.849,-265.261,-18.459,-4.8,0.437,-23.191,-7.741,-18.886,-8.198,-4.599,-40.748,-4.476,29.552,95.901,-20.967,11.355,45.538,14.662,3.457,20.04,19.902,7.421,19.114,65.074,8.847,20.654,18.314,-121.905
2.848821800085716,14.344,0.131,-269.606,-23.051,-17.091,-8.273,-27.266,-14.393,-25.528,-14.85,-15.353,-57.613,-13.693,19.277,84.535,-34.779,4.171,32.173,0.303,-7.817,6.188,7.587,0.754,1.677,49.127,-6.019,13.973,-1.172,-103.34
2.851070700096898,20.477,-4.48,-250.381,-27.639,-20.66,-7.752,2.987,-8.743,-20.891,-15.347,-10.727,-58.58,-14.192,20.794,82.913,-34.744,2.63,37.264,-1.234,-5.76,12.842,5.018,1.265,2.7,61.886,-7.038,14.472,2.928,-90.429
2.8639284000964835,24.043,-4.988,-240.397,-29.66,-17.565,-6.72,35.772,-10.271,-17.284,-12.771,-8.155,-56.472,-10.079,17.187,80.781,-32.66,0.066,34.152,5.939,-0.631,18.976,14.235,5.362,14.992,64.898,1.678,16.506,16.245,-115.441
2.8639912999933586,31.703,9.874,-250.403,-11.7,-10.375,1.484,25.49,-1.039,-5.484,-1.487,0.563,-52.83,2.226,25.879,85.311,-23.406,9.8,35.143,18.229,11.152,23.568,26.516,17.14,23.174,66.882,16.021,28.273,28.011,-121.986
2.8782538000959903,32.696,11.401,-259.374,-7.59,-7.803,9.167,-6.811,13.819,-0.355,-0.973,3.124,-54.826,2.224,36.612,89.324,-22.358,8.765,40.743,13.6,10.117,22.52,17.268,11.487,13.929,67.327,9.345,27.22,16.2,-102.908
2.8783301000948995,15.757,-7.565,-272.434,-32.173,-18.554,-6.724,25.984,-4.638,-17.773,-20.44,-17.372,-71.677,-15.197,20.181,72.329,-42.828,-7.125,29.432,-5.369,-7.824,7.641,1.369,-5.43,-4.015,47.792,-10.644,10.287,-3.284,-125.859
2.8928668000735343,17.278,-0.898,-272.674,-28.554,-18.536,-17.476,58.745,-23.077,-21.342,-20.932,-18.379,-75.192,-15.181,7.866,68.158,-45.346,-1.482,29.402,0.271,-3.206,11.219,10.589,4.821,2.649,48.257,1.15,18.986,14.138,-145.713
2.8929246000479907,38.778,22.669,-245.249,-2.911,-1.611,3.547,26.411,0.512,-6.464,-1.443,4.693,-60.772,0.715,26.813,96.779,-26.346,14.401,48.328,24.35,16.265,31.7,27.485,21.21,24.675,75.361,21.129,38.947,39.227,-112.78
2.907897000084631,36.69,16.499,-235.27,-7.518,-3.146,10.715,-5.89,11.783,-12.605,-6.052,3.664,-64.81,-0.822,34.471,105.391,-26.832,9.776,47.768,24.838,15.224,30.132,26.945,15.554,26.7,67.601,17.009,34.297,28.429,-96.273
2.9095322000794113,28.969,3.675,-255.015,-20.831,-16.975,-9.275,26.903,-12.82,-24.375,-17.83,-6.074,-72.43,-6.969,20.092,90.429,-31.928,5.667,41.572,17.128,13.16,23.954,26.918,15.538,22.062,42.43,15.455,28.627,19.18,-123.842
2.9230134000536054,41.747,14.429,-255.785,-15.687,-9.786,-8.754,59.664,-23.053,-15.129,-6.541,6.228,-61.599,3.284,26.22,100.585,-19.601,13.859,52.289,27.869,26.467,38.274,36.625,25.769,31.262,66.979,27.223,40.382,33.505,-112.447
2.9230738000478595,47.341,19.538,-239.135,-18.233,1.494,7.649,27.329,-9.198,-8.454,1.663,13.906,-60.0,11.478,41.563,116.366,-15.483,18.455,55.311,35.014,27.977,42.335,37.613,25.231,33.28,99.699,28.732,44.44,32.959,-86.719
2.937995900050737,37.048,6.711,-245.044,-24.875,-5.679,2.518,-4.974,-5.603,-14.081,-4.999,6.208,-71.723,5.831,32.3,106.516,-26.226,14.851,46.034,24.22,16.166,27.948,25.792,15.984,19.414,78.595,16.921,34.149,18.069,-107.125
2.938056500046514,30.351,1.581,-259.655,-18.702,-11.821,-6.706,20.647,-9.695,-14.067,-6.531,2.103,-75.75,2.239,24.07,96.163,-32.347,10.738,43.426,14.975,11.539,21.772,18.082,8.796,15.296,49.315,7.682,24.381,20.613,-123.924
2.9529972000746056,33.394,10.289,-252.223,-12.536,-5.662,4.059,53.414,-4.563,-7.393,1.16,5.687,-74.137,8.897,43.514,101.19,-30.778,15.85,48.506,18.546,15.626,25.849,21.65,9.299,24.503,66.172,11.261,30.504,29.301,-107.406
2.953058100072667,37.459,10.278,-245.824,-12.523,-4.119,9.69,43.626,0.053,-4.312,1.159,7.731,-77.137,11.962,51.155,101.089,-31.259,21.469,49.482,22.626,15.611,27.872,23.165,15.95,22.941,83.524,14.323,37.646,24.149,-104.737
2.967994400067255,23.077,-10.224,-267.607,-20.707,-16.923,-8.762,11.307,-9.681,-14.554,-14.724,-7.134,-91.405,-3.42,24.976,82.032,-43.523,3.005,37.649,8.771,4.324,16.061,8.797,6.2,4.475,57.313,-4.647,20.702,5.682,-133.834
2.9698781000915915,2.562,-24.559,-284.758,-35.544,-27.152,-24.635,20.005,-27.09,-27.859,-30.078,-24.545,-110.781,-21.347,4.459,61.97,-59.874,-16.978,18.656,-8.656,-7.463,2.725,-3.507,-8.151,-6.8,26.517,-19.499,1.726,-5.082,-154.705
2.98307770001702,13.83,-10.189,-267.567,-36.02,-18.416,-14.364,35.867,-26.551,-23.22,-20.827,-13.25,-109.133,-12.616,10.602,68.056,-52.642,-6.715,18.638,1.086,-0.796,9.895,8.792,1.079,3.453,29.052,-4.11,16.582,8.243,-134.058
2.9991442000027746,39.944,9.801,-247.832,-17.541,-2.003,7.167,3.556,-2.958,-6.291,0.199,6.743,-93.655,5.839,24.424,93.091,-33.121,4.05,31.939,19.528,15.087,25.766,26.714,14.398,14.72,52.589,13.312,38.594,28.214,-105.747
2.999206900014542,47.588,19.525,-243.998,-1.13,4.659,18.431,7.65,17.537,5.498,11.982,14.933,-87.413,13.518,39.256,109.904,-23.867,6.608,46.252,25.656,26.855,33.937,31.81,16.945,20.853,78.664,22.008,42.654,34.846,-112.813
3.0131486000027508,48.565,26.165,-232.995,2.457,6.191,18.925,40.43,11.372,10.616,17.093,22.603,-81.691,20.677,56.123,116.454,-17.695,22.483,60.55,33.315,34.512,41.588,37.414,25.637,29.542,80.122,29.159,44.148,37.373,-119.361
3.0132151000434533,38.271,18.455,-229.688,-7.791,0.549,7.635,64.468,-7.595,0.359,5.805,14.384,-86.732,17.07,45.821,113.264,-23.825,21.948,51.78,27.647,24.232,34.374,32.766,18.952,23.877,48.792,14.273,37.444,27.602,-104.897
3.028192099998705,16.203,-2.056,-253.025,-17.517,-10.21,-7.23,32.129,-11.173,-19.109,-12.644,-9.197,-113.285,-3.952,15.549,86.51,-46.855,-5.226,24.064,3.54,3.715,9.749,11.216,-2.072,-0.738,35.935,-8.796,21.525,7.082,-117.087
3.0282563000218943,19.773,-1.542,-259.432,-9.815,-6.101,-5.173,-0.179,0.621,-17.553,-8.533,-5.602,-117.27,-4.46,13.484,54.149,-47.833,-6.246,24.552,4.562,10.884,9.739,10.18,3.053,-6.885,55.367,-7.25,22.528,3.489,-135.925
3.043225200031884,35.635,8.706,-238.68,-7.756,5.176,3.029,32.609,1.133,-6.777,3.259,10.798,-96.661,11.426,33.451,21.819,-30.879,9.642,41.946,21.975,34.951,27.66,27.588,17.395,8.491,55.311,1.979,28.653,6.047,-117.859
3.0432932000840083,29.452,2.549,-236.904,-22.093,1.072,2.001,65.364,-9.627,-6.77,1.206,6.176,-99.638,9.365,39.565,25.896,-32.385,9.632,38.318,20.417,33.892,26.608,27.561,11.742,14.63,43.473,0.952,22.989,0.405,-106.47
3.0582009000936523,26.348,-2.064,-251.524,-24.12,-4.564,1.999,64.786,-11.666,-7.276,0.18,2.584,-113.883,3.208,33.378,58.657,-36.451,10.135,35.206,19.884,20.025,20.946,20.873,10.706,15.64,54.7,1.976,23.479,7.577,-125.831
3.058264799998142,26.322,-3.599,-256.396,-23.071,-8.658,-4.663,32.446,-15.241,-13.416,-5.967,0.02,-117.355,0.131,24.123,80.628,-36.414,2.953,30.56,18.327,12.321,19.388,21.365,11.207,10.502,54.133,-4.686,22.431,9.106,-138.513
3.074072499992326,5.803,-18.452,-262.8,-36.881,-21.97,-23.614,3.212,-30.595,-31.333,-26.454,-19.96,-133.119,-15.751,13.34,48.784,-52.26,-17.543,11.574,-0.647,0.525,4.512,10.585,-6.222,-7.952,34.099,-18.001,7.551,-11.395,-142.473
3.0741342999972403,2.211,-18.946,-266.635,-32.233,-24.509,-26.151,20.627,-32.613,-32.327,-28.477,-26.088,-142.72,-20.346,17.425,51.809,-55.793,-12.402,22.321,-1.671,-3.574,0.921,5.963,-7.241,-8.456,26.893,-15.934,4.982,-7.797,-134.646
3.088320500100963,27.825,7.201,-249.462,-5.561,-6.554,-3.071,38.538,-11.576,-14.364,-7.443,-3.52,-124.647,-1.882,33.802,84.545,-33.196,9.127,51.5,21.385,11.287,22.437,24.401,13.771,18.704,30.452,0.476,22.908,16.289,-108.896
3.1032459000125527,39.067,17.44,-229.745,1.105,3.187,14.35,19.031,4.317,-3.078,5.884,9.803,-112.227,10.927,40.428,90.608,-21.892,9.118,45.301,27.511,23.571,32.149,37.184,20.417,26.883,56.037,12.258,33.131,19.346,-110.324
3.1049706999910995,30.831,6.151,-226.954,-8.63,-3.989,11.262,18.5,3.8,-1.026,5.366,2.621,-120.824,8.867,33.728,75.149,-29.555,3.474,29.886,16.725,18.937,19.309,25.364,12.2,7.388,88.769,7.635,29.0,14.204,-129.169
3.105024000047706,23.628,3.071,-233.899,-9.646,-11.157,-0.02,40.511,-2.351,-5.636,-5.91,-8.14,-130.949,-2.412,21.911,75.073,-39.259,0.909,32.93,6.462,8.672,6.482,12.531,6.552,-0.816,65.626,-7.229,20.774,9.067,-108.548
3.118332500103861,21.555,8.704,-237.764,-7.075,-10.634,-2.582,50.716,-5.423,-12.29,-13.589,-9.669,-133.892,-8.558,21.377,75.511,-39.732,-1.654,32.385,5.431,10.2,8.012,15.592,6.034,6.357,33.285,-10.296,17.679,0.348,-88.459
3.1183991000289097,29.731,12.281,-230.354,-5.019,-2.939,5.618,63.986,-1.319,-9.204,-3.842,0.075,-127.61,2.209,36.724,81.583,-26.885,8.082,31.84,18.746,22.485,19.275,22.749,11.663,7.888,54.769,0.473,25.858,9.057,-112.961
3.1337574000936,34.312,14.318,-220.902,-3.989,1.675,6.125,51.114,-1.318,-7.658,-0.764,3.661,-122.36,4.256,41.298,92.772,-20.71,14.734,33.858,21.801,24.512,22.33,19.652,14.213,4.806,74.182,0.472,28.906,18.27,-127.193
3.133820699993521,24.031,11.23,-230.927,-9.62,0.137,-1.566,18.788,-8.489,-14.823,-9.985,-3.003,-127.36,-5.994,28.449,90.118,-29.399,3.448,26.139,11.021,17.827,16.672,16.046,7.026,6.338,46.443,-3.114,23.754,8.518,-111.697
3.148411500034854,25.032,11.219,-245.041,-10.123,3.21,1.509,31.064,-8.48,-13.271,-4.852,0.074,-125.696,-0.353,23.81,91.052,-26.808,0.371,28.675,15.62,20.371,19.729,21.666,9.069,8.893,47.933,2.524,27.829,10.558,-107.999
3.1484800000907853,37.302,21.454,-237.624,-2.941,7.306,9.192,63.821,-5.398,-5.573,4.887,9.808,-113.787,12.968,35.57,99.158,-16.023,8.567,40.429,26.363,29.572,28.419,28.304,19.818,15.032,66.328,7.133,36.51,26.429,-109.428
3.1634495001053438,41.876,32.191,-222.529,1.161,11.397,13.282,32.506,-2.318,0.068,8.981,15.433,-107.526,19.615,51.415,100.084,-11.908,14.706,44.999,29.411,37.74,33.001,35.448,24.409,27.312,54.479,15.322,39.548,32.038,-100.097
3.178383900085464,45.932,35.745,-222.819,3.209,19.07,20.441,6.858,8.955,6.216,16.656,20.541,-106.906,24.718,56.487,105.107,-6.261,18.278,48.028,36.554,41.8,36.554,38.486,22.848,29.846,64.671,25.553,44.631,33.543,-95.898
3.1784479999914765,46.911,31.098,-227.719,2.181,17.002,19.396,38.102,8.433,4.672,13.053,17.959,-110.385,18.546,43.623,105.001,-9.841,12.112,41.32,32.931,35.098,33.444,30.251,20.263,20.083,97.394,18.868,45.611,26.85,-94.778
3.193403600016609,40.204,26.969,-223.393,-2.944,9.3,11.692,66.241,-7.457,1.594,5.868,11.281,-114.886,10.843,35.895,92.601,-19.052,6.977,31.033,23.676,30.453,29.824,29.196,20.243,21.087,90.636,14.238,42.492,21.187,-92.634
3.1934657000238076,44.262,32.065,-225.219,-1.404,13.389,16.291,56.953,-3.351,8.252,15.596,17.417,-110.672,21.078,44.568,98.656,-10.324,17.728,41.248,33.899,39.644,36.967,39.925,24.321,30.288,70.053,26.519,46.036,37.048,-101.763
3.2083637000760064,42.169,27.422,-244.973,-4.989,9.79,13.2,24.621,1.263,-2.002,5.847,12.789,-114.66,15.422,41.45,103.168,-11.338,15.149,41.719,33.865,33.969,31.294,31.688,18.149,20.011,68.446,18.808,39.329,37.011,-119.079
3.208422200055793,20.61,4.341,-259.585,-22.403,-5.589,-4.744,1.03,-18.206,-23.005,-17.725,-7.204,-133.501,-8.16,25.527,80.011,-33.869,-1.772,24.259,11.802,15.492,12.308,13.214,7.372,-1.526,64.792,-6.314,22.384,8.797,-129.719
3.2235161000862718,17.515,0.75,-252.666,-22.38,-1.485,-2.69,33.817,-18.187,-13.76,-5.412,-5.147,-131.83,-2.004,27.55,73.784,-33.322,3.352,33.456,14.352,18.55,15.369,19.86,11.976,-0.499,60.116,-5.795,22.874,10.837,-130.101
3.2252371000358835,33.379,15.606,-246.265,-4.427,10.812,12.682,66.571,2.323,3.672,13.549,11.764,-115.305,13.879,37.769,89.591,-19.969,13.083,43.669,27.657,29.802,26.624,28.55,18.624,16.407,59.032,8.043,33.097,25.683,-118.7
3.2384770000353456,34.883,14.566,-241.408,-3.91,10.288,12.67,49.598,1.296,1.107,6.875,11.24,-116.214,7.205,42.342,88.477,-23.535,6.41,27.231,20.97,25.674,23.012,22.374,13.482,21.002,54.874,5.986,33.064,13.362,-100.139
3.238536400021985,38.434,16.088,-215.552,-10.054,12.84,14.706,66.455,-2.804,1.618,10.454,11.229,-110.975,11.297,50.497,94.536,-16.852,13.063,33.864,25.047,30.771,28.624,29.524,15.006,17.907,61.479,8.029,38.154,14.373,-91.329
3.253929099999368,48.642,27.343,-202.016,-4.409,17.95,21.864,87.393,2.835,5.203,16.592,20.439,-97.031,24.093,50.446,110.836,-4.539,23.297,49.712,38.342,44.061,40.379,41.789,24.724,21.987,69.102,19.804,46.313,32.29,-103.533
3.2539953000377864,34.761,16.045,-234.089,-7.99,7.173,11.084,55.03,-3.828,-6.586,-0.844,10.173,-111.791,9.724,28.366,96.892,-20.929,3.806,29.17,25.496,30.696,29.58,29.965,20.601,20.428,55.201,14.149,36.533,21.499,-128.533
3.2684958000900224,18.332,4.758,-255.885,-14.13,-0.518,2.876,22.699,-3.824,-12.214,-8.015,-2.133,-126.536,-4.118,17.067,79.889,-37.302,-9.006,20.431,14.2,15.809,17.767,19.688,11.359,10.674,50.023,1.839,28.299,11.744,-136.089
3.2685560000827536,29.073,20.635,-230.013,0.741,9.216,12.606,55.464,4.376,-3.493,5.313,9.14,-105.918,10.231,33.444,94.154,-23.944,9.958,41.928,28.018,32.699,27.483,30.939,19.032,14.25,70.977,9.522,39.542,27.614,-118.022
3.283632600097917,37.753,25.737,-212.877,6.376,15.867,11.569,88.197,-12.534,-2.977,7.357,16.303,-95.053,19.442,43.144,105.331,-13.162,19.17,41.373,34.65,44.962,33.603,36.032,26.698,22.945,78.079,17.197,42.576,32.709,-104.072
3.2854061000980437,20.809,6.244,-226.497,-19.759,5.605,-4.324,76.838,-31.989,-13.22,-3.921,1.43,-113.401,4.054,31.831,88.832,-25.957,2.757,23.914,20.783,28.011,19.225,19.602,12.327,11.139,60.07,3.86,26.14,17.307,-107.554
3.298580600065179,4.394,-2.984,-237.029,-36.133,-6.696,-11.492,44.486,-27.859,-21.916,-16.213,-9.842,-124.559,-11.832,23.089,71.324,-43.349,-8.516,17.742,9.491,13.638,6.398,7.287,-0.493,-4.754,49.251,-11.513,15.355,-1.153,-111.032
3.298644500086084,16.685,8.802,-230.644,-12.53,-0.542,-4.308,28.559,-17.585,-19.845,-16.196,-1.636,-117.774,-4.135,26.653,78.938,-39.72,-0.823,17.212,17.166,21.821,17.15,19.063,11.29,4.984,53.3,-3.817,25.074,1.922,-110.409
3.31362040003296,46.895,33.384,-208.384,19.245,19.439,16.189,51.585,-0.661,-0.87,8.923,18.346,-98.701,19.435,41.995,105.499,-15.601,17.621,30.515,38.666,42.804,40.699,41.073,28.697,31.107,71.69,20.777,46.053,34.707,-103.126
3.313697100034915,55.557,47.695,-194.343,25.374,24.03,30.005,54.607,14.709,9.889,23.259,27.549,-85.282,27.1,53.224,113.59,-4.827,25.8,51.489,42.726,48.397,46.294,43.593,31.23,38.761,95.185,34.077,54.716,56.702,-89.191
3.3285937000764534,30.911,27.155,-221.301,5.881,7.1,11.532,39.695,-4.774,-9.076,-0.331,7.542,-105.177,4.531,33.191,85.812,-28.901,3.233,39.654,18.093,24.782,24.731,21.52,13.781,14.131,78.696,12.013,36.731,24.882,-99.86
3.328656000085175,10.387,3.05,-246.695,-17.691,-5.203,-13.071,45.291,-29.872,-26.998,-18.261,-14.495,-127.613,-13.404,4.468,64.721,-50.901,-19.312,13.487,2.705,5.802,7.8,7.154,-3.139,-9.961,46.341,-15.663,14.665,0.267,-128.962
3.3435726000461727,22.16,12.268,-225.956,-15.112,0.95,-4.348,71.374,-16.01,-10.577,-4.923,-1.161,-109.555,0.442,16.759,76.952,-38.555,-3.924,19.109,18.072,20.653,19.063,18.93,7.11,3.368,40.66,-2.84,21.822,13.074,-120.636
3.358745100093074,39.044,27.625,-207.8,7.444,11.196,17.173,84.622,4.499,7.365,9.939,19.845,-87.928,19.397,43.895,89.683,-19.561,12.474,37.02,29.837,36.514,32.876,30.182,22.472,23.345,73.407,16.631,39.731,20.745,-93.875
3.3588064000941813,32.345,22.987,-222.449,7.949,10.672,16.643,56.361,1.933,-1.352,8.904,12.653,-96.55,13.742,34.117,80.884,-25.177,-0.346,28.274,22.122,28.281,25.671,21.443,12.716,10.514,79.993,4.319,34.056,13.04,-110.175
3.373732200008817,20.53,15.792,-228.374,-7.94,5.538,5.356,30.689,-4.729,-10.572,0.698,1.882,-106.699,0.921,19.738,74.655,-37.447,-8.543,13.901,16.465,22.617,17.448,16.81,6.555,-2.816,65.569,-2.858,21.727,13.539,-137.217
3.3890165000921115,22.558,14.751,-224.559,-5.883,1.434,0.74,63.446,-10.36,-13.123,-10.061,2.905,-106.593,-2.154,33.038,80.728,-36.897,1.712,21.572,20.034,25.156,22.042,23.966,17.307,7.433,70.114,7.391,24.267,19.161,-123.76
3.389079699991271,19.462,10.126,-234.581,-4.852,1.433,-6.433,86.949,-23.67,-25.406,-18.248,-3.246,-110.585,-7.787,36.592,80.135,-39.934,3.76,31.284,19.502,21.032,22.02,21.893,14.216,10.499,63.896,1.236,25.779,15.556,-105.193
3.4036421000491828,15.856,7.042,-234.346,-14.581,8.091,-8.476,54.586,-25.183,-25.38,-14.131,-3.755,-107.912,-7.78,25.284,73.908,-43.48,1.194,30.228,18.97,22.036,19.436,18.797,8.566,6.902,47.951,-5.938,23.192,7.856,-112.773
3.403700300026685,30.697,15.232,-218.743,-2.784,17.305,10.488,23.281,-6.202,-2.813,2.277,15.716,-94.484,10.671,32.431,83.055,-31.654,7.853,32.76,26.124,34.309,30.687,28.512,18.804,14.068,59.174,9.438,33.415,10.409,-120.345
3.418650900013745,36.814,20.852,-219.036,10.539,17.288,21.236,56.045,4.05,1.288,8.935,20.312,-91.316,15.271,41.62,92.706,-26.499,7.333,35.288,28.147,33.763,34.755,29.508,18.273,13.029,69.361,16.088,40.042,16.034,-116.126
3.420314499991946,19.359,10.072,-234.699,-4.328,7.536,1.235,88.777,-13.885,-15.619,-4.906,2.36,-103.52,-3.699,27.746,84.929,-42.354,-4.97,28.081,19.922,24.507,20.888,18.72,8.521,2.77,60.582,3.264,27.706,10.895,-114.473
3.433706400101073,15.241,0.841,-244.198,-8.423,4.455,-7.988,69.221,-24.629,-15.091,-11.562,0.309,-108.027,-6.257,16.448,79.208,-47.435,-8.551,21.905,21.439,28.069,19.843,24.337,17.222,7.378,70.255,2.236,22.043,9.86,-118.969
3.433783999993466,25.984,8.525,-242.417,1.832,9.574,6.364,36.876,-7.186,-6.879,-1.816,10.555,-99.723,5.532,22.579,87.326,-38.166,-3.419,23.932,29.614,34.189,30.581,34.559,25.914,17.617,82.48,12.48,30.73,18.559,-127.047
3.4487857000203803,22.372,14.151,-228.855,-6.367,10.589,4.309,42.987,-0.519,-11.483,-3.351,4.396,-97.574,3.477,28.704,87.751,-42.226,-3.416,27.495,26.511,29.544,25.428,28.376,19.74,17.599,66.004,14.005,31.724,18.028,-128.969
3.463694700039923,17.227,9.014,-213.256,-11.996,8.017,-6.966,75.731,-16.4,-10.96,-9.496,-1.756,-101.574,-0.625,24.577,78.442,-51.918,-4.949,27.467,22.386,26.953,19.767,22.713,15.622,17.069,54.155,8.868,24.52,10.838,-121.668
3.4637525000143796,19.259,7.468,-217.654,-1.225,6.984,-3.373,91.025,-18.945,-6.338,-3.338,2.857,-99.424,2.45,17.38,76.314,-49.304,-4.432,21.292,24.413,27.438,23.333,23.714,15.094,15.003,60.248,4.248,21.934,11.339,-120.009
3.4637949001044035,17.19,8.998,-236.392,-3.786,4.928,-3.37,58.659,-6.631,-12.479,-4.36,2.342,-98.3,0.911,24.023,77.775,-45.157,-4.94,22.295,22.851,25.361,21.261,22.154,12.517,9.352,63.774,2.195,22.937,15.939,-125.012
3.4787632999941707,17.686,10.013,-236.668,-8.393,5.435,-5.928,32.985,-4.063,-11.954,-9.991,2.339,-95.64,-0.627,38.856,76.672,-43.575,0.7,38.667,24.365,28.41,22.264,24.693,15.579,11.905,64.735,6.291,25.475,24.12,-120.789
3.4804762999992818,19.717,12.053,-225.673,-2.749,7.991,-2.848,65.739,-12.256,-7.844,-4.858,5.411,-92.47,-0.114,33.694,75.571,-46.093,6.335,43.751,24.341,29.406,25.828,25.181,15.051,14.967,60.572,6.797,23.401,29.219,-113.496
3.4938442000420764,10.476,7.942,-228.008,-6.845,3.885,-11.554,68.235,-22.49,-19.619,-8.439,-0.742,-99.038,-6.774,21.365,72.934,-56.293,0.693,30.9,14.07,20.155,14.531,13.373,6.839,8.804,56.925,-1.919,12.619,18.943,-112.358
3.4939117000903934,9.441,6.909,-222.657,-7.862,4.905,-14.617,35.891,-20.418,-18.575,-12.017,-1.254,-97.914,-4.206,32.102,74.91,-54.187,2.229,32.406,18.667,25.258,14.004,14.896,10.418,11.357,74.799,-1.405,13.118,12.264,-104.048
3.50990649999585,23.776,17.661,-203.479,3.929,16.171,5.378,53.786,-1.954,2.448,4.902,13.092,-79.885,12.192,41.291,83.545,-38.251,12.473,43.644,35.042,40.09,29.872,28.714,19.629,21.079,91.63,9.355,25.913,19.425,-95.747
3.5099728000350296,19.654,14.057,-216.083,-0.686,13.081,5.372,86.52,0.609,0.397,6.434,12.054,-81.855,11.668,24.856,82.436,-46.41,0.165,30.281,24.761,30.828,24.719,21.0,12.949,13.886,76.17,4.735,24.35,19.405,-112.046
3.523884000023827,3.752,1.235,-243.02,-8.37,2.822,-13.076,70.552,-15.785,-15.485,-14.578,-4.864,-100.216,-6.275,9.462,72.108,-67.881,-18.278,9.246,9.367,16.452,12.399,11.245,8.326,5.675,63.286,-4.491,15.104,18.361,-127.303
3.5239679000806063,17.581,17.116,-226.383,7.008,14.602,-0.255,40.255,-7.06,-4.711,-5.854,2.826,-89.87,-3.707,15.088,79.208,-59.103,-3.915,19.483,27.289,31.293,26.219,29.677,23.687,21.551,78.592,13.444,28.921,32.687,-106.171
3.5378583000274375,38.056,34.005,-203.615,16.734,26.371,17.163,62.757,12.414,7.076,12.083,20.241,-70.824,11.154,32.491,90.912,-44.187,14.532,42.517,42.118,44.069,36.951,40.406,32.884,36.898,91.833,31.361,42.725,40.852,-81.986
3.55298630008474,21.624,12.454,-221.854,-1.213,9.438,-2.834,95.482,-8.603,-11.374,-5.348,4.852,-83.561,-1.153,39.119,77.501,-58.488,1.198,35.302,21.584,27.119,20.008,19.873,16.458,24.566,80.471,12.887,26.801,23.392,-94.712
3.5530473000835627,-0.939,-11.637,-234.44,-17.606,-5.428,-21.786,63.623,-34.209,-28.269,-21.736,-14.621,-98.847,-20.107,22.686,61.542,-74.311,-14.685,10.676,5.168,13.26,5.131,6.021,0.56,5.586,65.021,-9.668,9.355,2.877,-118.696
3.567949900054373,5.722,-10.601,-224.472,-15.539,1.75,-11.518,31.284,-17.269,-16.457,-9.931,-2.311,-87.477,-7.279,15.491,68.653,-66.04,-6.986,16.813,14.385,19.906,9.737,14.212,6.707,4.044,65.468,-6.072,13.957,0.824,-127.286
3.5680184999946505,9.814,-10.59,-229.371,-10.913,5.846,-3.822,56.868,-0.346,-2.608,-5.311,9.475,-76.119,7.073,34.943,73.195,-59.826,5.829,40.362,15.907,20.399,12.801,12.661,10.286,4.04,66.94,-6.578,13.43,4.922,-128.696
3.582964300061576,-3.003,-18.777,-237.338,-19.611,-2.869,-13.552,89.599,-18.276,-11.827,-17.088,-4.367,-83.728,-6.255,38.494,58.265,-71.037,3.774,32.637,0.01,8.595,3.566,-2.209,-5.093,-9.797,48.43,-21.941,0.097,-1.231,-128.567
3.5830288000870496,-3.512,-19.782,-233.002,-26.764,-4.403,-19.174,85.923,-31.578,-21.549,-21.17,-12.047,-88.767,-14.445,18.988,49.497,-76.089,-3.402,17.236,-2.039,10.636,-2.585,-2.207,-9.187,-17.472,31.475,-22.943,-1.952,-10.963,-132.025
3.5980041000293568,14.422,-9.004,-232.257,-7.781,6.36,-6.347,53.562,-13.103,-7.696,-6.804,4.359,-73.309,4.012,22.043,65.841,-59.107,6.847,35.149,19.48,29.068,12.787,15.726,8.753,-5.159,45.788,-7.039,11.882,-1.218,-132.917
3.598077300004661,28.24,9.96,-225.877,16.305,16.088,9.028,37.627,7.915,4.095,7.547,18.699,-56.329,17.328,43.026,85.243,-42.654,20.16,47.922,34.317,40.31,31.729,27.494,20.015,11.24,73.407,7.313,26.727,21.837,-110.243
3.6130475000245497,17.965,7.389,-216.942,5.018,6.85,-1.739,34.515,-2.852,-12.815,-6.805,6.897,-67.032,1.429,41.446,74.4,-55.419,4.259,25.332,21.475,27.974,21.452,18.757,9.749,9.18,74.358,5.768,22.089,22.84,-95.276
3.613115500076674,-9.717,-22.845,-232.607,-24.189,-14.161,-29.402,42.165,-35.124,-32.782,-34.463,-17.701,-92.58,-20.601,16.813,43.074,-81.491,-20.336,8.401,-3.137,5.405,-3.673,-0.217,-4.605,-8.248,44.57,-14.217,0.038,-5.36,-122.333
3.6280339000513777,-13.294,-31.531,-243.132,-27.751,-12.61,-31.422,74.911,-43.286,-29.676,-32.379,-20.757,-93.512,-22.118,0.403,37.396,-83.971,-17.754,16.589,-5.696,2.838,-5.718,-4.315,-5.113,-11.313,22.496,-24.962,-5.085,-19.699,-140.141
3.6281000000890344,7.724,-8.958,-222.909,-12.866,6.87,-11.923,62.028,-21.214,-18.375,-12.366,-2.805,-76.512,-8.775,11.161,57.339,-66.981,-6.978,23.233,11.728,18.204,8.632,10.546,6.163,2.53,36.306,-10.592,11.314,0.813,-122.583
3.6434565000236034,7.716,-2.801,-213.977,-10.804,7.888,-4.226,29.691,-10.434,-15.795,-12.354,0.784,-73.362,-4.156,26.007,62.404,-62.816,-10.557,22.697,14.791,20.235,8.623,13.097,6.157,3.552,62.91,-3.921,12.327,17.718,-118.874
3.6435200000414625,-4.074,-11.508,-227.083,-14.892,-1.854,-10.882,40.42,-19.133,-18.341,-19.002,-7.926,-78.924,-8.25,19.321,54.145,-68.388,-14.645,21.65,4.53,10.994,1.442,3.862,-3.071,-3.111,64.896,-13.139,1.557,11.552,-123.366
3.6580496000824496,1.565,-9.447,-226.856,-11.803,1.734,-15.994,73.167,-28.335,-20.372,-18.47,-7.918,-75.771,-7.73,11.617,56.14,-66.27,-12.069,19.067,7.087,11.495,3.49,5.395,-1.531,-0.034,47.925,-12.101,5.141,4.369,-106.848
3.6581108000827953,-2.535,-11.999,-226.629,-15.89,-1.854,-24.175,80.266,-39.065,-26.499,-27.161,-12.009,-78.257,-12.845,18.777,56.596,-68.766,-14.106,13.412,9.129,9.434,2.462,6.927,0.52,-7.719,40.705,-11.577,4.111,-1.271,-106.229
3.6731529000680894,-13.803,-17.11,-237.673,-25.095,-8.512,-27.737,47.91,-40.051,-31.596,-31.232,-20.194,-85.351,-20.517,18.246,52.441,-74.332,-17.678,14.936,2.972,3.277,-1.127,3.334,-2.042,-17.957,48.861,-15.664,-4.602,-4.856,-121.492
3.673229500069283,11.314,3.911,-224.116,-13.287,10.452,-7.729,16.1,-14.395,-14.658,-8.147,-0.706,-68.36,-3.59,21.814,67.246,-57.864,-4.341,33.364,16.801,20.18,15.781,20.237,10.255,3.065,60.083,2.283,11.284,13.592,-113.174
3.688209900050424,43.066,29.523,-197.764,12.854,34.52,18.918,15.059,9.698,11.484,16.452,26.959,-39.09,24.59,49.457,93.818,-32.191,16.156,53.823,37.789,45.775,38.306,39.684,25.614,28.678,64.633,27.896,35.864,36.632,-97.692
3.6882766000926495,33.801,23.858,-209.349,14.89,28.85,13.264,47.831,-4.144,4.813,9.263,21.809,-42.124,18.93,56.067,92.7,-33.696,11.017,44.035,31.604,40.606,32.12,31.447,19.441,22.501,61.495,23.257,29.168,26.862,-100.668
3.7031439000274986,11.226,0.78,-234.755,-4.08,9.866,-12.877,80.571,-32.83,-19.27,-13.8,1.807,-64.112,-5.679,23.736,64.943,-51.593,-14.61,20.425,16.203,21.098,12.108,16.047,9.175,7.11,55.286,2.742,9.671,6.342,-107.739
3.7032018000027165,9.677,-3.319,-220.688,-8.174,5.245,-14.913,48.215,-31.26,-17.714,-17.885,-0.244,-63.023,-5.161,4.757,55.144,-53.59,-17.669,21.429,20.285,24.151,14.658,18.08,12.24,7.102,51.644,0.69,8.637,7.873,-105.582
3.7181645000819117,18.889,8.467,-193.827,-0.994,14.461,-2.091,15.892,-12.273,-7.963,-6.596,7.441,-53.226,5.09,26.269,68.921,-44.828,-2.282,30.629,26.925,33.86,26.938,26.771,16.839,17.854,59.277,12.984,18.362,16.062,-95.231
3.7182363000465557,20.407,8.971,-199.781,-4.067,17.521,-4.138,48.664,-16.872,-16.152,-7.614,6.409,-59.833,-1.575,38.026,69.877,-49.393,-2.28,27.012,20.75,26.654,20.764,25.72,14.773,20.397,72.538,11.947,19.88,13.485,-92.574
3.733250300050713,12.19,-1.796,-218.025,-6.112,9.819,-8.744,58.861,-25.564,-20.234,-16.828,-1.282,-65.921,-6.697,24.668,54.95,-59.59,-11.499,21.862,13.045,17.406,10.497,15.96,12.196,8.594,73.49,1.689,13.713,11.422,-109.9
3.748248800053261,8.592,-0.77,-214.733,-0.47,8.784,-5.662,26.527,-12.218,-13.041,-12.713,-0.768,-61.244,-2.079,16.959,49.26,-57.481,-13.537,20.304,13.544,21.487,13.56,14.92,12.184,3.975,65.732,2.712,10.113,13.972,-117.987
3.7483133000787348,9.095,2.305,-204.272,-3.544,11.849,-11.291,59.288,-17.842,-14.565,-9.626,2.819,-60.158,-3.102,23.602,47.673,-53.838,-10.962,20.796,15.067,23.515,13.547,19.515,11.147,11.143,56.957,5.27,10.615,10.884,-105.061
3.763629600056447,7.037,-6.407,-209.191,-9.688,6.714,-18.965,92.016,-41.902,-19.674,-17.814,-2.307,-63.684,-8.222,27.676,38.917,-61.469,-8.389,26.41,13.515,18.368,9.435,13.861,6.013,6.521,49.216,-2.42,9.068,3.701,-104.444
3.763690200052224,16.252,-2.302,-214.617,0.056,12.343,-7.675,59.649,-23.417,-8.896,-8.062,2.306,-55.423,1.008,27.649,38.365,-56.796,-5.307,30.994,19.65,29.108,21.721,18.97,10.105,2.928,55.314,2.706,14.182,7.283,-106.388
3.778230500058271,33.654,14.607,-203.131,12.351,31.798,9.751,27.314,7.857,1.359,13.463,20.234,-41.023,16.889,34.793,54.208,-37.784,-0.178,33.525,32.95,48.547,35.019,36.882,22.903,15.221,69.091,17.56,25.951,20.596,-89.376
3.7782901000464335,29.009,9.981,-197.805,11.314,31.254,6.155,60.074,-7.52,-6.839,6.789,18.165,-45.081,12.261,38.857,63.376,-40.82,3.408,34.004,30.355,41.326,27.299,31.209,20.319,13.669,59.8,11.907,23.875,13.403,-90.823
3.7933055000612512,15.148,-1.812,-206.317,9.766,16.878,-4.097,75.383,-23.394,-12.98,-8.074,5.851,-59.893,-0.047,30.109,60.239,-57.173,-1.719,26.797,17.517,25.403,16.513,16.833,6.466,0.847,43.347,-0.912,12.581,-6.078,-110.713
3.7950156000442803,24.867,9.973,-199.45,13.854,23.521,6.153,43.033,-3.391,-2.208,4.229,16.604,-55.734,8.15,29.054,65.814,-50.968,-8.377,20.623,23.135,34.599,21.62,25.014,9.533,6.994,54.062,3.187,16.154,4.687,-100.868
3.8084946000017226,28.428,15.599,-186.956,9.742,28.109,12.295,68.093,-0.826,0.868,8.323,20.174,-53.629,12.753,35.685,70.871,-46.819,-8.881,22.652,26.698,37.126,19.549,24.476,15.159,11.086,61.18,2.671,17.163,17.49,-91.546
3.8085592000279576,3.809,-3.372,-203.162,-2.051,9.125,-9.235,71.098,-26.953,-18.601,-15.251,-3.413,-79.191,-7.24,20.793,52.357,-70.338,-16.044,14.944,4.13,11.986,-0.963,4.984,-1.25,-7.369,41.651,-15.774,-0.273,-7.119,-115.02
3.8233969000866637,-0.806,-6.443,-212.693,-4.098,6.555,-15.373,70.003,-29.487,-20.119,-16.773,-4.946,-87.821,-8.769,8.476,42.571,-75.903,-19.102,8.269,-0.485,9.413,-3.523,6.004,-4.322,-9.41,35.974,-19.345,-1.297,-16.333,-111.319
3.823462500004098,25.835,15.08,-187.377,9.738,27.553,10.258,102.72,-6.916,7.053,8.859,20.162,-66.216,14.806,28.96,65.582,-50.724,-4.226,24.655,26.156,35.531,19.022,24.441,15.662,11.091,58.48,-0.37,19.709,11.86,-78.42
3.838368500000797,28.883,18.652,-186.165,19.463,28.037,11.784,70.342,-2.299,9.096,5.777,18.092,-69.224,12.229,35.079,70.64,-49.649,-0.123,31.29,26.13,34.983,16.954,22.367,13.085,6.469,63.544,0.143,16.615,11.336,-87.563
3.838427200098522,8.874,0.19,-218.255,6.123,12.128,-11.793,37.997,-16.641,-17.554,-17.795,-2.93,-94.258,-9.3,12.502,49.052,-73.678,-18.054,10.254,1.513,13.431,-5.093,8.0,-5.371,-14.029,40.427,-20.35,-3.382,-13.778,-119.751
3.8534084000857547,12.964,0.702,-213.426,-4.129,13.653,-8.196,70.746,-20.21,-15.999,-13.167,0.146,-91.09,-2.118,19.662,52.077,-70.53,-17.011,9.732,8.171,21.102,1.572,13.627,1.294,-3.257,28.091,-15.719,4.306,-8.129,-108.361
3.855244200094603,28.832,15.558,-180.424,10.22,23.373,6.67,103.463,-13.018,4.509,3.24,13.466,-79.728,14.79,48.844,68.419,-50.992,1.961,31.751,26.606,38.5,17.965,25.397,11.539,14.677,36.772,1.716,18.647,2.637,-86.223
3.8684679000871256,20.094,10.932,-185.879,16.357,20.276,2.564,71.084,-10.956,0.406,-1.374,8.33,-91.431,6.578,39.061,59.641,-57.089,-2.652,25.06,14.796,26.166,4.627,12.052,1.281,-2.756,42.883,-10.581,6.845,-12.222,-104.067
3.868536000023596,7.779,-0.35,-207.723,1.484,13.083,2.05,38.738,-7.359,-9.328,-8.032,-0.388,-103.123,-2.65,15.968,52.409,-70.864,-19.555,4.03,5.048,10.77,-5.624,0.256,-1.794,-19.659,44.377,-26.965,-4.433,-19.895,-119.333
3.883888900047168,19.042,10.921,-196.757,-2.104,16.144,9.732,71.487,-4.277,0.415,0.173,7.809,-98.921,7.599,25.174,67.214,-60.547,-10.314,14.784,17.85,23.567,11.288,14.088,8.454,-0.172,54.067,-11.569,8.38,-5.018,-96.159
3.8839587999973446,33.367,24.743,-187.851,9.169,23.3,9.21,104.203,-9.908,6.562,6.833,19.072,-93.699,20.399,39.493,74.831,-45.629,6.09,36.286,23.98,36.864,20.498,22.271,13.569,18.784,62.722,3.3,18.105,7.283,-75.571
3.8985547000775114,25.137,15.496,-202.52,9.16,20.203,8.176,71.824,-7.849,0.92,4.264,13.93,-95.655,20.379,29.72,68.096,-50.195,0.961,31.639,18.321,29.142,10.231,13.027,10.993,11.08,57.536,-5.925,10.402,0.103,-89.328
3.8986180000938475,8.206,-2.45,-212.563,-1.608,9.424,0.996,40.501,-5.28,-3.179,-4.962,1.109,-107.855,9.6,19.957,55.733,-59.878,-13.385,16.239,14.716,19.892,2.537,7.891,6.884,-2.251,49.794,-15.653,0.146,-17.828,-109.731
3.913546400028281,3.587,-10.132,-216.449,-13.902,4.804,-16.936,73.248,-25.255,-8.811,-16.74,-7.602,-123.116,-2.705,26.597,45.431,-62.892,-16.445,11.612,10.603,18.335,0.485,6.347,2.779,-4.298,46.67,-17.686,-2.928,-28.056,-113.719
3.928595900069922,1.534,-14.22,-223.405,-22.085,4.287,-20.505,105.963,-38.549,-14.95,-20.309,-12.717,-127.604,-8.85,32.205,45.385,-66.928,-11.818,15.186,7.519,13.193,-2.59,4.291,3.288,1.342,42.525,-20.23,-2.413,-27.003,-110.532
3.9286608000984415,-2.054,-16.255,-223.694,-18.989,2.746,-14.849,73.581,-24.166,-11.349,-19.264,-12.704,-128.501,-8.841,19.878,47.901,-68.398,-13.855,14.659,6.487,10.619,-6.685,3.774,2.26,0.828,45.556,-21.235,-4.46,-24.415,-114.008
3.943616700009443,4.096,-10.604,-220.909,-10.26,5.817,-15.347,51.478,-12.359,-7.751,-20.27,-6.544,-130.934,-6.271,10.636,43.243,-64.743,-21.014,8.496,4.431,15.219,-7.191,-0.328,0.209,-8.907,59.343,-19.676,-4.968,-20.292,-123.115
3.943682700046338,14.85,-1.884,-213.515,-6.152,11.959,-6.622,72.944,-8.76,-8.768,-13.589,-0.902,-124.655,-2.679,24.97,46.786,-61.092,-17.919,8.488,10.062,21.351,5.112,3.771,4.307,-7.361,63.382,-14.021,1.697,-15.661,-118.381
3.9585771000711247,17.909,1.704,-191.273,-6.146,15.02,6.192,70.822,-1.067,-4.149,-1.28,5.246,-114.796,3.984,38.778,61.596,-50.273,-5.606,21.799,19.786,29.527,15.865,18.112,8.401,5.454,52.56,-6.835,10.917,-20.256,-97.258
3.9586412000935525,23.015,7.338,-185.446,-6.652,17.055,6.186,103.539,-4.652,3.028,2.819,12.926,-113.145,11.665,32.591,70.243,-38.952,-0.477,33.048,23.352,36.157,13.8,20.655,10.442,5.449,52.508,-4.267,13.468,-18.187,-92.038
3.9736099001020193,30.164,16.04,-208.827,3.601,19.087,5.667,129.05,-12.844,-1.074,1.792,12.913,-114.569,12.165,28.46,69.149,-44.036,-6.112,27.892,22.816,32.535,13.274,14.487,12.993,-2.241,60.652,-3.238,12.43,-2.799,-108.34
3.973666000063531,24.498,13.974,-217.327,9.233,16.506,5.662,96.646,-11.295,-10.807,-3.333,5.728,-120.089,1.907,29.969,65.493,-52.189,-12.253,15.569,20.232,25.33,13.773,13.448,6.32,-4.288,50.346,-3.747,8.831,-4.333,-111.817
3.9886967000784352,17.302,6.276,-203.79,-7.17,13.928,-1.516,64.274,-15.382,-13.357,-10.502,3.673,-127.142,-3.218,24.303,63.379,-49.063,-11.729,14.529,16.113,23.768,6.587,13.434,0.678,-1.21,34.414,-8.866,5.236,-22.26,-100.947
3.988764900015667,25.481,11.905,-201.537,-10.749,16.988,2.071,96.997,-14.342,-4.635,-4.344,9.304,-121.379,5.495,28.89,67.414,-44.915,-1.471,25.785,21.22,29.38,7.605,14.446,9.899,6.988,42.576,-5.271,10.354,-15.065,-102.383
4.003683699993417,28.529,16.504,-209.532,9.242,17.483,8.217,88.191,1.042,3.055,3.858,9.295,-116.135,11.124,38.082,68.371,-46.407,2.117,29.345,23.761,32.936,11.696,14.943,12.451,9.543,60.977,-0.143,11.368,2.368,-107.916
4.0037476000143215,13.132,6.753,-211.372,1.548,8.244,-6.136,84.004,-5.619,-7.195,-11.516,-2.497,-130.363,0.355,26.774,57.032,-55.07,-10.181,15.484,11.441,19.583,-0.612,6.219,0.655,-2.25,59.379,-12.95,0.598,-7.88,-109.857
4.019758700043894,11.069,4.185,-206.037,-18.946,4.65,-13.814,116.708,-26.618,-16.921,-20.726,-6.081,-137.917,-8.355,16.501,49.802,-62.187,-16.831,3.173,7.331,9.318,-5.222,4.676,2.192,-1.223,47.536,-16.524,0.085,-16.069,-115.895
4.019824100076221,30.014,21.087,-191.487,1.053,16.428,4.643,103.271,-14.809,-4.097,-0.725,9.807,-121.898,3.437,26.73,62.56,-50.854,-7.08,12.391,20.644,24.678,11.69,19.016,14.997,14.66,53.124,2.961,13.405,2.39,-105.021
4.033715300029144,37.668,30.288,-185.148,24.106,25.121,15.909,70.893,5.186,8.715,12.084,21.58,-109.993,18.29,34.901,74.281,-34.922,-0.925,29.285,27.796,38.997,20.387,24.632,15.494,13.62,71.002,10.642,19.027,14.683,-78.276
4.033783800085075,27.897,21.548,-201.356,11.786,17.411,6.671,103.61,-5.065,-0.003,-1.249,11.825,-117.568,11.1,35.89,67.547,-43.084,-5.535,26.694,20.083,27.688,9.096,14.362,6.77,1.311,68.882,-2.176,9.275,3.91,-82.808
4.048765000072308,17.623,9.743,-209.864,-1.033,6.123,-3.069,121.437,-19.405,-12.298,-13.543,-0.995,-128.208,-4.281,33.293,56.208,-58.41,-13.214,9.761,7.768,13.315,-4.745,2.564,-0.409,-3.301,43.71,-14.982,-3.542,-8.902,-105.267
4.048841900075786,15.044,4.611,-194.285,1.529,5.605,-4.091,89.04,-11.188,-7.163,-7.381,-0.994,-128.593,-0.178,26.599,56.664,-56.302,-15.25,9.751,5.199,13.302,-6.278,0.0,-2.97,-2.273,37.518,-21.114,-3.027,-11.967,-91.842
4.063720100093633,23.738,11.266,-182.82,8.188,13.284,4.623,91.512,6.754,6.677,3.897,6.692,-120.779,14.167,31.184,66.342,-47.025,-3.452,25.111,20.05,24.56,7.049,13.832,8.303,9.513,63.608,-8.798,11.833,-1.709,-71.258
4.063786300015636,30.886,22.013,-181.613,15.352,17.369,11.79,109.864,10.845,7.695,3.893,11.808,-118.609,12.103,39.349,73.447,-44.928,3.212,24.573,29.252,30.683,14.214,25.602,18.541,20.262,76.865,7.605,16.432,11.101,-85.531
4.078797900001518,21.634,14.307,-182.456,7.652,10.692,-0.005,117.439,-4.535,-5.633,-9.431,3.599,-129.249,-1.229,28.552,65.689,-53.593,-12.673,7.643,12.829,15.795,0.367,10.719,7.764,9.995,59.882,-4.698,2.071,5.454,-103.889
4.078862900030799,4.706,-6.2,-193.032,-11.824,-2.127,-20.497,121.42,-22.973,-16.386,-23.766,-13.31,-144.489,-13.011,12.642,45.644,-68.396,-27.517,3.024,-6.652,-3.176,-15.514,-10.296,-11.199,-11.019,48.039,-29.797,-11.251,-8.896,-114.031
4.0937510000076145,-5.032,-15.928,-209.745,-13.349,-8.785,-25.599,89.023,-23.463,-18.419,-28.866,-20.469,-151.005,-19.658,12.117,34.327,-76.525,-24.416,7.632,-10.231,-4.198,-18.573,-11.823,-14.774,-21.767,53.626,-35.402,-15.85,-18.108,-124.163
4.108865100075491,-0.929,-12.326,-206.973,-2.064,-5.702,-13.791,56.659,-12.168,-11.228,-22.689,-12.252,-143.681,-16.052,21.838,41.978,-70.813,-21.318,4.038,-4.586,2.467,-9.845,-3.102,-2.976,-14.573,56.134,-25.121,-11.224,-22.701,-107.133
4.110595100093633,12.904,-3.092,-194.471,-1.55,1.988,-4.555,89.39,-8.57,-2.508,-10.883,-3.531,-130.218,-4.253,31.55,56.28,-59.471,-20.784,3.01,3.104,6.05,2.46,4.074,6.761,1.323,46.856,-13.312,1.595,-18.068,-79.873
4.123853800003417,19.039,4.084,-194.789,-3.598,8.646,-6.088,117.477,-15.222,-5.579,-7.798,-0.965,-124.964,-1.175,32.031,61.859,-53.776,-15.128,11.716,5.15,10.655,5.019,8.68,3.168,7.982,35.026,-7.664,5.692,-9.853,-93.626
4.123922500060871,21.582,6.641,-191.008,2.041,10.687,-4.032,100.453,-14.694,-10.184,-8.303,4.159,-120.741,1.388,30.974,68.97,-48.599,-8.453,19.901,9.755,20.891,6.039,12.77,3.677,9.511,42.164,-5.607,5.686,-3.695,-108.389
