Timestamp,Cz,Fz,Fp1,F3,C1,C3,T7,C5,CP5,CP3,CP1,P1,P3,O1,CPz,Pz,Oz,O2,P4,P2,CP2,CP4,CP6,C6,T8,C4,C2,F4,Fp2
0.0,-48.307,-0.656,-581.165,61.288,-13.378,10.231,-60.773,27.805,-0.936,5.308,3.055,24.906,3.806,25.673,63.704,-15.529,17.354,-26.406,48.231,23.224,-2.015,10.166,31.922,41.632,40.415,25.605,16.416,-29.948,-242.571
6.880005821585655e-05,-40.061,4.981,-581.609,62.763,-3.63,15.343,-32.535,27.777,4.7,12.475,12.274,28.98,9.438,28.721,64.665,-8.341,17.849,-31.503,57.404,34.984,9.77,20.402,41.624,53.373,39.35,36.338,26.646,-21.209,-243.866
0.01502649998292327,-32.849,6.512,-577.441,69.873,-5.164,12.767,-15.596,22.626,4.695,15.536,16.872,26.901,11.99,28.18,70.235,-1.161,22.441,-29.934,63.495,43.146,11.809,28.066,47.73,50.246,48.02,44.499,29.693,-7.868,-237.987
0.015093500027433038,-30.767,6.506,-566.105,70.315,-5.671,11.729,-34.024,20.555,2.641,12.447,15.831,29.436,13.515,41.472,69.14,1.914,28.567,-25.294,69.579,43.615,12.31,27.014,47.17,49.171,61.292,46.503,25.565,-5.299,-236.724
0.03008669998962432,-32.785,7.524,-555.805,59.486,-0.03,15.816,-56.019,22.071,5.2,15.508,17.864,31.968,16.575,56.287,71.633,4.474,34.174,-30.391,71.558,45.621,17.933,25.45,50.197,61.417,61.743,50.043,25.54,-12.978,-209.335
0.030151200015097857,-33.777,3.418,-571.643,49.181,1.507,16.312,-63.135,19.487,4.683,17.542,18.871,26.813,17.071,47.522,80.27,6.006,32.602,-35.484,67.901,47.112,17.403,27.986,51.171,65.454,54.509,48.968,26.026,-23.211,-193.244
0.045095000066794455,-34.256,-1.708,-590.027,50.156,-0.544,13.735,-63.585,17.419,2.116,12.914,14.754,22.175,17.054,36.716,77.116,3.439,27.447,-33.912,67.32,44.503,11.238,26.421,49.583,61.803,61.114,44.821,24.976,-20.114,-225.326
0.04515899997204542,-37.808,-3.756,-589.949,55.741,-0.543,10.647,-66.595,19.45,2.627,8.802,10.128,14.469,11.401,37.703,61.67,-5.274,24.858,-33.365,60.593,38.311,5.591,19.222,46.46,55.081,63.614,40.165,19.828,-10.872,-257.376
0.060127099975943565,-36.233,-1.703,-590.384,57.223,5.093,13.198,-56.794,23.529,1.599,10.843,12.68,9.331,8.316,38.69,63.145,-6.806,29.444,-28.721,54.897,37.76,6.61,16.642,43.34,46.829,55.354,36.027,15.197,-14.96,-247.385
0.060191099997609854,-29.537,3.934,-579.035,55.116,10.211,21.894,-26.511,29.141,6.209,18.004,18.815,13.933,19.578,39.676,78.964,3.96,35.05,-22.033,64.064,46.432,12.239,21.236,44.321,46.27,57.348,37.015,18.768,-19.556,-225.621
0.09014290000777692,-33.093,1.369,-553.865,48.401,-0.046,18.798,-18.288,28.087,12.35,17.474,15.722,8.795,20.071,34.514,76.835,2.931,28.867,-31.744,62.975,41.775,6.079,19.165,41.715,48.785,53.192,36.466,16.7,-24.147,-215.149
0.09020820003934205,-43.306,-7.342,-559.971,44.254,-10.804,6.996,-45.934,21.912,5.165,7.722,6.485,-8.632,4.17,24.233,61.389,-9.879,16.543,-43.496,44.981,24.827,-3.661,9.925,31.427,42.588,29.06,26.696,6.437,-38.98,-217.495
0.09190380002837628,-39.677,-2.212,-587.076,53.944,-2.596,9.038,-55.622,22.402,-2.524,7.202,7.503,-10.16,7.752,29.332,61.328,-6.283,19.088,-38.329,48.523,30.437,4.027,11.452,32.933,40.497,28.519,26.157,12.066,-37.404,-235.209
0.09195659996476024,-25.293,13.672,-579.316,70.284,7.653,19.276,-34.05,27.503,3.626,19.491,18.254,-0.928,21.064,39.036,71.001,10.117,32.389,-31.119,68.454,50.899,15.806,25.785,49.293,51.727,54.106,42.524,29.985,-9.702,-240.609
0.1053310000570491,-21.169,16.732,-560.294,71.75,4.571,17.207,-29.405,23.889,4.134,16.397,18.748,-5.026,14.383,34.386,56.585,9.082,32.356,-35.698,64.799,50.336,15.278,28.32,51.293,57.311,53.027,47.605,31.492,-0.983,-220.388
0.10541119996923953,-31.906,5.445,-571.004,52.211,-1.581,4.894,-48.331,11.57,-9.19,-1.038,5.921,-19.878,0.536,28.204,25.79,-5.784,19.004,-42.322,47.828,37.99,6.554,14.46,35.361,41.372,33.506,31.676,21.214,-19.425,-211.459
0.12021339999046177,-39.047,-2.757,-578.63,37.814,-5.678,-3.307,-59.041,4.386,-15.328,-3.598,1.305,-27.543,-2.026,32.787,22.69,-7.827,17.448,-36.132,47.268,36.928,-0.113,9.835,29.69,30.06,37.571,22.935,18.119,-28.627,-223.542
0.1355481999926269,-34.909,-1.218,-565.244,44.949,-6.697,-2.792,-66.154,5.918,-11.727,4.602,11.037,-23.417,6.173,39.926,45.721,1.914,29.726,-24.313,55.418,42.014,3.473,19.046,37.857,45.399,42.657,33.158,21.687,-26.037,-225.88
0.13561700005084276,-26.165,3.907,-558.531,56.687,-0.03,6.945,-72.236,10.011,-6.592,7.672,17.174,-14.684,15.388,46.034,54.897,7.548,35.331,-21.727,61.51,48.632,12.179,24.15,43.455,60.723,38.003,42.346,26.789,-22.425,-220.532
0.13565940002445132,-18.966,10.563,-565.657,60.728,9.191,16.672,-52.184,16.149,1.099,13.299,20.23,-11.595,17.422,45.988,51.768,9.077,32.735,-20.681,66.06,54.219,14.216,25.151,46.997,55.026,55.896,45.89,32.909,-10.619,-225.434
0.15092420007567853,-22.021,6.966,-575.85,53.495,9.182,14.094,-30.102,15.62,4.172,17.385,19.186,-15.17,15.355,37.745,53.254,9.068,32.702,-17.587,62.407,46.992,9.591,24.613,45.413,48.311,67.623,44.82,30.827,-8.559,-234.43
0.15099100000225008,-36.344,-11.996,-581.934,35.511,1.488,2.809,-45.954,6.895,-1.467,7.121,4.822,-24.376,8.68,30.023,46.028,-1.187,28.058,-24.229,52.099,33.625,1.385,14.343,38.196,46.214,41.94,34.016,19.013,-33.142,-232.659
0.1652094000019133,-43.992,-24.28,-581.865,27.279,-2.099,-1.293,-65.375,7.401,-4.028,-0.058,-3.38,-31.524,1.499,30.505,34.711,-6.309,23.42,-27.791,47.436,31.03,-5.277,7.668,35.596,42.069,31.652,25.273,12.334,-48.478,-221.155
0.16526859998703003,-42.924,-21.694,-588.967,31.35,-4.147,-0.779,-57.625,12.004,-5.048,3.016,4.82,-29.443,4.571,34.061,34.164,2.406,28.007,-20.078,47.388,35.61,-2.198,12.271,36.073,39.978,48.527,27.81,12.322,-35.622,-228.107
0.21031310001853853,-49.028,-25.771,-596.575,26.195,-8.241,-8.975,-56.543,3.283,-12.215,-2.111,3.791,-29.414,7.641,38.125,35.667,4.453,32.077,-16.985,47.341,35.062,-0.658,11.234,30.914,38.401,41.818,27.269,6.674,-30.463,-254.006
0.21038200007751584,-54.615,-35.991,-587.269,19.509,-11.819,-14.089,-65.196,-2.868,-17.326,-9.793,-5.947,-37.582,-1.588,39.624,34.094,-4.773,29.996,-13.894,45.244,29.391,-7.83,4.563,27.296,29.653,24.358,19.045,-1.017,-44.777,-257.338
0.21042640006635338,-61.732,-42.103,-588.219,19.49,-15.393,-15.1,-64.106,-2.865,-22.944,-12.345,-11.064,-46.253,-7.735,31.9,26.888,-11.428,24.843,-10.806,33.416,21.165,-19.093,-3.638,22.146,18.865,20.235,6.731,-10.237,-59.077,-245.81
0.2264771000482142,-71.917,-48.721,-606.074,7.687,-22.55,-23.794,-69.165,-12.084,-32.143,-20.017,-18.225,-50.305,-11.313,24.183,15.078,-18.589,18.67,-23.603,23.649,12.947,-26.246,-11.832,14.952,14.748,15.604,-1.473,-18.936,-61.067,-250.687
0.2283801999874413,-56.476,-39.451,-595.222,6.143,-18.941,-18.647,-71.145,-6.949,-28.012,-18.46,-14.621,-44.62,-9.765,29.794,23.772,-18.058,21.213,-25.629,37.458,20.618,-14.437,2.013,26.72,28.566,29.933,15.435,-6.622,-41.026,-244.801
0.2416919000679627,-29.267,-12.771,-572.085,30.215,-6.627,-0.185,-58.266,8.94,-16.201,-4.609,2.812,-31.767,2.028,34.375,45.778,-0.621,28.364,-9.721,54.326,36.479,5.558,24.04,43.599,51.079,62.179,41.035,14.901,-17.931,-219.966
0.2417612000135705,-34.873,-8.66,-580.222,40.431,-9.182,-4.796,-61.794,0.222,-21.308,-5.629,4.859,-28.662,4.075,30.243,47.781,6.551,26.799,-12.273,52.735,37.468,5.552,19.405,40.482,54.101,59.555,40.481,13.35,-19.962,-216.16
0.25536169996485114,-40.474,-17.36,-580.154,40.39,-11.222,-10.939,-64.294,-5.926,-21.799,-8.185,2.805,-27.608,0.997,36.36,48.246,2.959,29.334,-17.384,54.219,34.869,2.985,13.75,39.417,48.924,46.175,37.367,9.75,-25.578,-223.628
0.25542719999793917,-19.941,-6.072,-552.422,49.572,3.134,6.491,-44.762,12.01,-8.457,7.192,13.56,-15.798,13.292,46.57,65.616,11.665,38.526,-3.534,61.85,42.518,13.228,28.081,49.111,54.511,58.937,48.6,21.523,-16.331,-223.405
0.27041670004837215,-28.118,-8.115,-554.431,36.202,-0.455,2.898,-54.451,9.949,-12.547,4.111,6.375,-20.905,11.742,38.839,60.939,7.555,28.241,-6.092,48.468,34.791,4.506,20.368,38.816,44.722,52.73,36.769,14.842,-22.974,-233.427
0.27048499998636544,-54.73,-29.112,-586.152,17.723,-20.435,-18.109,-74.889,-5.942,-22.269,-13.824,-11.05,-38.815,-6.201,31.115,39.874,-13.97,15.405,-19.406,32.025,17.338,-15.479,-1.169,22.895,24.185,29.624,16.752,-0.03,-37.296,-240.878
0.2854301000479609,-42.379,-20.886,-598.886,38.197,-12.73,-7.333,-45.1,4.822,-11.488,-6.125,-2.33,-33.653,0.978,37.232,45.982,-7.296,29.222,-9.141,40.19,23.981,-11.365,4.468,28.508,30.821,36.254,25.957,10.216,-27.013,-229.879
0.3153910000110045,-43.627,-22.421,-601.495,36.941,-14.038,-8.584,-46.404,3.797,-11.657,-6.58,-3.013,-34.56,0.921,36.374,44.554,-8.149,28.251,-9.993,39.218,22.839,-12.673,3.727,27.708,30.533,32.664,25.214,8.849,-28.66,-230.65
0.31546469999011606,-44.875,-23.955,-604.103,35.684,-15.346,-9.836,-47.708,2.772,-11.827,-7.035,-3.696,-35.467,0.863,35.516,43.125,-9.002,27.28,-10.846,38.246,21.698,-13.981,2.987,26.908,30.245,29.074,24.471,7.482,-30.308,-231.422
0.31550410005729645,-46.122,-25.49,-606.712,34.428,-16.653,-11.087,-49.013,1.747,-11.996,-7.489,-4.378,-36.374,0.806,34.658,41.697,-9.855,26.31,-11.699,37.274,20.557,-15.289,2.246,26.108,29.957,25.483,23.728,6.114,-31.956,-232.193
0.3155432000057772,-47.37,-27.024,-609.321,33.171,-17.961,-12.339,-50.317,0.722,-12.166,-7.944,-5.061,-37.281,0.749,33.8,40.269,-10.708,25.339,-12.552,36.302,19.416,-16.597,1.506,25.308,29.669,21.893,22.985,4.747,-33.604,-232.965
0.31558150006458163,-48.617,-28.559,-611.93,31.915,-19.269,-13.59,-51.621,-0.304,-12.335,-8.399,-5.744,-38.188,0.692,32.942,38.841,-11.561,24.368,-13.405,35.33,18.275,-17.905,0.765,24.507,29.381,18.303,22.242,3.38,-35.251,-233.736
0.3156193000031635,-49.865,-30.094,-614.539,30.658,-20.577,-14.842,-52.925,-1.329,-12.505,-8.854,-6.427,-39.095,0.635,32.084,37.413,-12.414,23.397,-14.258,34.357,17.134,-19.213,0.025,23.707,29.093,14.713,21.499,2.013,-36.899,-234.507
0.3156570000573993,-51.113,-31.628,-617.148,29.401,-21.885,-16.093,-54.23,-2.354,-12.674,-9.308,-7.11,-40.002,0.578,31.226,35.984,-13.267,22.426,-15.11,33.385,15.993,-20.521,-0.716,22.907,28.805,11.123,20.757,0.645,-38.547,-235.279
0.31569439999293536,-52.36,-33.163,-619.756,28.145,-23.192,-17.345,-55.534,-3.379,-12.844,-9.763,-7.793,-40.909,0.521,30.368,34.556,-14.12,21.455,-15.963,32.413,14.852,-21.829,-1.456,22.107,28.517,7.533,20.014,-0.722,-40.195,-236.05
0.3173929000040516,-53.608,-34.697,-622.365,26.888,-24.5,-18.596,-56.838,-4.404,-13.013,-10.218,-8.475,-41.816,0.464,29.51,33.128,-14.973,20.484,-16.816,31.441,13.71,-23.137,-2.197,21.307,28.229,3.942,19.271,-2.089,-41.842,-236.822
0.330811099964194,-43.308,-26.978,-623.28,46.841,-13.717,-4.233,-45.51,14.043,0.832,-0.474,3.828,-26.405,14.296,37.165,37.193,-1.638,23.537,-28.582,39.094,28.041,-16.966,5.49,25.384,35.373,15.722,27.448,4.06,-23.87,-243.245
0.33086970006115735,-47.876,-34.123,-618.046,38.598,-13.191,-4.229,-48.539,14.029,-1.73,-0.985,1.263,-25.354,9.671,37.64,25.885,-4.198,21.465,-28.041,34.444,25.452,-17.461,0.361,24.847,22.53,28.513,19.736,-5.165,-26.408,-243.514
0.3309105000225827,-69.345,-58.68,-622.551,6.284,-34.183,-25.742,-66.421,-9.039,-17.098,-18.403,-18.718,-47.87,-7.757,17.11,3.83,-25.711,8.123,-34.161,18.016,3.909,-37.424,-14.496,12.526,6.626,7.48,0.249,-31.288,-58.656,-234.049
0.33094999997410923,-64.664,-57.084,-619.367,11.913,-31.587,-20.593,-56.108,-0.833,-9.396,-16.848,-14.601,-45.773,-0.577,20.167,11.511,-21.586,11.701,-34.127,21.584,8.004,-36.362,-11.92,12.002,18.402,6.961,3.835,-28.695,-58.598,-232.79
0.34545759996399283,-36.935,-29.363,-600.304,44.689,-7.989,8.629,-27.875,26.833,11.618,5.711,7.443,-21.137,21.453,47.811,35.066,3.538,29.108,-9.502,41.542,30.025,-11.222,6.023,30.945,41.437,39.741,28.934,-2.538,-25.752,-234.094
0.3594503999920562,-32.8,-20.624,-586.896,52.841,-6.444,8.621,-22.724,23.22,6.995,5.193,5.386,-20.091,19.894,44.177,35.543,3.535,32.153,0.241,44.575,27.946,-9.674,10.115,35.012,43.958,42.775,38.639,1.563,-17.017,-220.54
0.3595089999726042,-50.698,-39.047,-592.969,20.513,-19.246,-16.491,-44.219,2.192,-14.016,-18.379,-13.062,-41.076,-3.692,20.055,20.651,-16.961,21.874,-22.3,28.136,9.987,-27.595,-1.678,18.584,28.032,19.166,23.743,-12.271,-45.689,-212.635
0.3610855999868363,-54.746,-46.692,-605.184,10.246,-20.251,-20.573,-63.642,-2.421,-21.174,-23.483,-15.098,-46.67,-12.397,19.01,15.507,-20.53,16.729,-28.426,20.936,6.391,-28.08,-5.262,12.417,21.344,17.098,12.961,-14.821,-46.668,-227.279
0.3745211000787094,-47.006,-38.961,-611.239,29.191,-17.669,-10.306,-63.066,4.754,-16.542,-14.238,-8.936,-37.402,-2.651,26.676,17.541,-9.751,21.323,-15.077,28.6,13.045,-21.904,-1.671,20.089,29.007,21.692,20.633,-10.195,-29.203,-242.933
0.3896449999883771,-44.91,-36.873,-610.115,26.088,-16.115,-8.759,-54.806,10.897,-10.378,-9.613,-6.877,-32.241,2.475,26.137,22.646,-6.668,27.45,-18.649,32.669,19.692,-21.882,0.892,25.705,33.589,18.084,26.248,-8.136,-36.346,-243.203
0.38970449997577816,-40.767,-31.2,-598.234,24.013,-14.049,-3.115,-52.19,12.935,-5.245,-5.505,-2.772,-30.672,1.96,24.061,33.382,-5.636,22.812,-31.438,33.149,21.209,-16.225,5.502,25.679,35.605,28.312,26.221,-4.029,-45.531,-222.98
0.4045691000064835,-37.652,-20.923,-586.365,40.895,-15.572,1.499,-59.822,6.262,-11.9,-8.061,-4.306,-35.252,-3.165,11.742,32.836,-10.754,4.346,-32.431,29.53,11.966,-19.283,1.91,17.456,33.008,30.845,25.683,-5.562,-39.338,-198.166
0.4046337000327185,-42.225,-23.464,-588.853,38.805,-18.63,-8.236,-70.521,-2.453,-19.06,-16.762,-12.499,-46.488,-11.871,3.021,25.119,-24.575,-2.319,-26.763,18.742,2.22,-31.046,-8.85,11.291,23.241,14.421,21.559,-10.167,-32.126,-207.702
0.41954430006444454,-32.449,-14.219,-583.653,34.667,-12.464,-4.13,-60.204,5.234,-5.721,-5.987,-2.24,-40.293,-3.15,21.973,38.414,-15.329,16.127,-17.515,23.846,14.513,-20.769,0.893,24.088,31.414,25.677,29.222,3.675,-17.237,-229.011
0.41960060002747923,-11.412,13.46,-560.016,58.199,-0.669,17.391,-36.066,23.159,8.117,10.413,16.717,-22.835,13.247,36.808,58.867,7.228,28.406,-11.862,45.339,29.356,-1.793,18.823,36.359,54.437,49.73,48.148,23.139,-2.363,-204.703
0.43481240002438426,-12.937,13.447,-553.308,59.678,-0.156,16.862,-42.177,24.161,-0.6,5.791,10.553,-29.984,8.623,21.915,53.686,-2.514,19.156,-17.998,44.269,23.179,-5.89,13.168,29.663,50.284,38.409,47.075,19.53,-8.508,-179.396
0.43492030003108084,-25.732,-2.448,-569.661,41.175,-9.377,6.086,-61.09,14.403,-7.772,-2.411,-2.778,-44.299,-1.632,15.745,42.873,-13.269,13.501,-24.127,31.417,18.033,-14.081,7.52,26.047,35.377,25.051,36.782,12.338,-11.573,-203.295
0.4496770000550896,-17.51,9.85,-571.141,59.064,-10.904,14.277,-47.197,22.585,0.945,5.276,5.934,-35.545,7.079,33.66,52.564,4.162,22.709,-18.468,41.632,27.236,-4.845,20.832,35.755,49.174,41.42,47.504,21.035,-0.291,-208.727
0.44974970002658665,-5.709,22.647,-560.323,80.01,-6.283,17.849,-26.145,32.809,5.555,9.369,12.588,-28.85,16.806,44.385,63.27,9.793,31.396,-8.715,52.861,31.82,0.283,24.398,39.817,62.957,49.063,55.653,27.162,-2.34,-177.78
0.4649541999679059,-9.289,12.891,-562.837,60.975,-6.277,8.097,-30.217,25.091,3.5,3.212,7.453,-35.993,13.203,38.705,61.158,1.587,33.414,-9.731,43.074,30.251,-5.353,17.201,32.605,52.648,34.669,46.888,25.085,-10.022,-183.237
0.46502530004363507,-15.428,4.169,-566.885,43.495,-7.295,7.577,-42.995,16.869,0.935,-1.402,5.908,-38.519,9.091,28.42,59.047,4.659,29.282,-18.431,34.322,26.634,-8.421,15.647,25.913,43.373,26.437,42.231,20.45,-12.574,-206.108
0.47955280006863177,-19.511,-5.569,-574.002,40.89,-8.824,5.008,-59.346,12.242,-5.726,-2.425,4.366,-41.042,11.131,19.17,56.939,1.58,21.568,-17.9,33.776,18.411,-10.974,10.508,26.399,40.769,31.022,39.627,13.257,-24.857,-208.975
0.49458200007211417,-23.59,-16.834,-601.605,33.165,-13.426,-1.145,-67.996,7.619,-6.745,0.651,1.287,-44.587,13.169,20.176,56.882,-2.007,19.497,-11.222,33.229,17.368,-14.55,4.862,30.471,36.629,33.04,33.439,10.682,-29.443,-226.697
0.4962035999633372,-27.152,-20.916,-614.836,32.619,-15.462,1.93,-59.218,11.197,0.947,1.163,1.798,-42.493,10.595,28.352,57.338,6.192,20.502,-18.383,32.172,17.35,-17.609,4.857,27.879,30.445,28.908,28.795,8.11,-26.852,-242.352
0.49624989996664226,-34.81,-28.58,-592.192,35.66,-18.008,-1.146,-59.672,10.674,-4.177,-9.085,-5.376,-53.721,0.338,28.324,51.133,-0.987,16.383,-30.66,27.016,5.038,-24.764,-1.295,21.703,24.267,21.707,22.106,-5.731,-44.756,-227.253
0.5096770999953151,-37.849,-30.6,-580.329,32.551,-23.113,-10.366,-76.006,0.929,-14.932,-17.272,-12.543,-66.988,-7.347,25.222,50.569,-7.646,13.806,-26.531,24.94,2.983,-25.763,-1.806,24.243,30.39,16.05,21.572,-9.311,-52.908,-223.952
0.5097391000017524,-30.126,-16.737,-593.069,34.568,-24.115,-7.794,-81.053,1.953,-13.38,-13.157,-8.944,-59.748,-4.266,27.758,59.228,5.17,13.792,-24.455,28.501,11.177,-18.053,7.417,27.293,39.581,12.96,30.772,1.969,-34.924,-230.9
0.5246535000624135,-29.584,-20.819,-595.549,33.508,-22.554,-5.737,-73.799,6.049,-10.805,-10.582,-7.398,-56.615,-1.7,26.194,55.07,6.189,8.143,-38.263,25.911,6.043,-21.621,1.774,20.093,26.734,14.997,25.106,0.942,-34.889,-220.423
0.5396923000225797,-33.653,-36.168,-592.905,22.204,-20.994,-7.781,-56.819,5.019,-10.794,-9.547,-7.903,-62.193,1.376,21.044,48.867,5.158,8.647,-41.811,27.422,5.525,-26.21,-3.35,17.512,14.412,19.08,14.322,-8.792,-44.076,-229.936
0.5397549000335857,-32.082,-32.545,-598.459,18.596,-23.535,-1.625,-36.783,9.624,-5.66,-4.927,-4.309,-53.422,9.059,20.511,50.868,20.01,15.298,-28.962,35.592,14.229,-20.036,3.825,23.13,25.156,13.426,17.894,-10.32,-41.982,-254.297
0.5548400999978185,-41.784,-41.734,-596.836,18.577,-35.294,-6.746,-41.869,7.566,-11.802,-13.119,-13.014,-54.906,1.365,13.318,31.861,15.379,8.11,-33.543,22.748,1.407,-30.263,-7.962,12.86,18.471,-0.42,8.655,-16.97,-56.285,-247.895
0.5567221000092104,-51.988,-58.086,-585.993,22.145,-37.821,-19.035,-59.246,-1.664,-20.5,-22.327,-23.247,-69.195,-12.981,10.743,11.85,4.605,0.418,-42.219,7.357,-10.89,-44.065,-20.761,0.552,1.546,-2.469,-6.723,-25.15,-71.086,-227.155
0.5698626000666991,-34.518,-37.024,-576.698,37.492,-21.389,-3.647,-55.6,13.195,-5.11,-5.911,-8.879,-51.195,4.451,32.249,36.941,28.167,20.397,-22.197,24.255,7.051,-25.065,-0.761,15.408,22.549,12.39,9.165,-11.293,-56.67,-214.12
0.5699262999696657,-15.528,-14.957,-570.486,46.164,-13.683,16.337,-47.86,33.674,11.289,14.587,7.524,-21.43,26.475,47.074,67.13,53.754,36.258,-3.732,45.236,21.389,-4.035,20.757,33.836,48.655,30.821,33.234,10.748,-42.781,-208.271
0.5847546000732109,-25.246,-23.652,-579.137,39.97,-22.379,3.0,-49.349,18.784,-4.092,3.302,-1.705,-28.069,10.567,30.633,57.329,49.09,21.365,-16.023,38.53,11.634,-12.741,15.613,27.655,36.311,36.938,29.615,12.274,-41.714,-222.919
0.6000835000304505,-38.541,-28.751,-593.927,31.733,-29.016,-13.396,-50.324,-8.388,-23.043,-16.681,-15.024,-41.873,-7.374,18.307,39.341,40.331,10.073,-25.741,23.635,-1.186,-23.486,2.79,13.795,20.393,22.556,15.753,3.04,-43.721,-233.455
0.600141100003384,-32.867,-24.112,-584.112,18.893,-27.963,-3.649,-62.057,-3.768,-14.823,-8.468,-8.861,-30.56,4.416,24.949,43.912,46.439,18.26,-18.543,24.124,-1.697,-18.852,-0.287,14.293,23.446,11.775,13.176,3.037,-52.387,-210.168
0.6147579000098631,-21.051,-18.964,-564.572,17.338,-18.713,10.187,-78.901,15.703,-2.0,7.935,3.443,-13.624,16.707,29.022,55.652,62.274,21.316,-17.5,34.346,9.063,-13.198,7.91,23.5,33.669,24.059,18.286,8.67,-50.797,-196.637
0.6148155999835581,-24.104,-12.798,-570.155,32.689,-13.571,8.127,-73.699,11.077,-8.658,2.291,0.878,-10.536,11.055,28.481,54.059,68.871,19.757,-19.532,37.385,13.153,-14.209,10.976,27.063,38.758,30.695,22.366,9.173,-40.5,-215.909
0.6298962000291795,-36.888,-17.908,-585.979,33.169,-23.292,0.947,-69.015,-5.841,-17.359,-8.469,-9.881,-12.063,4.384,27.428,42.734,61.63,22.811,-18.487,30.175,1.869,-20.855,0.719,20.376,31.547,21.443,17.22,8.139,-48.144,-231.062
0.629959600046277,-39.925,-21.989,-592.053,24.427,-27.879,-2.64,-89.438,-3.786,-13.755,-7.949,-12.945,-11.538,0.281,22.277,42.179,60.032,17.666,-23.592,25.535,-5.305,-24.42,-3.892,12.671,19.22,21.934,13.617,7.619,-51.682,-235.954
0.6448711999692023,-34.249,-12.233,-595.047,29.013,-26.827,-6.224,-104.718,0.829,-18.352,-11.527,-13.444,-13.576,-6.379,18.157,48.285,62.021,7.402,-28.692,21.411,-8.374,-23.884,0.21,13.683,15.103,22.936,15.653,4.538,-37.799,-230.595
0.6449368000030518,-29.604,-9.147,-581.132,31.033,-31.923,-6.73,-77.973,-5.832,-26.019,-13.565,-14.968,-11.513,-5.86,20.7,51.822,60.934,12.517,-25.077,21.389,-10.927,-20.274,1.747,20.842,21.747,20.864,16.662,8.119,-33.662,-197.577
0.6598449000157416,-21.378,-5.551,-550.325,34.076,-27.28,5.06,-45.107,4.932,-9.599,0.281,-3.682,7.454,11.564,30.413,65.091,77.779,29.923,-17.367,38.274,0.867,-7.958,11.479,29.018,38.12,40.823,25.866,17.845,-34.141,-175.35
0.6599064000183716,-20.844,1.626,-548.238,39.165,-19.568,14.789,-48.648,24.395,5.78,8.99,4.006,22.303,20.774,41.654,74.247,91.534,38.603,-10.177,43.871,7.014,-6.925,15.054,27.452,47.303,48.467,34.55,13.216,-32.57,-202.839
0.6748323000501841,-35.68,-12.72,-578.94,23.757,-30.307,6.065,-78.314,17.198,-9.083,-2.802,-10.342,13.572,6.921,38.026,57.779,74.536,29.855,-13.753,21.286,-12.461,-25.362,-2.38,14.104,27.788,18.705,18.634,-5.24,-45.857,-232.35
0.6898812999716029,-38.718,-25.002,-591.681,15.536,-33.351,0.936,-69.526,9.497,-16.246,-9.971,-18.017,8.435,0.766,23.643,47.475,66.777,17.53,-25.01,12.555,-22.182,-28.922,-10.062,7.43,10.342,9.977,4.783,-11.383,-52.471,-227.507
0.6916908000130206,-24.847,-12.17,-577.257,33.964,-25.12,7.082,-42.817,21.27,-5.983,-5.351,-8.265,19.185,8.963,19.009,57.674,81.055,12.901,-28.571,25.863,-10.889,-16.086,0.194,13.058,22.627,28.922,19.123,-3.687,-40.636,-219.595
0.7049913000082597,-25.847,-11.645,-569.508,38.54,-37.903,1.44,-49.434,18.175,-13.15,-8.931,-14.917,20.191,3.318,17.453,53.005,75.851,10.839,-25.981,25.324,-12.928,-20.168,-0.318,13.557,29.264,28.381,24.739,-0.609,-39.571,-214.252
0.7050580000504851,-41.19,-24.954,-578.672,30.305,-49.136,-12.394,-61.68,3.3,-23.895,-21.73,-32.32,12.998,-8.468,12.825,36.558,65.017,8.267,-29.029,14.541,-25.722,-29.369,-9.54,6.884,12.329,21.693,10.37,-7.781,-49.777,-205.841
0.7210368000669405,-49.346,-28.002,-585.266,30.275,-40.377,-12.894,-61.106,3.809,-19.773,-27.344,-29.726,14.01,-11.533,17.935,33.448,67.513,8.771,-32.074,11.452,-28.77,-28.828,-13.629,5.852,7.706,16.035,6.261,-14.945,-51.777,-214.344
0.7350032000103965,-44.686,-30.536,-575.971,21.023,-37.263,-7.245,-69.754,5.854,-18.728,-17.583,-20.475,21.68,-9.473,27.651,36.488,66.933,14.397,-25.894,13.49,-23.619,-28.287,-11.566,10.969,21.018,7.31,11.89,-11.856,-49.163,-226.425
0.7350685000419617,-32.346,-27.432,-563.612,15.879,-37.738,-2.627,-68.659,6.361,-16.148,-3.22,-16.356,34.979,1.295,30.697,43.624,75.063,23.605,-16.647,25.26,-10.787,-20.574,0.229,19.668,28.682,27.795,20.587,-2.111,-41.43,-213.391
0.7500810000346974,-22.067,-11.523,-562.024,32.769,-27.454,6.597,-58.345,17.625,-4.861,3.955,-5.069,51.85,15.639,38.351,59.974,95.993,34.339,-6.384,41.628,-0.018,-4.672,14.573,29.382,36.85,57.994,35.423,7.113,-27.556,-192.686
0.7501466000685468,-16.41,-5.363,-557.363,34.273,-20.767,18.886,-60.848,24.78,-2.807,8.562,6.207,63.069,21.771,50.608,69.648,102.557,41.99,2.844,47.222,4.08,1.993,18.657,34.988,52.694,54.349,46.147,16.84,-20.356,-185.321
0.7651250000344589,-11.271,-10.481,-555.269,21.943,-24.332,18.354,-51.053,18.608,-3.317,11.115,3.639,65.055,24.31,45.434,67.529,98.356,39.386,-0.745,42.564,4.589,0.966,17.102,31.879,50.08,42.0,47.125,20.921,-25.971,-192.308
0.765186500037089,-12.796,-12.008,-573.157,32.68,-27.894,7.065,-35.121,13.978,-3.313,3.419,-4.561,60.379,19.163,27.458,61.314,92.622,26.539,-14.577,34.837,-3.101,-1.596,12.986,23.65,32.099,39.908,39.393,13.216,-35.167,-209.021
0.7801259000552818,-13.808,-8.409,-577.707,51.09,-23.768,11.669,-49.942,21.136,-7.921,3.928,-1.483,60.831,13.508,33.578,60.228,87.919,24.463,-16.611,33.777,-6.684,-1.595,9.899,22.602,30.018,32.184,32.182,15.252,-28.984,-210.862
0.780192399979569,-4.573,-1.741,-555.612,46.941,-15.035,29.076,-61.675,30.337,-3.814,17.756,9.277,69.992,22.204,53.525,66.828,93.466,35.197,-9.422,36.305,3.569,1.481,9.377,23.092,33.574,27.541,33.686,25.483,-15.122,-198.355
0.7950913000386208,-9.179,-3.789,-556.081,31.525,-20.143,23.411,-52.905,24.671,-0.737,12.103,3.632,63.262,17.571,40.151,55.491,87.225,25.941,-20.171,26.023,-3.607,-6.205,-0.366,10.261,20.733,17.78,26.48,14.699,-27.403,-207.891
0.7951520000351593,-24.027,-10.445,-570.894,25.858,-31.906,9.043,-50.29,16.962,-12.007,-4.303,-11.741,48.341,1.672,14.496,30.332,68.695,7.984,-36.033,15.238,-18.972,-15.933,-7.538,4.103,12.515,4.442,15.183,2.389,-48.38,-216.392
0.8101396000711247,-15.806,4.423,-558.54,37.103,-26.238,16.719,-41.018,26.679,-10.97,2.362,-5.581,57.002,10.892,23.703,29.789,75.286,15.66,-25.238,26.494,-6.658,-5.158,5.789,20.493,25.31,19.294,30.537,15.706,-36.036,-198.757
0.8101955000311136,-11.691,15.177,-555.933,43.726,-23.651,16.19,-36.879,26.652,-4.811,4.921,-0.453,62.581,16.004,34.95,36.932,78.285,19.743,-18.041,28.516,-4.09,-4.129,9.37,20.472,25.285,30.546,36.654,19.277,-22.168,-205.219
0.82523499999661,-31.66,-1.745,-582.529,28.825,-37.459,-1.757,-58.871,9.207,-18.127,-11.99,-19.407,43.05,-5.017,16.984,24.087,52.591,2.817,-39.54,6.459,-29.189,-24.617,-12.157,-0.041,0.669,8.486,8.441,1.327,-35.466,-235.239
0.8253022000426427,-30.091,-4.817,-582.971,25.21,-34.348,5.417,-62.911,15.858,-17.084,-7.88,-17.851,45.057,0.624,16.455,27.649,50.489,6.913,-42.574,5.94,-24.036,-22.031,-14.194,4.058,0.668,4.379,4.846,1.325,-37.992,-221.172
0.8401827000780031,-7.519,9.533,-556.773,42.603,-15.871,27.441,-45.942,33.26,2.913,13.645,9.319,67.553,26.751,37.955,50.675,72.468,26.886,-14.354,30.012,2.628,-1.004,7.85,21.985,31.918,19.744,31.994,18.23,-32.318,-188.163
0.8556332000298426,-9.049,1.326,-560.827,41.536,-16.367,25.876,-46.408,26.055,1.886,13.119,10.334,65.436,23.65,36.38,50.625,70.346,26.859,-10.754,33.056,-1.473,-4.077,11.428,18.377,38.547,14.089,35.035,19.237,-49.192,-191.561
0.8556983000598848,-20.311,-14.044,-582.807,22.539,-26.597,12.018,-44.312,15.27,-8.362,2.348,-6.582,50.514,9.282,21.999,35.717,60.03,18.635,-29.699,19.191,-13.767,-13.807,0.146,8.112,13.405,5.878,20.656,7.434,-57.852,-223.645
0.8557416000403464,-21.827,-14.543,-584.786,15.344,-28.619,5.858,-41.707,13.206,-8.866,-1.753,-9.649,45.34,5.687,24.539,20.825,53.822,16.568,-27.62,14.049,-12.729,-14.305,-4.977,4.518,3.658,3.31,16.024,-0.258,-46.524,-239.303
0.8702312000095844,-24.879,-17.09,-578.054,18.403,-29.615,3.291,-60.108,11.143,-12.956,-7.899,-10.664,41.197,3.632,32.711,10.045,41.985,15.526,-18.883,15.059,-12.716,-17.365,-3.948,4.513,14.925,-5.914,16.521,-3.331,-48.014,-234.965
0.8702940000221133,-18.707,-13.486,-577.476,28.118,-26.512,8.411,-59.536,19.329,-7.82,-3.281,-8.092,46.278,11.825,34.728,21.306,48.603,22.171,-23.475,21.192,-6.044,-8.638,5.278,15.779,24.131,9.973,28.287,3.844,-43.867,-226.533
0.8853584000607952,-7.417,-0.665,-577.41,36.287,-16.752,17.624,-33.861,30.068,5.508,11.58,2.674,53.917,21.547,32.131,36.654,61.362,23.686,-22.939,32.441,6.258,3.154,15.006,24.473,25.132,36.603,36.968,11.525,-20.77,-222.208
0.8854260999942198,-19.705,-12.448,-579.395,21.394,-19.809,9.922,-36.901,19.792,-7.305,2.859,-3.476,41.567,11.279,19.292,22.273,43.37,7.268,-27.014,26.774,-3.482,-9.657,6.282,14.202,19.984,22.222,22.587,1.267,-27.921,-219.424
0.9002929000416771,-39.665,-39.587,-585.988,6.003,-36.183,-6.482,-62.479,3.891,-24.204,-18.149,-19.354,28.206,-1.54,6.977,7.906,26.933,-2.985,-42.869,12.914,-16.799,-22.455,-6.532,5.991,13.304,-0.854,11.293,-14.103,-60.169,-217.156
0.9152652000775561,-27.33,-35.962,-578.229,17.268,-36.659,-0.84,-68.052,9.522,-13.421,-8.397,-8.576,38.424,6.659,17.728,25.316,41.25,12.387,-29.506,25.197,-4.487,-8.088,4.233,15.719,19.438,15.028,23.065,-5.892,-59.596,-218.988
0.9153280999744311,-3.225,-10.31,-562.282,30.571,-16.642,19.141,-45.955,24.882,-0.088,11.592,8.851,52.218,20.484,37.691,45.271,52.992,30.818,1.262,46.689,14.473,9.338,23.697,30.048,38.374,40.116,42.51,15.118,-26.749,-224.917
0.9303255999693647,-10.394,-10.812,-576.576,24.392,-16.113,12.462,-27.466,18.709,-11.871,-1.228,-3.453,42.944,14.316,29.968,37.541,42.693,26.688,-5.912,36.908,7.799,1.132,16.501,27.456,38.336,35.978,44.516,13.054,-20.575,-232.889
0.9303848000708967,-38.048,-40.515,-608.275,11.56,-43.249,-15.728,-50.492,-4.876,-31.839,-25.305,-23.942,18.31,-10.289,2.786,11.888,21.133,6.682,-35.107,11.768,-16.8,-22.947,-9.644,6.424,9.608,9.302,19.369,-13.087,-52.829,-244.439
0.9454343999968842,-41.084,-50.721,-601.007,7.45,-48.329,-17.249,-78.106,-6.92,-32.32,-21.693,-21.357,12.657,-16.938,3.808,1.118,9.329,2.064,-37.634,6.633,-21.394,-28.048,-15.269,-2.291,-1.672,-7.102,2.955,-20.246,-68.658,-245.731
0.9471681000432,-20.55,-29.153,-568.131,18.201,-26.252,7.871,-54.462,17.165,-13.332,-3.741,-3.917,29.55,4.083,24.296,12.9,23.152,15.894,-25.301,17.385,-2.417,-7.015,2.677,11.031,20.871,5.201,20.883,2.316,-41.949,-225.505
0.9604016999946907,-10.284,-18.366,-560.902,26.892,-22.127,17.085,-28.28,25.345,-5.122,2.923,1.722,39.254,15.35,22.223,17.498,35.424,19.465,-24.251,23.515,4.758,1.189,7.797,14.606,30.584,11.856,32.645,13.584,-38.321,-208.886
0.9604825000278652,-12.323,-21.421,-562.391,22.255,-29.789,9.896,-47.207,14.561,-11.777,0.358,-3.403,34.092,10.724,11.955,12.869,29.241,12.273,-29.862,25.029,-1.395,-8.546,0.105,7.931,17.746,0.573,20.317,5.374,-52.115,-225.071
0.9757981000002474,-7.187,-8.08,-553.631,26.331,-22.587,14.496,-57.406,19.67,-7.154,2.92,0.699,36.107,15.324,17.066,20.029,29.212,12.261,-31.369,26.028,3.73,-7.513,2.666,14.071,17.216,5.696,23.371,9.979,-23.886,-235.604
0.9758610000135377,-4.106,4.736,-558.201,39.624,-18.466,19.093,-41.467,26.823,-2.536,7.527,6.334,40.682,16.333,18.586,29.23,33.281,14.298,-26.215,22.416,6.8,-3.919,5.737,19.18,25.908,17.985,36.155,20.215,-1.321,-207.192
0.99039960000664,-10.25,-1.929,-565.327,37.536,-24.083,7.803,-46.548,18.087,-10.73,1.372,-1.869,35.518,7.095,12.932,30.226,25.051,7.623,-26.701,18.295,-1.916,-8.014,0.608,13.526,23.32,10.283,32.021,16.097,-25.91,-195.202
0.990462200017646,-11.264,-2.951,-557.077,29.301,-22.522,6.77,-61.359,16.019,-13.281,-4.265,-5.454,28.823,5.551,7.796,37.368,21.952,2.493,-36.92,20.326,-3.963,-6.469,1.12,14.537,17.149,7.199,29.427,14.544,-33.569,-225.233
1.005476100021042,-7.154,1.662,-559.082,29.784,-23.012,17.01,-55.662,23.176,-8.145,2.4,-0.837,28.281,6.058,1.128,42.454,24.492,0.953,-39.445,20.306,-3.959,-6.975,4.705,17.084,16.62,14.876,30.935,17.091,-19.191,-232.18
1.0071476000593975,-13.295,-6.024,-573.38,23.607,-31.186,10.845,-45.873,17.517,-14.284,0.86,-6.984,25.692,-1.633,-0.923,36.776,13.197,0.952,-33.258,12.089,-12.665,-13.628,-3.496,10.407,17.628,1.541,22.194,8.877,-33.004,-211.968
1.0204915000358596,-21.991,-13.19,-565.634,14.362,-31.667,-1.973,-49.413,4.179,-25.029,-13.485,-16.199,19.518,-7.779,5.226,30.079,5.499,5.562,-34.761,5.417,-16.238,-16.176,-13.739,5.785,10.438,-13.83,15.0,2.72,-43.217,-217.391
1.0205554000567645,-18.895,-6.517,-532.281,22.032,-28.049,-3.508,-52.95,1.614,-23.979,-13.984,-15.158,18.474,-7.259,8.295,22.364,11.129,12.729,-33.702,4.899,-11.611,-16.672,-12.701,5.267,1.206,-7.668,13.448,4.254,-26.268,-213.587
1.0345401000231504,-9.142,7.322,-498.961,39.941,-24.947,2.643,-40.089,12.883,-15.246,-3.724,-8.995,27.677,-3.153,12.385,14.145,15.216,16.302,-19.836,11.042,-6.989,-11.02,-3.467,7.824,10.426,3.098,18.558,4.25,-7.286,-180.586
1.0346073000691831,-0.424,22.684,-465.674,56.294,-17.238,14.423,-23.655,26.19,-9.083,-0.134,-0.277,34.822,4.535,13.397,15.668,17.762,15.261,-18.791,20.765,0.19,1.287,3.709,14.988,31.42,12.316,36.982,10.393,20.386,-147.618
1.0494645000435412,-0.423,32.395,-432.421,71.095,-15.684,22.606,-32.853,31.799,-8.561,1.916,2.285,32.225,7.092,3.65,23.849,19.281,9.611,-33.63,21.256,1.215,-0.251,3.706,15.998,36.0,18.964,47.191,17.043,42.395,-114.683
1.0495341999921948,-6.058,34.924,-399.201,79.733,-21.816,18.485,-44.091,32.792,-4.967,4.987,-2.84,29.119,5.035,1.085,33.047,15.676,4.478,-32.059,17.136,-6.471,-5.887,3.19,13.933,32.377,21.507,39.46,14.977,32.618,-81.78
1.0645259000593796,-2.466,42.061,-366.014,83.24,-19.232,16.929,-31.239,33.784,-1.376,0.884,-0.788,32.676,9.641,8.256,44.284,16.685,3.961,-21.781,20.193,-5.952,0.779,6.773,19.554,41.054,31.731,43.519,17.011,33.098,-48.911
1.0663900000508875,0.61,44.581,-366.16,86.743,-13.578,18.962,-26.597,28.115,-9.059,-4.24,0.749,29.57,7.582,1.075,46.802,17.693,2.42,-29.956,19.661,-1.848,0.778,5.741,21.071,42.55,39.384,49.623,17.506,51.508,-65.256
1.0796163000632077,-4.514,35.827,-388.335,92.291,-16.638,16.381,-31.181,24.5,-14.173,-3.723,-5.399,23.905,0.402,-3.024,40.607,13.577,2.93,-35.561,19.129,-3.895,-5.37,5.735,18.489,34.823,25.0,41.376,8.78,43.26,-81.072
1.0796780000673607,6.249,39.89,-382.312,102.445,-13.035,27.123,-17.318,37.796,0.186,8.063,7.414,36.689,15.259,20.545,48.763,25.859,17.784,-20.157,33.454,4.306,5.906,18.025,28.716,47.596,21.901,51.069,17.48,31.433,-58.449
1.0950041000032797,26.223,56.756,-367.585,108.49,-1.751,46.564,-14.227,54.152,10.432,23.425,27.387,53.558,33.687,35.381,66.133,42.739,29.037,-12.452,43.154,16.084,16.659,23.642,35.348,62.405,42.372,70.998,36.93,45.747,-67.612
1.1095634000375867,16.975,51.576,-398.98,92.5,-4.823,40.882,-36.242,48.975,0.175,16.741,14.552,44.283,19.821,21.514,61.969,30.913,21.836,-17.05,28.254,6.335,4.859,9.786,21.992,47.998,39.768,58.631,28.696,48.775,-99.82
1.1096467999741435,-1.997,32.057,-430.857,71.915,-19.163,20.349,-39.791,30.483,-9.046,-3.768,-4.418,26.82,3.407,14.32,42.951,15.513,16.691,-7.299,15.931,-3.918,-6.417,0.043,13.773,32.069,21.285,39.105,11.762,37.455,-131.996
1.1245721000013873,-3.02,26.902,-459.627,70.307,-24.267,14.181,-26.944,21.743,-9.037,-6.838,-3.389,28.33,6.99,20.965,35.736,18.571,22.31,-4.218,18.476,-2.377,-7.435,-2.006,14.784,33.061,24.338,38.041,14.311,29.733,-141.598
1.124631499988027,-13.263,22.264,-470.951,69.724,-24.243,8.531,-29.991,19.672,-15.688,-6.831,-9.534,26.765,2.372,17.871,33.139,12.405,15.627,-29.317,11.286,-12.621,-16.649,-12.763,7.085,25.856,20.215,27.245,9.174,6.137,-146.579
1.1397117000306025,-29.643,6.872,-502.755,48.65,-30.366,-3.773,-42.769,11.455,-28.993,-20.657,-19.77,12.394,-10.95,7.607,22.347,-1.44,6.39,-40.558,-1.021,-23.367,-26.366,-18.898,-1.119,14.559,-7.982,10.824,-6.204,-23.071,-164.363
1.1397765000583604,-20.904,1.23,-534.528,33.232,-34.434,-4.281,-50.41,7.345,-28.451,-22.685,-15.14,10.844,-7.866,5.037,20.788,3.685,10.482,-24.124,2.566,-16.171,-18.655,-9.657,4.005,20.18,-11.561,18.497,-0.051,-23.56,-196.474
1.1546906000003219,-8.076,6.864,-540.653,42.932,-30.814,2.895,-49.335,13.998,-15.615,-11.904,-9.489,25.691,4.95,13.742,38.186,17.001,17.644,-14.366,15.884,-7.446,-4.804,0.598,13.735,26.308,13.554,35.897,15.831,-5.605,-228.553
1.1547563000349328,-4.994,16.591,-534.477,55.185,-21.561,8.528,-39.04,24.23,-3.304,-3.695,-1.795,38.473,16.216,29.097,56.59,27.23,28.385,-7.692,28.675,4.345,3.398,11.356,23.455,33.966,34.545,46.62,21.963,9.769,-226.275
1.1696901000104845,6.794,27.845,-533.43,53.08,-11.294,19.278,-30.804,32.403,4.896,9.628,13.576,46.119,27.983,34.703,65.755,37.449,37.066,3.074,37.356,16.636,10.054,20.054,31.116,48.789,44.244,53.233,28.601,12.833,-195.823
1.169751500012353,8.837,22.695,-549.803,41.244,-11.282,23.357,-34.872,30.834,1.305,10.643,11.001,41.974,24.881,23.91,62.103,29.727,21.147,-9.224,23.486,1.762,4.409,7.226,21.863,42.592,31.905,43.446,23.962,-7.672,-187.43
1.184695800067857,-9.615,1.667,-572.819,30.445,-23.054,10.526,-45.083,16.458,-14.066,-8.323,-7.966,24.514,6.413,10.054,45.647,3.57,0.634,-26.121,-3.69,-24.367,-17.625,-15.835,3.911,16.422,3.696,19.324,2.933,-31.742,-214.907
1.1847561000613496,-20.876,-6.531,-574.808,25.291,-32.253,-1.78,-55.796,6.708,-23.785,-17.023,-16.155,12.706,-5.889,4.921,32.794,-7.192,5.756,-18.922,-6.247,-25.88,-27.853,-18.38,0.833,10.258,-3.48,11.108,-2.705,-29.661,-246.968
1.1999081000685692,-16.757,-5.5,-576.795,21.68,-34.782,-1.778,-61.376,9.775,-21.2,-13.933,-14.089,17.304,-4.346,9.014,34.811,0.499,14.46,-13.78,9.64,-15.608,-15.018,-6.067,10.054,22.031,5.745,21.343,8.056,-17.849,-254.918
1.199967300053686,-6.494,-6.007,-600.297,20.633,-30.649,5.396,-53.63,17.45,-12.47,-10.845,-5.366,28.045,6.929,18.739,40.411,10.233,13.933,-17.865,15.778,-6.37,-2.195,0.087,14.142,26.62,6.252,30.543,11.634,-16.806,-240.831
1.2147767000133172,5.808,-0.366,-609.942,26.248,-18.835,12.563,-46.404,24.092,-4.26,1.461,6.935,36.214,17.681,24.868,46.006,19.956,21.091,-12.212,18.836,2.857,1.393,0.599,15.153,24.031,9.831,29.488,11.622,-19.863,-244.688
1.2148542000213638,3.753,-3.951,-600.111,18.537,-19.841,8.452,-55.067,19.458,-8.354,2.997,1.805,32.592,11.003,19.72,49.034,17.887,25.169,-10.15,19.842,0.293,-2.707,-0.426,15.138,21.446,13.92,22.799,7.512,-28.04,-261.862
1.230837400071323,-17.256,-24.44,-612.831,-6.072,-38.264,-7.951,-64.233,3.557,-22.691,-15.962,-15.615,18.727,-5.402,10.991,37.202,-1.086,16.946,-15.776,10.601,-9.441,-14.487,-6.573,7.95,16.301,-2.488,15.604,-8.377,-42.357,-262.625
1.244849200011231,-21.849,-29.026,-630.661,-8.115,-43.349,-8.967,-48.8,4.065,-23.693,-13.896,-15.087,18.708,-2.323,13.03,28.455,-5.696,19.491,-11.661,11.615,-6.87,-13.448,-5.542,5.893,13.211,-8.633,14.563,-11.955,-45.388,-265.436
1.2449161000549793,3.276,-10.042,-616.198,13.922,-22.301,14.095,-29.796,26.09,-5.226,11.221,5.932,38.157,19.709,28.898,48.919,16.339,35.353,-1.916,30.559,8.506,7.57,10.857,21.256,21.395,15.967,23.77,8.55,-29.974,-274.392
1.2449585000285879,19.666,2.264,-600.725,18.519,-8.446,29.451,-40.012,35.286,3.489,19.406,20.783,49.39,30.448,44.238,70.9,28.106,42.49,6.795,38.213,19.256,15.247,19.044,30.457,32.644,27.734,33.993,22.373,-17.136,-264.896
1.2598627000115812,4.79,-3.374,-617.03,7.23,-18.684,16.101,-59.952,18.857,-11.372,4.53,8.467,36.533,16.585,34.46,54.947,10.147,32.714,6.276,20.756,7.454,-0.65,3.655,16.081,26.976,2.091,27.811,10.056,-30.439,-263.094
1.2749254000373185,-11.609,-12.08,-638.443,3.636,-29.936,-2.358,-58.867,4.493,-23.656,-9.819,-12.034,19.59,0.174,3.687,23.641,-9.843,14.238,-14.222,5.366,-8.435,-12.432,-8.644,5.819,17.215,-14.305,12.414,-4.811,-51.413,-276.664
1.2750052000628784,-1.351,-6.945,-634.218,5.682,-24.271,2.767,-46.513,11.661,-14.923,-7.248,-8.435,22.644,4.273,-2.464,18.495,-6.759,12.174,-24.967,11.508,-2.792,-9.346,-4.537,14.523,24.37,4.152,12.914,0.317,-44.702,-263.067
1.2899309999775141,9.409,5.358,-625.899,9.262,-17.587,16.597,-41.344,22.408,-7.736,3.518,1.307,32.355,11.953,18.543,30.259,-1.117,21.384,-16.233,18.157,3.359,-5.75,-0.946,18.094,26.395,18.492,19.561,8.001,-25.702,-253.07
1.2899952000007033,4.276,7.402,-632.446,10.79,-22.18,12.994,-48.474,17.775,-16.437,1.977,-3.818,28.737,7.843,19.549,36.889,-8.288,16.239,-20.315,14.553,-2.792,-6.769,-0.433,13.978,15.61,11.302,18.004,5.944,-25.164,-271.26
1.304864100064151,9.395,8.931,-625.153,7.705,-21.133,13.493,-57.135,17.757,-16.421,1.976,1.822,32.294,13.47,9.283,44.537,-3.157,15.198,-17.733,26.321,7.457,1.435,10.326,23.698,27.378,16.413,25.671,11.573,-23.602,-261.767
1.3049273999640718,17.07,13.533,-611.208,6.673,-12.403,25.263,-48.369,27.473,-6.158,11.707,15.652,47.119,24.215,18.496,52.177,9.654,31.065,2.777,41.664,21.282,12.192,19.025,33.92,44.769,30.229,35.892,21.808,-17.43,-244.087
1.3198689999990165,-4.464,-2.874,-634.163,-2.555,-22.124,12.942,-40.636,13.613,-17.423,0.425,-1.27,34.264,8.309,13.354,38.805,-5.725,23.349,-8.496,25.741,3.33,-0.116,6.198,19.541,22.183,12.781,18.949,10.515,-46.614,-274.069
1.3221832000417635,-18.804,-22.339,-660.681,-19.459,-40.033,-8.588,-55.964,-7.405,-32.775,-19.043,-19.711,14.25,-8.093,-6.127,23.909,-26.212,6.42,-26.931,6.247,-12.043,-15.997,-8.152,4.153,-0.893,-18.483,0.487,-3.84,-76.282,-297.873
1.3350342999910936,7.855,-5.923,-642.09,-13.292,-28.21,7.815,-58.47,8.996,-15.836,-1.093,0.801,36.265,10.871,14.884,40.791,-8.767,25.881,-1.801,22.123,7.437,1.437,5.176,14.907,19.6,-14.878,18.93,12.045,-52.127,-276.571
1.335101200034842,30.388,14.575,-624.029,5.165,-6.152,32.398,-41.505,28.455,3.136,23.498,22.317,63.893,30.84,43.046,63.292,12.246,41.737,10.496,37.982,23.823,21.416,23.614,28.212,39.048,5.117,41.453,33.038,-23.898,-255.802
1.3503268000204116,22.673,10.974,-630.577,-0.476,-11.269,25.193,-49.149,16.643,-7.114,16.303,17.171,55.632,26.198,24.047,60.667,4.549,28.375,-11.031,30.259,19.189,15.246,17.955,25.11,31.837,10.235,35.264,31.98,-34.632,-250.935
1.350403800024651,21.114,10.963,-628.41,-9.697,-16.381,20.557,-61.907,11.504,-13.767,9.626,14.593,50.454,22.074,8.142,54.459,-1.603,20.15,-8.459,31.766,20.194,12.67,13.838,23.548,32.317,16.884,31.642,28.874,-36.647,-259.394
1.3649315000511706,26.728,15.051,-631.368,-4.052,-7.655,28.221,-45.451,18.665,-7.093,14.227,17.652,58.6,22.051,19.405,60.04,3.522,13.469,-1.278,39.931,24.785,20.854,24.07,28.648,39.457,26.601,38.27,30.895,-28.413,-280.139
1.365004300023429,21.578,6.327,-642.519,-7.634,-13.283,20.508,-42.332,9.424,-14.258,7.041,8.925,51.369,13.833,13.237,58.443,-4.679,0.136,-17.67,32.207,19.124,16.735,19.948,26.57,32.245,15.304,30.548,26.765,-40.168,-266.539
1.379949799971655,24.118,9.907,-625.483,-16.336,-21.467,16.389,-67.905,5.316,-21.416,4.472,6.867,46.195,12.794,2.978,53.261,-13.895,8.333,-17.653,30.125,16.544,13.132,11.731,21.932,32.213,7.604,26.419,27.763,-37.054,-233.485
1.3818247000453994,31.266,22.704,-617.173,-10.171,-15.81,26.107,-64.763,13.508,-15.247,10.103,12.495,51.784,16.88,9.635,57.306,-12.857,17.034,-8.414,38.292,19.089,16.192,17.867,23.96,40.378,21.429,37.151,31.834,-17.549,-238.374
1.3950997999636456,21.501,12.948,-643.196,-14.26,-19.892,19.933,-34.472,5.81,-17.281,2.409,5.823,45.585,9.691,2.965,56.737,-17.967,6.258,-14.553,34.155,15.996,12.078,17.337,24.96,32.14,24.993,33.015,18.994,-25.216,-270.411
1.3951643999898806,19.943,3.201,-635.892,-32.689,-22.946,11.204,-36.487,-1.368,-21.874,1.382,6.842,47.588,11.73,0.401,56.68,-15.9,15.986,-4.804,35.658,20.078,16.164,18.344,28.521,30.059,22.919,28.371,14.877,-31.339,-263.481
1.410035700071603,37.341,16.005,-606.567,-29.07,-8.579,23.488,-67.701,8.879,-13.143,16.237,22.716,64.447,27.6,23.454,70.968,-1.539,39.024,13.131,51.504,33.378,30.493,31.133,38.227,44.886,32.63,44.224,31.256,-20.549,-232.991
1.4101003999821842,34.743,11.379,-632.089,-12.135,-10.107,24.489,-74.806,6.821,-14.667,12.635,18.595,57.21,21.937,27.529,69.36,-10.759,26.689,-0.714,41.206,24.636,22.778,20.856,27.942,39.206,17.741,40.594,26.102,-39.484,-246.59
1.4250643000705168,19.339,-4.002,-660.658,-16.221,-21.88,12.169,-56.288,-3.432,-21.825,2.376,6.281,43.321,11.157,15.719,52.897,-30.216,12.318,-14.034,22.21,11.803,8.922,5.466,11.008,22.773,-7.38,21.598,9.682,-59.424,-267.349
1.4251260000746697,35.713,15.982,-627.722,-15.18,-5.977,30.6,-45.986,14.502,-4.384,20.817,24.206,63.77,33.687,33.121,65.652,-11.231,38.946,5.448,44.217,35.87,26.844,26.978,29.953,36.07,17.73,36.946,26.578,-30.163,-246.589
1.440078500076197,52.071,38.508,-608.651,3.791,5.812,49.013,-43.891,30.37,8.94,32.579,38.014,76.513,48.51,46.921,80.443,5.174,52.227,17.226,62.616,51.716,38.6,38.221,46.829,51.403,40.766,54.327,38.335,-11.178,-227.387
1.4418138000182807,31.527,19.001,-633.146,-9.533,-13.149,23.348,-38.724,5.748,-14.635,5.906,11.848,47.748,18.748,15.111,51.161,-27.106,19.899,-7.382,31.302,20.413,12.434,10.519,20.654,33.933,8.45,31.731,14.73,-37.294,-237.918
1.455193700036034,21.761,9.761,-626.877,-39.238,-20.82,5.394,-34.586,-10.651,-29.99,-7.932,-3.021,31.306,1.311,-10.52,38.302,-48.084,-2.15,-29.404,13.34,3.999,3.2,6.41,11.412,25.702,2.806,21.966,10.617,-39.306,-233.582
1.4552596000721678,45.818,36.903,-595.512,-21.78,-5.43,33.053,-29.941,17.536,-4.857,19.228,23.11,53.816,28.462,12.032,71.052,-26.006,22.955,-10.419,41.504,31.147,29.325,29.969,39.065,47.706,35.591,43.973,36.222,-16.726,-213.368
1.4705041999695823,53.457,41.99,-604.138,-3.827,-1.326,48.39,-32.473,31.351,9.493,33.554,36.407,64.009,43.29,29.951,85.325,-15.734,39.838,13.67,48.122,38.801,32.369,26.865,37.489,48.17,32.482,42.392,39.772,-27.467,-221.864
1.4851453000446782,32.399,15.308,-633.76,-32.0,-13.108,26.312,-52.42,6.729,-14.083,13.54,16.903,46.014,21.73,9.429,55.526,-33.649,23.917,0.848,23.483,17.245,8.771,7.883,13.886,23.531,0.174,18.271,21.801,-48.957,-252.38
1.485206100041978,32.367,11.194,-635.175,-40.165,-14.632,21.675,-56.466,1.599,-19.704,9.428,12.275,43.919,15.56,1.222,53.933,-37.714,20.307,-12.985,28.071,21.838,12.86,15.048,22.581,29.656,2.223,24.913,26.39,-35.588,-257.251
1.500150499981828,58.462,31.675,-622.757,-16.559,0.24,46.244,-27.208,22.09,3.882,30.936,34.292,62.83,38.086,25.3,77.958,-20.77,39.242,7.008,53.658,49.481,40.512,38.599,43.051,55.754,29.885,53.577,49.93,-11.986,-229.329
1.5002082000719383,67.625,36.766,-626.233,-23.715,7.924,51.321,-14.373,17.457,2.853,31.929,40.918,66.353,40.098,32.447,71.22,-13.065,44.838,17.759,57.19,57.116,47.132,46.245,41.983,54.673,39.589,61.721,58.077,-12.486,-212.194
1.5151931999716908,56.287,28.02,-634.316,-38.548,-0.793,31.802,-40.487,-4.59,-17.13,12.942,25.508,55.016,22.127,17.045,48.607,-25.347,36.084,0.323,49.449,45.276,34.277,39.026,39.38,49.496,32.89,54.999,52.383,-23.232,-224.277
1.51525739999488,56.23,31.066,-627.534,-30.825,-3.866,29.209,-61.451,-2.024,-14.551,12.929,24.97,50.351,23.129,11.905,46.509,-33.519,36.048,-7.362,46.838,43.182,31.169,37.45,43.951,60.205,25.172,58.018,51.819,-21.16,-228.151
1.530231500044465,63.859,42.306,-614.611,-34.38,3.822,43.012,-50.119,11.299,-6.852,24.187,33.142,51.325,31.303,12.405,54.148,-31.436,37.549,-3.768,44.742,45.7,35.236,39.974,42.37,59.12,28.733,61.034,53.304,-14.479,-211.017
1.5302966000745073,64.307,48.924,-611.435,-36.395,8.942,47.579,-27.527,10.263,-10.431,25.187,30.547,49.224,26.661,9.319,59.729,-32.941,30.339,-5.301,46.234,41.044,35.713,39.422,39.254,57.524,32.803,57.899,54.275,-16.513,-209.269
1.5451916999882087,71.927,53.485,-617.995,-17.403,12.519,50.093,-24.938,11.277,-7.859,27.724,35.64,51.224,27.659,8.285,67.354,-32.396,26.722,-1.198,50.798,43.564,39.776,43.993,44.85,69.762,31.233,64.501,62.93,-13.423,-226.478
1.5452504999702796,78.003,52.92,-626.087,-21.484,9.432,53.117,-40.794,16.901,-5.802,31.282,41.239,51.173,33.267,0.08,68.311,-31.851,28.745,-2.221,45.624,48.644,41.785,43.949,45.318,63.544,40.424,65.461,60.818,-9.824,-231.375
1.56020389997866,59.482,35.448,-636.731,-53.738,-5.434,38.719,-47.414,4.589,-13.993,20.492,25.317,38.314,22.987,-11.703,53.386,-47.701,22.056,-20.662,33.796,34.25,27.399,25.975,28.878,38.377,33.723,43.366,36.166,-31.331,-229.606
1.5602580000413582,46.615,17.994,-646.853,-62.394,-9.527,28.434,-41.218,-10.273,-16.541,14.324,17.094,29.567,14.767,-10.667,42.062,-56.875,16.911,-24.74,30.176,26.531,19.687,18.776,20.14,36.802,7.562,31.027,22.81,-49.23,-233.475
1.5757339000701904,64.499,26.686,-641.083,-48.499,3.29,43.775,-43.739,1.008,-9.864,26.605,32.959,41.32,23.974,-1.435,55.339,-37.863,29.702,-3.198,42.953,46.485,37.086,37.201,37.539,54.696,21.386,50.464,37.644,-33.299,-230.68
1.5757996999891475,76.218,40.491,-627.634,-48.963,6.361,53.978,-54.454,14.327,-6.268,30.165,39.586,48.451,30.61,7.788,67.58,-28.603,45.041,9.613,54.693,57.709,45.245,46.897,47.235,56.691,46.468,63.734,45.804,-29.168,-226.351
1.5903236999874935,64.871,31.742,-635.716,-63.258,-0.818,45.214,-52.862,4.067,-6.774,23.475,33.398,40.206,28.018,17.514,55.729,-40.358,43.459,5.505,48.491,46.381,33.417,33.53,29.769,44.851,19.782,50.862,35.512,-50.143,-240.982
1.5903866000007838,64.293,26.074,-647.888,-67.294,0.72,43.12,-31.292,-2.597,-4.718,28.574,35.927,42.727,32.088,21.083,50.038,-38.268,42.904,6.524,43.832,48.896,33.384,30.423,26.666,43.781,3.368,47.225,33.939,-44.97,-249.962
1.6057414000388235,75.5,39.881,-638.019,-61.079,4.818,48.2,-12.818,5.09,0.41,34.181,40.501,54.467,39.741,15.426,65.869,-27.984,51.058,15.739,57.62,60.63,43.084,45.25,44.57,55.008,29.492,63.572,41.078,-26.994,-230.245
1.6058055000612512,73.375,40.865,-633.794,-61.018,5.325,48.152,-21.514,3.036,-1.128,27.999,40.461,50.827,38.164,10.288,69.902,-33.079,48.957,14.186,62.173,55.959,40.992,46.741,44.525,58.54,27.414,66.07,37.45,-35.164,-219.256
1.620383400004357,68.179,31.091,-641.87,-61.469,5.32,50.665,-40.961,-3.115,-7.274,27.971,40.933,44.116,33.003,11.302,61.123,-39.706,39.687,-0.172,47.767,51.292,36.852,36.448,31.161,50.796,9.968,53.196,32.29,-40.252,-233.894
1.620460500009358,70.672,36.695,-637.642,-55.26,4.29,51.639,-47.067,-0.038,-6.755,31.529,37.306,44.584,32.458,11.803,59.012,-41.715,37.086,-8.369,40.034,53.29,36.303,35.9,30.105,44.086,26.864,51.094,35.331,-29.965,-233.66
1.635434800060466,69.065,39.732,-636.492,-57.254,2.749,44.927,-47.02,-1.063,-5.723,24.838,31.633,37.88,29.351,0.521,56.904,-46.797,35.512,-1.701,45.117,49.138,34.218,38.425,37.247,45.578,42.206,54.629,36.321,-31.985,-213.446
1.6354973000707105,72.582,38.668,-638.929,-65.906,4.795,48.469,-35.19,-0.037,-5.205,27.887,37.237,39.891,29.322,-0.504,60.433,-42.651,40.599,7.522,53.269,52.675,41.356,42.998,45.919,60.39,43.189,61.746,40.895,-30.928,-205.036
1.650428600027226,91.464,58.609,-623.946,-63.79,13.5,68.913,-4.929,16.357,9.657,48.864,54.618,61.368,45.174,21.525,81.378,-25.703,54.391,11.613,63.974,70.041,55.659,54.225,53.045,75.699,57.49,77.566,58.785,-11.429,-201.757
1.6653872000752017,101.619,72.895,-617.174,-61.677,25.781,81.139,1.736,23.0,17.844,56.499,64.297,68.479,57.424,25.09,92.567,-19.017,56.386,12.114,68.521,77.655,58.677,57.245,50.431,72.549,60.506,82.612,67.435,-1.684,-198.481
1.6654478000709787,92.296,57.965,-630.901,-72.887,25.756,72.861,-29.516,8.633,2.457,42.611,55.524,58.164,47.633,-0.551,82.741,-25.146,46.083,6.467,66.403,70.406,52.983,53.089,50.38,68.89,45.589,76.894,58.659,-7.83,-211.09
1.6794203000608832,86.568,49.198,-629.758,-81.523,14.459,59.98,-47.418,-0.597,-7.279,35.396,46.759,58.618,35.29,-7.722,79.072,-26.145,46.549,4.411,69.411,67.261,56.516,60.209,57.502,79.58,44.007,83.989,57.063,-12.433,-217.539
1.6794785000383854,95.703,57.858,-616.321,-74.781,14.957,64.019,-32.513,6.063,1.949,45.094,57.471,66.757,43.452,4.581,85.653,-19.459,52.651,14.653,73.44,76.416,63.632,67.833,57.445,81.037,50.623,91.077,65.203,-20.105,-198.366
1.6944392999866977,110.464,61.386,-614.168,-64.973,28.262,80.861,-10.452,15.791,12.706,59.394,71.246,73.35,60.314,7.138,94.276,-9.706,56.184,24.884,74.391,86.585,68.692,68.277,54.826,75.321,50.06,86.888,72.822,-22.134,-186.897
1.696166199981235,115.989,64.399,-618.676,-69.519,29.258,83.342,-6.855,16.288,14.743,60.359,69.637,80.961,62.303,11.229,100.842,-1.499,63.812,24.859,79.952,87.011,73.746,71.795,61.431,86.004,49.497,93.973,77.36,-6.743,-200.543
1.7094995999941602,111.775,69.97,-630.865,-80.207,22.569,68.914,-20.68,6.537,7.043,48.515,62.908,79.343,51.483,15.829,91.007,-3.547,64.773,19.711,83.97,83.338,74.185,73.773,64.956,95.652,54.059,104.638,77.283,0.948,-210.588
1.7095651000272483,114.737,73.486,-633.821,-72.443,32.28,73.456,-20.147,8.58,9.085,54.615,70.017,79.264,55.53,15.813,83.744,-3.543,59.585,21.228,82.35,89.402,74.623,74.211,65.403,90.945,67.837,101.459,77.206,-7.762,-191.422
1.7245557999704033,128.455,81.609,-608.084,-59.563,47.105,96.948,1.902,28.552,29.569,77.101,84.804,95.066,75.454,23.994,103.128,11.83,69.772,34.015,88.415,100.071,83.257,80.285,71.485,93.928,78.015,103.407,81.227,-4.68,-169.202
1.724621000001207,127.301,85.114,-597.742,-68.725,40.91,98.901,8.56,31.085,33.637,74.975,84.207,98.045,75.891,28.581,114.808,16.941,83.022,38.079,93.45,97.922,82.662,78.668,70.902,94.347,69.74,105.865,77.047,7.107,-182.352
1.7406113999895751,109.243,69.66,-622.247,-86.074,24.988,79.334,-5.281,11.586,12.599,53.383,67.729,80.016,53.273,16.769,92.151,1.555,74.742,27.795,82.085,87.578,68.747,67.318,61.609,80.932,63.01,92.439,64.675,3.002,-210.859
1.7406797000439838,99.913,58.319,-633.408,-92.136,21.889,70.033,-19.62,3.377,2.34,42.059,55.878,69.178,38.876,5.994,67.468,-8.693,63.397,20.083,68.683,78.781,58.432,59.566,54.375,78.29,62.435,81.588,57.95,-9.809,-210.648
1.7545733000151813,99.3,61.847,-630.725,-94.093,22.379,71.5,-30.871,5.423,1.826,37.406,51.211,66.547,33.714,-6.308,60.229,-10.221,58.21,14.427,63.492,72.555,55.3,54.383,50.222,81.285,49.565,80.482,55.331,-16.459,-199.679
1.7564492999808863,103.3,63.834,-645.976,-89.9,21.332,74.502,-32.377,-0.218,-2.274,40.443,55.771,69.554,32.655,-13.986,65.804,-4.576,56.615,15.95,70.088,78.63,64.978,57.915,54.783,76.593,43.88,83.476,59.886,-12.344,-203.066
1.7696304999990389,119.078,71.455,-646.355,-81.614,32.07,83.649,-21.587,0.295,3.875,57.821,73.134,91.002,49.529,6.52,88.28,15.921,68.854,33.865,89.998,99.043,86.43,78.862,69.073,83.689,59.205,102.347,77.757,0.476,-195.178
1.769694900023751,126.643,78.556,-619.581,-91.266,41.259,88.689,-15.93,4.905,12.069,64.423,81.77,103.206,62.799,21.371,104.073,27.176,75.445,37.417,96.056,100.481,88.393,85.443,73.102,93.852,65.806,114.541,84.339,0.475,-185.249
1.784632800030522,110.635,66.182,-612.301,-107.568,30.972,79.891,-12.84,-1.76,7.446,55.137,69.393,90.807,54.027,4.956,95.26,16.39,61.537,17.399,79.566,79.376,70.374,67.939,60.221,80.95,55.494,92.909,66.324,-19.505,-199.921
1.784696300048381,99.254,56.382,-632.694,-107.973,20.182,75.2,-11.29,-8.418,3.852,52.008,60.102,87.643,48.338,-1.197,87.992,11.251,58.402,12.259,70.777,71.612,63.643,58.137,50.427,70.111,42.631,74.373,54.475,-30.756,-206.893
1.799635500065051,101.716,60.936,-643.332,-108.89,24.26,76.662,-22.549,-9.946,0.262,47.857,61.578,90.117,49.314,2.39,90.978,12.264,63.467,18.394,71.218,74.102,65.117,59.616,49.352,71.065,35.416,79.934,60.568,-24.066,-197.977
1.799699299968779,107.25,66.511,-630.905,-114.929,31.408,76.073,-31.748,-10.961,-3.837,44.223,64.078,85.416,46.191,-12.469,93.448,11.227,56.743,16.327,69.098,73.003,68.638,60.581,54.426,71.506,47.164,87.026,72.803,-11.746,-198.291
1.814712299965322,120.975,78.74,-612.344,-102.518,41.111,88.292,-20.446,2.882,12.561,60.573,74.773,97.626,55.366,-12.969,107.187,26.073,63.346,22.458,79.275,86.763,80.864,71.279,66.155,87.316,64.023,98.723,87.075,-2.0,-186.31
1.8297983000520617,129.051,85.833,-612.244,-93.194,43.631,102.036,-6.593,15.175,24.332,69.734,81.358,109.824,61.971,7.024,118.351,36.806,78.14,31.657,88.93,96.41,85.394,76.843,67.113,101.061,62.422,106.821,88.524,-7.634,-170.754
1.8447469000238925,110.479,67.817,-625.464,-112.056,26.169,84.516,-8.124,-1.234,-1.308,45.586,63.346,87.685,37.318,3.431,98.252,17.301,64.742,22.916,73.471,77.358,72.501,63.959,53.726,78.419,56.212,90.32,73.067,-19.922,-195.174
1.844813400064595,97.048,60.064,-625.35,-126.289,13.848,64.964,-15.288,-16.09,-18.725,30.171,49.45,73.765,19.862,-10.917,83.297,7.55,53.919,18.795,66.738,68.571,69.867,63.382,54.185,65.533,61.279,82.545,69.407,-9.143,-215.984
1.8596806999994442,111.296,75.374,-619.09,-118.478,25.617,78.219,-17.834,-7.877,-0.776,44.998,63.233,96.232,39.31,-2.197,101.657,30.084,70.771,32.096,87.164,86.434,82.093,78.688,66.426,89.033,60.193,98.856,80.609,5.211,-189.64
1.875093700014986,119.381,72.224,-626.155,-120.409,31.739,91.973,-18.328,-3.771,8.959,56.224,74.441,109.456,55.152,8.564,114.363,40.3,78.385,34.626,93.224,92.495,86.621,79.634,64.822,95.604,50.911,101.319,83.09,-8.627,-173.569
1.8751516999909654,110.553,58.832,-640.898,-135.145,26.072,84.196,-21.384,-9.914,0.241,50.532,68.731,102.687,49.974,2.92,106.564,28.989,69.597,25.369,77.249,80.619,78.85,71.87,58.098,80.139,54.958,90.459,79.42,-19.377,-188.765
1.8897789000766352,108.393,63.896,-644.356,-136.035,28.095,78.989,-18.801,-12.978,-3.346,44.334,64.564,101.559,47.875,-5.28,104.921,27.423,68.503,21.246,73.586,74.903,71.599,70.773,59.576,80.572,65.662,93.955,80.366,-5.525,-196.261
1.889839900075458,112.383,68.443,-628.855,-130.263,28.067,81.471,-12.635,-17.064,-4.367,41.728,63.987,102.482,46.29,-10.398,110.963,31.494,68.434,22.761,81.197,76.365,74.089,70.703,60.029,85.614,62.01,98.472,80.285,-1.421,-191.966
1.9048456000164151,119.443,69.912,-611.832,-134.232,28.039,86.001,-16.208,-14.485,-2.313,48.858,69.558,106.478,47.269,-12.949,118.537,32.999,69.391,29.911,83.165,83.461,86.823,76.78,63.043,83.479,56.825,99.91,85.84,-7.055,-186.651
1.9049129000632092,134.693,87.26,-616.855,-133.585,43.892,99.235,-23.876,-1.663,8.96,66.228,84.858,123.278,62.59,-4.227,130.202,45.774,79.055,36.541,91.791,95.673,99.543,92.072,74.763,95.691,72.65,115.18,98.562,8.833,-177.755
1.9198865999933332,138.144,95.882,-619.825,-123.205,49.996,105.795,-27.951,2.437,13.561,68.723,88.359,128.79,66.114,6.023,129.559,54.95,82.562,32.406,100.921,98.139,99.444,97.615,81.348,110.965,85.385,125.311,96.927,27.78,-177.577
1.9199531000340357,124.174,81.442,-606.397,-120.521,36.114,93.907,-33.046,-2.689,3.302,51.748,72.902,115.854,47.605,0.382,112.523,43.112,71.209,26.738,91.086,87.282,87.561,85.735,73.582,102.657,75.566,111.353,83.51,20.068,-180.473
1.9348295000381768,125.074,80.848,-604.254,-122.962,37.102,91.251,-22.767,-2.686,2.786,51.184,71.292,115.738,44.996,-4.229,112.923,39.483,69.088,29.785,83.31,84.121,87.474,80.526,66.849,92.308,75.49,105.094,84.451,9.289,-164.924
1.9348903000354767,145.441,102.284,-608.773,-114.642,52.434,104.992,2.359,1.928,14.566,68.552,88.127,131.504,62.369,5.509,136.889,58.911,80.802,37.952,99.109,98.382,104.805,95.302,76.516,106.048,91.296,123.944,100.76,19.526,-151.439
1.9498647999716923,146.321,105.768,-598.942,-115.552,48.284,102.326,-1.23,-1.66,9.429,64.897,86.502,129.835,57.184,2.942,137.776,60.901,79.185,35.865,106.182,102.382,106.237,101.355,84.124,115.676,92.229,129.968,103.221,23.093,-166.144
1.949922800064087,123.633,85.682,-595.27,-131.83,31.329,84.293,-24.795,-12.417,-6.975,42.803,64.898,110.75,36.122,-14.992,112.023,38.811,64.249,23.022,85.583,82.812,85.126,83.323,69.695,97.629,84.453,107.296,86.724,7.188,-182.884
1.9649507000576705,121.972,89.183,-597.236,-125.55,34.372,90.356,-8.376,-2.671,7.377,49.932,68.419,112.688,44.283,-10.878,112.936,38.26,68.795,26.072,79.862,79.143,85.553,78.628,64.502,92.921,83.343,100.529,84.076,10.255,-165.283
1.9799838999751955,145.929,116.246,-589.979,-106.982,53.805,119.467,17.248,22.435,35.547,79.596,94.479,141.777,73.44,9.113,141.512,64.349,87.682,46.026,102.836,103.142,108.521,99.042,82.881,119.468,86.846,121.433,103.459,36.372,-142.064
1.9800496000098065,147.32,111.519,-598.098,-122.244,56.313,121.397,-10.946,17.289,28.339,80.541,94.384,147.783,72.854,5.005,137.785,67.359,85.032,38.296,104.27,105.088,107.901,99.968,85.359,121.91,92.907,122.336,106.43,30.7,-156.266
1.9800924999872223,122.582,83.743,-613.381,-147.225,40.887,96.685,-43.211,-10.393,3.72,57.407,71.748,122.532,48.191,-11.394,105.371,43.213,66.504,12.642,77.526,79.368,83.714,77.839,65.806,91.562,86.667,98.136,86.343,-1.606,-177.115
1.995379599975422,116.824,83.147,-604.571,-138.368,37.772,91.977,-24.212,-12.432,5.253,54.276,71.676,119.336,44.044,-10.87,96.557,35.485,62.852,20.314,69.764,72.116,78.508,70.076,58.568,84.298,70.698,89.841,83.183,-14.924,-172.839
1.995438800076954,129.514,95.359,-597.306,-125.422,46.956,105.718,-3.183,0.901,20.105,66.517,84.412,140.734,59.369,-2.15,123.612,51.843,73.035,37.712,84.039,85.876,93.798,81.789,65.682,99.071,75.751,100.509,96.932,1.997,-175.228
2.0099428000394255,135.02,94.751,-604.394,-132.469,48.446,109.198,-17.525,-2.174,18.548,67.475,83.816,142.642,62.896,0.414,147.567,63.062,80.134,31.014,93.689,92.963,101.901,93.49,72.276,107.169,83.36,109.63,101.958,12.753,-179.151
2.025002900045365,135.398,99.779,-596.617,-133.361,49.422,107.04,-24.68,-9.344,7.258,61.772,79.121,135.839,54.124,-1.124,154.592,61.975,80.566,29.959,93.083,90.821,100.775,95.958,76.815,111.672,69.956,113.619,104.93,12.741,-154.893
2.026722799986601,128.602,103.266,-587.824,-128.105,52.447,104.371,-12.872,-12.408,0.079,54.538,76.481,136.216,46.385,-9.832,149.827,54.228,70.752,32.49,84.28,80.484,93.502,86.641,70.59,104.901,68.349,106.333,104.313,7.605,-147.054
2.040121900034137,114.129,89.843,-596.97,-139.248,42.66,98.119,-23.617,-13.421,0.079,47.311,65.646,127.37,41.216,-21.093,139.943,44.952,59.41,11.966,71.388,68.108,81.113,72.722,59.249,87.377,77.503,88.808,91.401,-6.235,-173.035
2.040187400067225,113.503,86.167,-597.397,-146.793,34.421,97.509,-39.988,-5.21,4.177,47.264,59.945,122.632,40.15,-22.096,137.242,43.371,61.4,5.294,70.292,67.015,78.983,71.112,59.702,87.29,68.716,85.133,87.211,-14.426,-170.3
2.0551271999720484,125.172,99.913,-582.968,-131.789,43.608,105.608,-12.283,3.504,10.32,56.438,70.131,136.342,43.183,-12.853,145.301,52.036,72.61,28.342,80.468,74.633,91.199,80.775,65.278,99.498,68.135,97.856,99.932,-0.067,-146.051
2.0551899999845773,130.17,109.547,-574.188,-120.387,52.274,112.675,20.517,1.964,17.482,63.554,78.77,142.353,50.313,-6.692,152.328,59.157,77.148,33.949,87.048,80.706,96.743,84.28,67.774,101.96,87.022,104.418,108.541,18.376,-147.954
2.0701210000552237,126.966,107.9,-577.2,-131.025,48.635,110.513,-0.508,-4.698,12.854,59.904,74.593,136.576,50.775,-8.222,148.077,56.024,73.997,21.108,82.35,78.576,88.962,77.536,66.682,99.296,85.398,99.191,103.822,12.723,-152.93
2.0701836000662297,116.081,95.497,-585.332,-145.238,39.365,95.033,-32.783,-19.55,-5.602,46.524,62.223,133.365,38.941,-12.825,141.269,47.771,69.824,22.111,72.021,68.763,83.237,72.848,59.955,93.562,71.48,91.919,91.935,-8.807,-151.752
2.085124699980952,110.841,86.692,-587.82,-147.142,35.227,86.229,-28.14,-26.191,-7.133,44.941,60.111,134.256,36.853,-8.201,149.325,51.309,72.828,27.212,75.023,71.768,87.253,79.435,61.432,91.931,76.532,92.852,85.695,-8.286,-171.58
2.0870115000288934,127.124,100.438,-579.035,-134.7,47.487,106.123,4.676,-5.16,13.366,63.339,77.47,146.418,56.796,6.152,169.668,68.164,85.051,33.845,90.317,88.603,97.924,89.089,72.641,104.135,85.677,103.517,97.393,13.239,-176.019
2.100220700027421,141.342,115.194,-570.259,-123.294,56.661,123.947,7.233,8.677,20.525,74.546,89.687,160.616,68.01,13.83,179.232,77.317,91.114,50.717,93.813,93.125,103.974,92.074,75.642,109.154,77.394,109.049,106.517,19.374,-143.056
2.100289599969983,133.516,115.079,-563.541,-126.757,48.408,114.602,-7.631,-7.213,10.259,67.812,79.864,156.357,59.745,5.619,175.467,73.654,85.899,55.277,89.109,88.933,102.333,92.494,75.055,104.946,70.657,107.916,101.799,15.256,-122.42
2.115590500063263,128.259,117.013,-556.83,-130.217,46.822,106.29,-16.845,-10.792,8.199,60.572,74.149,148.516,56.099,-9.243,174.267,67.945,78.129,35.242,94.143,90.894,101.718,94.451,79.59,110.989,84.931,111.906,102.722,26.511,-138.179
2.115653600078076,131.205,117.921,-555.761,-123.939,53.436,110.795,-24.0,1.002,10.24,58.462,77.661,151.441,56.043,-15.382,175.117,63.778,73.952,22.911,94.049,87.729,99.567,91.283,76.949,110.878,96.117,110.77,106.718,29.046,-146.238
2.13017919997219,132.098,113.192,-555.205,-125.352,50.821,111.196,-12.193,-3.097,6.131,57.891,76.558,152.314,52.913,-3.583,176.479,63.202,78.489,32.622,88.319,88.666,99.468,91.192,73.286,103.595,85.262,103.487,101.488,12.111,-127.137
2.130239599966444,139.139,120.764,-545.941,-128.3,54.356,115.183,20.607,-8.73,8.687,65.006,83.142,157.285,59.52,12.814,184.499,71.336,89.681,45.397,100.526,103.946,110.639,102.883,82.434,117.323,85.689,112.605,106.51,18.247,-111.128
2.1452135000145063,142.586,127.815,-544.37,-121.0,61.986,119.167,27.246,-4.623,15.338,69.551,87.669,164.3,65.608,9.727,187.901,74.339,87.542,43.303,109.647,106.404,115.139,106.367,85.938,126.94,103.022,121.714,116.137,40.77,-129.972
2.160328199970536,126.561,112.83,-563.294,-119.342,51.678,108.801,-5.057,-9.229,12.761,60.26,73.75,150.816,53.759,-7.701,177.467,59.407,76.184,26.353,89.045,87.342,97.605,90.379,73.044,103.759,94.722,102.636,100.139,26.897,-162.118
2.1603899999754503,114.14,99.91,-578.1,-126.395,44.966,104.594,-18.372,-10.756,9.675,54.052,66.503,141.956,47.558,-14.865,171.142,47.565,77.133,19.667,73.587,79.058,85.725,76.968,64.774,90.335,71.061,87.165,85.182,0.742,-170.152
2.1604260000167415,119.148,104.933,-565.738,-128.83,53.631,113.199,-2.984,-2.036,15.813,61.683,74.122,153.597,58.269,-7.166,177.118,51.616,80.129,31.943,84.272,84.614,93.836,80.478,69.833,106.639,72.527,98.348,98.417,7.914,-142.83
2.1753421999746934,119.029,102.266,-551.853,-136.386,53.577,107.962,-11.178,-7.67,10.674,60.084,69.949,150.882,56.161,1.551,178.478,50.027,76.975,40.108,85.724,83.505,96.304,85.52,72.837,108.581,76.553,103.885,106.003,16.103,-129.367
2.190306300064549,111.226,91.406,-561.547,-144.958,47.376,97.608,-29.61,-18.933,-1.632,48.753,64.756,138.948,43.298,0.012,172.664,39.219,78.435,34.432,75.905,78.811,88.523,78.262,67.641,93.104,64.693,90.974,93.602,4.816,-155.365
2.190371199976653,117.262,96.95,-566.621,-134.055,53.476,106.732,-8.063,-13.791,5.542,57.926,75.962,149.567,50.427,-6.136,175.053,42.253,79.894,34.91,82.489,83.855,92.533,75.623,65.012,95.572,67.19,90.37,94.021,9.422,-170.579
2.2096117000328377,131.489,110.173,-554.271,-124.699,60.083,118.409,13.974,-7.117,18.856,73.75,86.132,162.225,66.258,-1.006,184.612,52.969,79.814,43.584,93.677,97.603,105.248,89.379,72.119,105.21,80.955,102.575,109.808,16.585,-142.232
2.2096776000689715,131.358,105.964,-558.84,-139.432,57.973,111.118,-9.094,-12.745,11.153,63.43,81.948,154.891,62.093,3.605,180.841,47.281,79.734,42.516,92.047,100.067,104.118,94.413,75.121,102.031,79.85,105.547,112.772,3.761,-134.405
2.2240277000237256,123.542,97.149,-571.089,-144.415,54.842,100.248,-33.675,-16.319,-0.129,49.022,73.156,146.027,48.711,-13.817,162.217,33.914,72.482,28.129,85.295,88.696,93.768,83.56,69.41,101.929,68.499,98.781,105.999,6.831,-166.034
2.2240920000476763,125.468,102.687,-555.148,-125.315,53.762,102.71,-28.519,-11.179,4.482,54.608,71.546,148.954,51.224,-23.537,153.346,31.831,68.311,17.855,83.672,89.632,93.674,84.501,67.804,106.95,66.381,98.682,106.918,24.755,-163.306
2.235393900074996,129.953,109.245,-542.298,-120.067,55.245,108.755,-19.781,-8.607,8.063,59.677,79.672,155.465,59.369,-5.07,166.512,35.385,77.464,26.034,87.687,101.326,103.826,93.638,73.371,105.307,79.123,107.293,112.447,22.681,-131.892
2.2514505999861285,133.409,106.061,-555.076,-132.242,57.752,107.109,-12.589,-11.672,4.469,54.494,81.129,155.822,57.261,5.693,182.74,34.325,82.51,41.889,95.284,101.225,110.383,95.081,77.909,107.763,98.511,114.87,117.457,23.683,-136.883
2.251515500014648,137.374,110.054,-550.422,-129.036,55.132,107.002,-6.429,-9.611,8.051,54.952,77.462,154.642,55.154,-0.46,189.729,30.192,81.403,49.532,97.75,98.562,109.76,98.573,78.855,120.975,98.925,118.341,120.926,35.442,-147.505
2.2654234999790788,128.528,110.456,-536.552,-124.809,48.417,109.456,-14.107,-5.503,9.58,57.971,75.847,152.95,54.075,-3.533,183.392,23.502,79.784,43.335,88.943,98.463,101.965,93.863,72.117,116.243,76.797,109.002,113.633,21.574,-140.185
2.2794747999869287,108.419,89.853,-559.581,-140.053,44.783,98.588,-20.24,-15.743,0.861,48.691,63.988,142.551,43.774,-11.727,166.815,10.671,67.922,26.898,77.071,86.069,89.056,74.814,63.335,95.635,58.277,89.937,97.125,1.573,-156.951
2.2795409000245854,108.311,83.103,-580.539,-146.573,47.812,87.731,-8.949,-25.462,-0.165,42.495,56.24,135.749,39.12,-19.4,162.037,3.488,63.755,21.748,77.507,81.373,87.942,76.788,68.395,94.514,65.391,89.847,97.54,13.867,-173.188
2.2947151999687776,128.695,106.587,-555.88,-131.057,56.473,103.013,-4.33,-12.628,10.594,54.235,75.139,146.884,52.913,-7.597,177.244,11.681,79.061,37.095,88.7,95.636,100.662,95.667,78.573,109.277,83.256,109.737,113.324,32.296,-146.887
2.294778599985875,127.541,113.14,-534.831,-119.143,61.54,115.205,-13.547,-1.857,11.096,59.816,83.261,152.372,57.983,-1.442,180.653,15.256,80.519,41.156,87.587,95.54,99.024,86.862,71.834,102.508,78.562,109.628,110.137,26.628,-123.174
2.3095597999636084,108.458,93.047,-545.055,-124.659,50.207,97.159,-20.706,-17.225,-1.211,44.9,62.685,138.388,44.093,-14.76,168.177,-1.153,64.556,20.623,71.617,78.538,84.581,67.308,58.442,82.937,56.967,85.952,93.121,11.745,-139.957
2.309622299973853,105.788,87.831,-547.584,-134.781,40.423,84.767,-27.857,-28.991,-6.845,34.096,55.45,129.54,36.364,-20.893,169.034,-10.374,61.418,10.356,64.886,75.386,84.496,69.802,59.409,85.928,56.398,81.255,93.028,9.684,-165.945
2.3245586999692023,116.953,100.551,-536.79,-130.548,50.629,95.44,-29.366,-18.203,-1.203,41.235,66.665,135.558,40.939,-16.774,182.185,-1.654,66.48,23.154,72.506,82.483,93.633,81.515,67.034,102.749,69.661,98.592,108.304,28.117,-165.266
2.3394987999927253,125.033,110.696,-536.766,-113.511,64.923,105.079,-13.968,-4.865,5.971,50.927,73.771,142.082,48.582,-12.146,191.224,6.032,67.438,35.938,80.63,89.573,98.15,86.557,70.553,106.744,69.592,108.228,117.93,42.946,-144.609
2.3395551000721753,129.519,112.635,-535.204,-106.225,63.321,108.048,-4.732,-2.811,12.625,57.024,79.333,147.063,56.218,-2.913,196.668,10.125,72.494,38.976,85.672,95.119,100.614,87.495,70.995,103.051,66.448,104.533,116.275,33.681,-135.755
2.3395965000381693,126.316,105.862,-530.571,-114.828,56.086,108.452,-19.072,-8.443,12.1,57.479,77.716,146.916,56.674,0.676,185.713,12.676,74.983,36.375,85.587,93.487,97.952,85.87,70.924,102.436,69.456,99.818,108.986,27.5,-145.865
2.3546237000264227,117.993,99.608,-543.36,-120.861,54.493,100.147,-27.762,-15.607,2.354,48.713,68.929,140.622,47.908,-7.521,153.252,7.028,68.248,34.29,82.94,94.93,92.218,85.272,70.34,99.26,67.849,97.669,103.242,39.768,-156.99
2.3546891000587493,119.411,95.41,-551.014,-119.716,58.536,93.386,-19.538,-20.202,-2.771,41.492,69.885,140.481,42.737,-12.125,120.823,4.459,66.642,34.256,82.344,105.594,92.126,83.138,70.27,89.939,65.732,90.399,99.04,42.802,-162.469
2.3696325999917462,119.804,86.093,-534.581,-121.645,58.478,92.781,-20.543,-19.158,-0.719,41.962,73.401,142.39,46.281,-5.965,120.19,7.529,72.723,36.271,80.725,102.414,89.472,75.882,66.614,84.726,67.203,80.575,93.306,25.853,-153.597
2.369696000008844,108.414,82.934,-527.386,-128.183,49.198,88.077,-31.793,-15.552,-0.719,42.433,66.156,135.075,48.796,3.263,152.858,2.398,77.774,39.82,80.132,89.504,85.797,75.806,66.035,93.35,65.599,85.617,91.675,16.606,-133.976
2.3849514999892563,104.207,90.023,-537.105,-124.981,46.075,84.403,-29.2,-15.024,-1.23,39.316,60.966,129.305,42.6,2.747,185.492,-3.24,74.622,40.805,84.663,89.927,91.859,85.464,73.141,108.114,66.046,102.438,94.145,29.397,-138.965
2.399604900041595,105.127,86.859,-543.74,-114.61,50.127,84.831,-27.121,-20.645,-2.766,32.105,56.807,123.028,33.335,-14.674,160.716,-6.823,63.789,31.543,79.455,87.275,87.668,80.768,71.019,100.321,68.541,99.261,87.391,39.613,-170.077
2.3996674000518396,91.702,72.428,-557.541,-119.619,41.368,77.061,-39.902,-25.747,-9.423,22.339,45.992,107.023,28.179,-26.442,150.309,-19.623,53.479,19.216,59.396,66.183,68.113,59.17,54.041,74.093,58.227,74.059,72.447,22.155,-183.226
2.4146015000296757,86.487,68.769,-564.668,-132.307,33.13,74.423,-29.103,-24.185,-9.414,22.829,46.458,100.769,29.176,-16.17,171.676,-23.19,53.938,18.172,54.213,63.043,68.045,55.013,50.401,68.896,44.848,67.837,70.837,8.301,-174.334
2.416319900075905,104.332,82.02,-535.414,-124.49,45.904,88.181,1.152,-20.062,-1.207,35.101,60.756,113.988,37.343,-6.932,181.238,-5.748,60.544,24.814,73.627,83.985,87.957,76.475,66.745,88.295,56.587,87.749,86.648,32.371,-163.401
2.429760199971497,117.035,92.697,-508.239,-105.41,56.104,96.802,-8.071,-15.943,1.355,43.263,69.405,124.12,48.577,-7.437,187.717,7.065,66.119,31.961,86.873,92.61,95.041,90.23,76.412,99.477,80.609,102.006,96.295,56.417,-149.918
2.429824599996209,115.893,97.215,-513.366,-98.132,55.024,98.242,-32.141,-8.755,3.915,47.318,73.434,126.045,53.139,1.279,206.485,8.083,74.25,41.151,84.224,88.931,92.384,87.579,73.262,100.402,83.602,101.904,96.711,51.238,-141.571
2.4447102000704035,118.339,100.704,-520.537,-93.423,55.993,102.242,-22.887,-3.623,10.572,49.833,77.459,127.456,53.598,7.938,208.327,9.612,75.712,42.647,84.14,88.843,93.317,85.442,71.651,101.327,70.198,98.729,99.688,41.453,-149.114
2.4447756999870762,111.561,91.894,-523.603,-95.379,50.814,92.918,-24.914,-13.354,2.876,40.049,67.135,115.033,49.958,-5.39,190.188,1.405,63.341,28.26,77.908,83.118,86.051,79.209,68.506,92.004,63.98,91.458,91.904,32.702,-155.625
2.4597377000609413,93.518,75.92,-534.35,-112.702,40.517,74.895,-49.48,-29.734,-11.983,24.127,50.674,97.5,39.15,-16.655,175.653,-12.941,52.519,17.473,65.023,71.764,76.744,70.42,61.265,80.129,64.429,83.681,79.517,27.546,-160.08
2.4597990000620484,95.986,81.48,-533.816,-112.59,45.088,79.43,-31.499,-22.532,-4.799,29.226,57.284,103.037,40.135,-3.831,172.916,-6.78,61.688,30.775,74.692,77.84,83.839,78.547,64.278,88.246,66.413,90.258,87.122,44.937,-170.678
2.4747547999722883,115.87,97.28,-523.548,-93.009,57.85,94.208,-2.266,-4.579,9.55,45.591,73.62,115.23,53.415,15.128,178.379,11.669,76.484,46.114,93.06,92.619,95.026,88.202,75.996,99.428,73.519,98.877,97.793,58.724,-174.094
2.4766156000550836,111.656,90.523,-524.049,-92.404,58.305,91.04,-24.806,-10.209,2.881,41.447,68.423,103.331,49.263,12.551,180.762,10.633,73.333,40.432,83.233,89.965,88.783,79.917,74.896,91.132,74.983,93.143,88.986,45.858,-168.284
2.489816299988888,97.2,80.186,-524.038,-101.021,52.099,82.24,-38.101,-20.958,-8.393,30.135,58.621,89.396,36.919,-1.806,180.069,1.401,61.989,32.707,69.83,79.629,79.473,76.251,66.624,83.356,70.297,87.414,85.311,44.787,-155.821
2.489881300018169,105.812,89.327,-514.804,-89.137,55.12,88.305,-5.787,-10.178,1.862,42.4,69.321,100.577,48.153,1.27,189.623,11.646,67.05,38.31,83.592,87.746,88.103,89.495,71.168,98.13,79.448,97.573,99.058,61.137,-131.586
2.5052128999959677,114.415,91.799,-508.654,-83.412,59.676,99.488,-3.732,3.664,14.667,56.19,77.961,110.21,60.912,13.052,196.093,27.003,79.279,43.395,92.73,97.905,96.212,91.967,78.269,109.814,90.127,105.16,104.594,57.489,-134.529
2.5052801000420004,97.395,74.289,-515.318,-98.186,51.419,95.29,-36.004,1.611,8.505,45.375,64.563,95.756,48.556,7.403,186.163,18.779,68.953,37.716,76.756,83.462,80.746,74.969,68.969,95.36,72.619,93.272,94.756,37.452,-166.67
2.5197971999878064,76.805,57.309,-531.196,-104.235,38.56,77.776,-31.869,-14.784,-7.897,27.911,47.592,73.118,32.113,-5.412,177.78,-2.244,48.392,24.358,58.236,57.763,60.685,61.574,54.044,74.772,45.906,74.223,82.366,26.144,-184.946
2.519857699982822,69.556,52.128,-531.69,-101.057,36.472,66.427,-10.321,-31.676,-17.623,18.662,41.397,62.287,25.421,-7.968,181.701,-6.34,47.319,15.112,54.08,50.021,60.112,62.537,51.428,70.599,42.274,67.489,75.111,26.117,-166.83
2.534806500072591,73.072,61.81,-509.129,-96.345,41.559,70.459,-28.241,-28.058,-15.556,19.156,45.454,65.298,28.47,-5.911,189.716,5.449,60.079,25.856,63.759,63.803,68.761,69.134,61.11,79.75,54.527,74.593,80.671,34.288,-163.59
2.53655079996679,86.832,76.093,-497.861,-81.904,46.128,78.586,-38.971,-12.148,-6.832,27.846,54.118,73.43,40.737,3.317,200.285,20.301,68.216,44.785,78.552,75.01,73.816,77.262,69.759,87.355,71.379,85.277,91.349,43.475,-165.988
2.5498864999972284,87.257,71.918,-513.757,-75.675,46.594,77.483,-14.854,-14.698,-5.288,27.818,52.014,71.82,44.282,12.023,201.109,24.891,68.66,42.179,77.962,68.788,73.742,77.697,68.664,83.169,82.066,86.729,86.647,50.604,-160.186
2.549950600019656,66.165,53.916,-531.686,-92.505,37.839,65.11,-28.671,-25.954,-12.967,12.933,36.081,54.329,27.332,-4.895,185.538,13.083,57.833,25.231,62.514,57.448,62.397,64.299,58.349,68.741,62.004,72.298,72.728,49.529,-171.809
2.56485690001864,58.927,46.177,-537.815,-99.585,31.653,59.409,-60.918,-24.391,-17.565,8.309,32.459,43.517,17.058,-23.334,178.693,5.386,45.48,21.619,54.255,54.829,52.089,55.013,48.045,60.988,30.179,58.905,71.631,34.623,-176.76
2.5798439000500366,77.823,56.377,-527.031,-83.092,42.38,68.571,-35.242,-17.706,-10.887,23.158,48.82,56.793,30.361,-4.867,193.883,23.311,53.631,31.844,61.373,61.434,63.82,64.18,51.071,70.661,37.833,69.093,81.805,22.293,-155.067
2.579904400045052,89.016,70.153,-503.45,-73.787,55.145,77.724,-2.419,-12.566,-1.655,34.406,60.554,71.593,45.7,21.778,205.473,43.78,72.533,40.521,73.607,73.156,79.638,74.362,63.315,83.398,65.972,86.442,88.896,28.93,-155.424
2.5948860000353307,78.681,69.571,-497.311,-81.91,50.479,70.987,-20.86,-14.602,-5.239,26.686,53.321,63.837,40.531,17.657,190.923,41.687,68.874,35.357,73.533,72.57,72.898,70.189,63.252,77.679,59.246,82.769,86.245,36.586,-186.519
2.594942700001411,62.721,53.619,-516.281,-92.074,38.133,57.596,-53.114,-29.445,-20.603,11.803,38.924,47.892,25.121,-0.803,168.702,29.862,46.264,22.514,59.115,56.104,56.944,61.922,49.868,62.232,34.596,65.78,74.376,32.451,-199.14
2.6099684999790043,58.56,46.906,-523.962,-89.933,32.972,52.415,-54.598,-34.026,-25.194,6.156,33.761,40.671,22.022,-10.536,166.997,27.783,36.484,22.492,53.933,50.925,55.862,59.811,49.306,60.121,38.148,63.153,70.203,32.418,-179.986
2.610034200013615,66.186,55.056,-512.68,-74.474,35.501,59.023,-43.785,-21.696,-16.459,11.273,40.388,41.143,29.685,-8.477,182.199,34.928,43.62,29.129,65.15,61.12,62.978,64.874,59.503,67.745,53.479,74.873,78.33,36.997,-158.801
2.625382800004445,68.681,61.148,-503.458,-63.129,42.125,65.623,-38.618,-17.576,-12.344,14.335,44.446,44.176,30.168,-0.784,188.165,42.577,48.187,26.539,68.671,63.108,62.915,68.908,61.493,71.264,47.278,81.458,82.35,40.546,-159.667
2.625443800003268,64.002,63.649,-497.319,-63.578,44.132,64.021,-28.333,-19.608,-12.844,10.735,38.766,41.058,23.99,-0.783,185.415,43.047,45.065,24.463,61.942,56.385,58.754,64.228,56.308,72.729,36.984,77.278,80.219,43.579,-175.901
2.640001600026153,62.401,63.585,-500.408,-63.002,39.99,61.395,-31.891,-14.465,-12.831,7.65,34.629,32.82,22.429,-7.954,187.279,38.905,42.458,25.975,58.294,54.279,58.695,59.553,52.666,69.583,37.972,72.078,77.577,40.462,-179.312
2.640063700033352,58.24,52.251,-516.814,-62.427,35.851,60.309,-38.519,-14.451,-16.917,7.642,35.619,30.738,23.943,-8.971,188.628,41.94,44.465,19.802,56.699,53.201,58.124,62.567,53.638,61.316,38.958,71.494,71.352,31.712,-176.571
2.654967700014822,47.423,37.854,-522.444,-70.561,31.717,52.052,-27.722,-22.633,-19.462,7.123,33.022,31.219,22.382,-2.814,181.78,48.558,45.958,18.757,55.618,50.074,53.455,61.48,53.584,56.132,36.358,66.811,66.157,25.02,-188.69
2.6550241999793798,47.376,34.23,-509.114,-79.2,31.685,46.365,-33.842,-26.197,-17.393,4.554,32.989,30.163,20.311,6.922,180.573,50.047,48.473,31.034,55.562,49.511,50.84,54.759,48.407,56.076,37.859,62.134,68.652,24.483,-195.161
2.670096999965608,60.136,43.93,-497.334,-72.973,39.338,55.54,-53.788,-20.023,-15.839,9.16,41.665,38.842,26.951,19.211,191.663,58.706,56.109,36.638,60.63,57.146,56.937,59.315,50.408,59.093,48.579,70.268,76.268,38.291,-188.306
2.6701594999758527,65.199,53.107,-495.812,-58.043,43.397,61.632,-43.488,-15.392,-14.798,16.836,44.697,46.488,36.657,23.802,197.62,70.943,61.689,33.528,69.278,65.286,62.003,67.452,58.042,64.67,55.703,81.469,81.828,52.597,-187.605
2.685080699971877,53.863,44.857,-502.489,-56.448,39.256,50.812,-34.223,-21.012,-15.296,10.671,34.918,35.683,29.961,13.532,183.59,65.749,55.479,31.445,64.086,58.048,55.281,59.7,54.398,64.605,40.278,73.703,75.598,36.151,-183.831
2.685146000003442,45.612,29.955,-503.523,-66.638,38.192,48.2,-49.046,-23.04,-14.768,4.513,31.81,28.475,22.759,3.273,167.524,57.998,46.202,31.414,52.751,50.306,49.591,53.493,49.221,60.954,25.893,63.895,68.862,18.696,-171.352
2.7000671999994665,59.911,40.172,-488.163,-64.01,44.301,65.57,-40.8,-5.599,-3.995,20.902,46.635,45.353,39.642,10.442,173.505,71.26,51.279,34.456,67.043,65.112,62.861,68.296,60.442,68.578,45.847,78.688,80.064,45.318,-173.23
2.700126999989152,75.221,62.673,-468.719,-43.966,49.892,76.263,-25.39,8.751,7.792,36.763,57.859,60.165,54.971,21.19,186.651,87.071,65.572,40.569,85.931,79.392,76.118,82.06,71.14,81.317,65.781,94.491,93.817,74.474,-185.352
2.7150688000256196,65.412,60.049,-464.152,-28.552,51.379,67.477,-41.246,3.107,4.198,24.943,48.067,48.834,43.133,17.07,181.341,80.324,63.458,37.967,73.55,66.505,66.308,72.244,64.409,79.699,54.957,86.712,87.575,60.567,-177.482
2.715128800016828,46.903,41.033,-473.934,-33.647,42.619,56.651,-38.131,-5.605,-6.564,5.962,31.113,31.879,26.696,11.418,168.352,63.337,47.513,25.634,53.496,47.483,48.824,55.266,51.025,64.762,45.681,68.182,70.069,31.305,-163.472
2.730232200003229,37.122,33.82,-488.317,-46.933,28.231,50.447,-14.014,-11.235,-13.218,1.858,24.422,27.236,20.522,14.992,165.622,54.052,45.928,19.461,48.832,38.214,43.652,48.038,41.752,50.865,48.196,55.306,57.191,17.954,-175.604
2.7302904999814928,32.474,35.835,-490.39,-45.349,23.08,47.323,-29.37,-14.81,-17.815,2.368,23.885,29.258,18.965,12.416,167.506,52.973,48.956,19.953,47.246,34.59,43.608,48.503,41.198,48.253,43.537,52.177,57.134,23.059,-193.872
2.7451418000273407,38.077,39.386,-473.506,-34.546,27.668,47.788,-48.296,-10.696,-16.261,2.878,23.349,29.229,21.507,3.694,167.339,53.945,38.661,16.347,46.687,35.58,42.027,49.991,45.255,52.303,38.883,57.248,64.762,37.38,-187.018
2.745211399975233,45.212,44.469,-466.373,-32.462,29.177,49.789,-28.267,-3.001,-11.121,5.437,26.399,31.249,23.535,9.838,169.733,53.891,37.598,11.72,47.152,37.081,42.498,48.916,43.673,52.251,37.82,56.166,64.697,40.929,-180.171
2.7612032999750227,46.703,49.548,-477.689,-26.282,30.173,54.35,-20.554,0.588,-7.012,10.555,30.472,39.414,26.585,24.685,175.198,58.96,54.979,21.442,47.617,40.63,46.041,50.917,42.093,52.198,34.196,53.036,64.12,34.74,-184.089
2.77515800006222,52.804,54.622,-470.552,-13.448,35.778,63.517,-35.391,1.612,-5.98,15.667,34.027,48.084,33.731,26.198,178.609,68.123,57.997,33.204,55.767,49.299,52.143,59.063,51.272,58.294,40.822,61.18,73.79,37.267,-165.974
2.775219100061804,51.214,56.616,-444.466,-15.996,39.84,60.892,-35.355,-0.951,-12.122,12.065,31.432,45.987,29.599,13.876,173.308,62.932,39.496,19.851,58.273,46.175,50.554,59.004,54.807,62.846,46.928,63.681,75.253,38.767,-149.414
2.790125700063072,39.38,50.924,-445.046,-26.226,37.751,47.511,-30.709,-6.073,-17.233,3.344,25.765,40.306,18.811,9.251,166.987,52.623,35.871,6.511,47.456,36.395,43.331,51.772,45.531,59.71,35.611,56.957,68.005,35.654,-174.88
2.792009799974039,47.538,50.361,-463.044,-17.49,38.226,50.538,-25.556,-0.944,-5.945,12.05,31.374,51.536,30.063,24.099,175.017,63.329,54.79,28.021,55.605,48.142,50.972,60.942,49.584,58.113,34.038,63.56,74.085,41.766,-187.513
2.805144799989648,63.372,59.02,-453.359,-3.128,44.335,64.319,-18.87,7.766,6.357,25.87,43.638,68.903,44.377,36.883,187.137,77.61,61.908,41.313,77.067,61.926,64.754,74.714,66.44,67.276,51.423,75.279,82.72,47.872,-158.124
2.805212000035681,54.599,59.985,-438.049,-5.687,42.242,61.694,-37.807,5.197,-3.384,17.647,37.447,64.736,33.574,23.013,181.314,66.261,46.477,16.681,69.817,50.081,57.517,66.954,62.788,75.406,50.859,71.618,77.514,46.287,-150.281
2.820142099983059,39.688,48.655,-454.517,-10.804,31.953,49.849,-63.384,-4.03,-17.213,2.773,21.528,50.839,19.708,3.01,163.202,47.752,34.135,6.418,49.767,35.687,41.578,53.567,46.331,65.597,37.488,60.276,67.703,44.192,-172.673
2.820207600016147,36.574,38.872,-476.092,-7.72,26.798,44.676,-52.05,-8.124,-17.708,2.77,17.408,51.3,21.226,2.495,154.842,44.63,36.662,21.269,48.693,35.651,38.975,50.952,43.723,48.625,38.987,50.481,59.95,38.512,-179.672
2.8351128000067547,35.513,36.784,-469.98,-4.638,27.796,44.631,-28.944,-7.092,-13.591,6.866,20.465,58.421,24.278,10.69,159.81,47.147,41.748,20.223,52.23,35.615,41.497,52.438,47.778,51.65,39.973,46.845,58.866,31.301,-176.931
2.835174800013192,37.014,37.772,-451.58,-10.781,29.305,45.611,-28.403,-5.548,-11.016,3.273,19.42,61.436,23.742,21.437,163.237,46.588,45.293,17.129,50.129,34.043,40.943,52.898,46.705,62.869,31.736,53.97,63.418,28.709,-180.34
2.8501304000383243,34.928,34.66,-444.98,-22.041,28.251,41.979,-42.719,-5.542,-13.055,-2.878,17.351,62.4,20.644,33.199,154.364,40.906,45.76,23.772,47.517,33.496,39.878,50.284,44.609,54.61,31.704,53.916,58.231,24.069,-187.845
2.8518327999627218,30.282,30.527,-447.609,-19.457,24.637,39.888,-59.582,-0.926,-11.505,-0.314,17.846,66.948,21.648,35.215,145.501,38.304,46.739,23.236,47.47,34.487,39.326,47.672,46.614,47.383,40.382,46.69,54.587,26.607,-194.317
2.865203900029883,44.084,39.718,-441.014,1.567,33.834,51.119,-55.937,11.883,1.827,13.519,28.586,80.713,34.946,34.667,155.601,47.487,52.327,25.774,58.693,45.211,47.995,57.87,56.301,62.192,50.075,57.402,69.902,40.925,-174.142
2.8652689000591636,54.799,50.949,-430.327,12.324,46.095,57.216,-23.605,16.482,5.924,16.067,35.218,87.805,37.473,36.682,166.717,48.976,49.714,25.748,64.27,50.289,54.607,64.985,58.807,70.327,52.075,71.177,79.053,42.933,-146.304
2.880665700067766,39.887,43.726,-440.655,-1.521,34.779,43.838,-6.163,-1.466,-11.501,-0.343,23.4,76.959,21.042,23.838,155.791,29.46,35.319,9.329,44.226,34.357,40.721,49.038,45.94,52.326,37.678,56.761,65.654,28.545,-165.625
2.8807293999707326,34.212,36.51,-455.583,-4.081,23.473,39.696,-21.526,-11.198,-16.1,-1.367,14.667,76.369,18.459,12.031,146.926,20.721,33.235,8.295,35.984,27.151,30.946,38.743,38.722,38.441,29.956,39.798,58.416,29.541,-193.124
2.8952169000403956,49.034,50.818,-439.246,17.44,35.233,51.952,-30.214,6.744,0.31,14.003,26.435,92.687,31.761,24.314,160.099,30.434,44.985,25.193,53.879,40.956,41.673,49.975,47.905,49.674,40.684,48.468,66.555,47.955,-178.074
2.8952883000019938,50.522,58.452,-419.339,23.57,37.247,51.9,-26.598,14.934,2.359,14.502,32.044,96.18,31.217,35.561,167.624,25.793,45.964,22.093,54.338,42.452,44.706,54.023,49.394,62.432,39.106,57.128,69.562,57.129,-170.724
2.9102588000241667,35.615,43.024,-438.388,5.616,23.377,39.04,-44.502,-3.524,-14.037,1.167,18.692,85.326,20.939,25.279,153.112,8.861,37.209,10.801,37.377,27.553,31.853,42.699,37.049,50.586,21.137,45.288,60.783,43.751,-193.607
2.911970300017856,25.845,30.173,-460.491,-0.537,23.354,32.341,-58.29,-11.205,-19.146,-6.006,8.94,82.679,16.308,18.594,138.614,1.68,37.172,17.962,34.778,24.963,25.674,34.459,31.376,30.556,19.066,31.923,50.989,22.703,-190.852
2.9253232000628486,31.967,36.291,-444.661,16.882,33.576,38.457,-28.518,1.614,-8.369,-0.877,17.64,90.281,21.414,29.846,140.012,4.239,49.942,29.215,44.99,38.258,33.333,41.597,43.128,41.283,33.904,37.014,55.548,23.193,-167.607
2.925390399992466,48.329,53.673,-417.577,38.382,39.178,50.714,-1.849,13.908,4.447,14.493,31.455,105.047,34.713,40.062,155.242,10.383,59.626,32.772,56.728,47.442,46.619,57.949,56.405,65.321,43.604,55.932,70.35,47.76,-171.025
2.940303400042467,47.769,56.693,-420.233,40.392,39.139,51.175,-23.876,15.431,4.955,17.04,30.911,106.992,35.703,34.387,165.332,6.786,46.759,21.981,53.085,39.71,44.523,55.33,48.152,57.058,42.536,58.95,69.255,55.397,-190.322
2.955346200033091,24.667,34.095,-438.256,18.835,29.366,34.218,-43.32,4.657,-6.833,0.629,15.511,88.954,19.786,18.983,154.409,-14.737,24.683,-0.071,29.978,21.739,25.524,33.757,28.636,31.898,27.636,38.399,54.329,32.8,-193.718
2.9554120000684634,18.495,23.302,-433.207,11.644,23.701,31.11,-30.469,1.066,-9.388,-1.421,9.86,86.303,17.204,13.841,147.082,-23.432,26.707,2.491,26.874,19.668,22.424,33.724,30.144,34.94,14.801,33.75,51.2,28.157,-181.741
2.9704154999926686,35.895,42.747,-410.744,38.785,33.412,45.936,-24.291,18.996,1.38,13.95,22.658,105.685,31.532,24.073,160.767,-11.113,44.099,26.055,48.876,35.53,36.746,53.158,44.971,53.861,27.594,51.647,57.809,48.108,-174.899
2.970480000018142,38.42,48.852,-404.186,52.066,35.427,47.427,-22.73,24.1,5.477,14.96,28.27,108.653,32.012,36.345,166.242,-11.614,46.104,27.053,48.828,38.568,37.222,51.567,46.463,54.831,44.472,51.083,59.288,49.597,-172.675
2.9854118999792263,27.111,32.409,-416.589,33.058,29.244,37.133,-10.924,9.219,1.886,5.212,19.021,101.372,24.808,40.407,155.317,-21.849,38.886,13.706,35.459,28.284,27.451,37.171,40.269,44.018,40.33,36.175,54.618,34.691,-170.453
2.985476000001654,25.547,29.815,-435.128,29.439,30.752,38.12,-16.549,10.747,0.859,3.157,15.415,105.881,25.296,33.706,151.576,-24.388,40.384,16.254,38.497,27.743,26.911,38.159,37.155,39.363,32.605,36.651,48.416,33.631,-183.091
3.0007775999838486,23.472,31.322,-445.451,41.705,26.11,37.058,-32.413,14.322,-3.24,-0.432,15.4,102.189,22.196,24.451,150.399,-33.073,38.294,17.775,40.508,28.74,26.372,38.121,33.531,35.738,26.937,36.614,44.269,36.159,-205.449
3.000855499994941,11.153,16.434,-429.124,28.856,12.252,22.676,-35.967,-4.648,-12.971,-10.166,4.626,89.792,11.928,22.89,139.491,-47.897,29.034,9.048,29.197,18.977,18.661,26.299,30.936,23.919,16.151,22.745,39.614,29.976,-212.416
3.015437399968505,6.531,9.245,-405.641,18.068,13.264,16.506,-42.079,-4.131,-12.958,-10.668,0.523,94.825,14.478,27.99,139.863,-47.337,32.079,12.625,25.581,17.422,15.568,23.199,29.368,18.26,13.574,19.137,35.988,26.359,-206.056
3.0154961000662297,24.968,24.605,-406.26,42.129,29.133,32.883,-35.377,25.587,3.449,6.249,19.478,112.661,31.369,40.257,158.167,-32.945,48.441,25.42,38.363,34.31,27.848,38.545,34.974,33.098,24.831,35.511,48.76,35.555,-188.431
3.0303288999712095,40.825,37.901,-410.977,62.067,37.813,42.584,-11.775,31.197,13.179,19.563,30.217,116.647,37.486,45.852,167.742,-28.301,49.93,20.784,48.059,41.961,40.116,47.728,45.698,48.947,28.392,49.308,62.543,43.716,-166.726
3.030385100049898,22.853,27.104,-410.566,47.66,28.041,24.611,-23.034,9.137,-2.715,2.125,9.182,100.136,16.444,23.777,150.668,-46.204,30.924,1.295,34.691,24.5,24.706,31.287,36.943,36.09,17.093,36.963,47.112,38.037,-180.904
3.0455258999718353,2.338,12.22,-418.865,36.342,13.156,9.217,-46.577,1.955,-18.082,-19.906,-6.196,83.642,0.033,4.286,127.464,-66.65,25.77,-3.317,15.188,8.082,5.214,12.812,20.512,16.586,9.903,15.922,31.183,29.802,-209.412
3.0605000000214204,13.094,18.356,-414.348,51.162,16.729,19.454,-27.575,10.662,-8.842,-10.665,4.056,85.608,10.792,19.138,126.824,-66.071,38.552,1.81,18.247,13.709,13.406,19.46,24.59,20.156,10.918,18.98,37.812,32.846,-197.42
3.060562700033188,14.618,21.924,-405.736,56.234,24.397,19.947,-15.765,7.578,-6.784,-5.019,4.052,86.547,11.806,24.755,130.283,-64.98,35.44,-5.877,25.401,15.745,16.466,25.075,28.664,24.234,6.809,26.133,36.237,30.252,-190.05
3.0754787999903783,-2.815,8.069,-422.749,41.833,13.614,3.533,-35.729,-4.213,-21.634,-21.92,-9.272,77.751,-4.6,10.385,117.858,-73.112,25.158,-8.945,19.228,7.532,2.105,14.292,22.488,17.038,2.704,17.91,26.979,18.951,-213.938
3.075542700011283,5.384,8.574,-427.449,41.791,11.551,10.189,-39.28,5.525,-13.928,-16.263,-0.554,84.333,5.138,25.744,118.252,-67.404,38.965,9.507,24.332,14.184,8.763,19.913,29.637,24.193,11.922,21.991,34.637,25.079,-207.064
3.0755984999705106,14.601,16.25,-414.214,49.946,22.81,24.011,-36.166,22.426,4.017,2.709,10.205,95.52,22.039,45.186,129.917,-60.676,50.709,16.67,30.967,23.392,19.0,30.139,33.194,30.316,17.546,31.19,36.652,38.374,-190.464
3.0894563000183553,-4.882,0.864,-428.657,41.7,10.492,8.618,-44.839,10.62,-7.258,-11.639,-4.149,82.104,9.722,25.161,119.541,-72.911,37.339,4.87,18.641,12.098,5.149,15.764,20.353,15.429,1.647,18.351,23.295,31.163,-217.425
3.1044897000538185,-4.877,-4.26,-439.499,39.609,0.236,0.413,-41.208,-1.173,-17.497,-23.41,-8.244,72.288,3.565,21.55,115.323,-73.863,35.252,10.501,19.647,10.036,4.119,14.212,23.919,13.877,-9.113,15.259,26.346,20.374,-226.429
3.1062067999737337,18.182,16.749,-417.543,55.963,19.703,21.417,-36.556,18.296,0.451,-0.845,11.232,88.61,20.467,53.291,134.163,-56.37,51.098,23.81,35.509,25.908,18.972,31.616,38.239,29.232,3.703,32.15,40.151,27.013,-199.563
3.106252699973993,13.041,16.22,-410.977,58.468,23.27,23.445,-40.106,25.962,3.012,4.279,11.733,91.083,19.934,48.627,130.955,-58.363,41.826,7.393,26.252,21.783,11.781,22.875,29.492,23.568,7.286,28.532,36.525,32.622,-204.487
3.119589600013569,-6.952,-8.387,-418.763,43.041,5.316,-2.707,-29.82,0.833,-19.02,-22.878,-10.308,65.889,-0.578,16.303,106.746,-78.285,10.021,-16.181,6.246,3.319,-1.551,6.458,15.118,10.736,-6.041,12.621,24.193,22.343,-225.287
3.119660299969837,-9.507,-14.014,-415.271,35.313,6.335,-13.462,-34.913,-11.976,-25.661,-31.564,-17.47,55.577,-9.799,11.676,105.102,-82.817,5.4,-10.529,8.801,1.778,1.012,12.6,15.615,12.775,-3.474,10.56,21.608,13.099,-218.401
3.1350164000177756,-7.961,-7.852,-426.639,40.401,9.402,-3.715,-62.543,0.332,-16.926,-19.237,-9.768,65.255,-3.641,29.083,109.095,-77.099,24.35,0.24,13.403,7.924,2.036,11.563,18.161,10.201,3.702,10.037,23.635,11.037,-212.548
3.149605100043118,-7.953,-8.869,-435.433,48.557,1.708,-0.125,-60.431,8.528,-13.835,-14.607,-8.733,63.653,2.51,29.566,94.642,-77.022,24.326,-4.884,9.803,7.916,-2.065,4.891,16.606,3.53,-8.085,8.49,20.538,8.977,-219.507
3.1496682000579312,-4.359,-2.713,-414.506,58.243,8.879,-3.711,-36.804,8.52,-9.723,-15.617,-8.212,58.466,4.044,31.073,82.764,-72.846,16.104,-1.805,14.917,12.007,0.499,13.595,16.077,10.187,-10.126,13.092,19.493,8.968,-214.165
3.1646705999737605,-5.379,0.876,-409.993,62.283,15.018,-3.707,-36.768,6.974,-9.201,-18.675,-7.692,63.018,2.503,35.653,82.169,-69.187,23.261,5.369,16.439,13.532,1.523,14.094,16.573,11.201,2.18,12.054,22.547,11.008,-209.852
3.166521599981934,-16.132,-12.957,-432.124,55.561,3.732,-7.29,-46.465,-1.742,-21.487,-27.366,-17.93,55.783,-4.159,26.396,74.914,-81.414,23.75,-6.419,2.078,-0.826,-10.774,-2.826,11.434,-1.618,-8.581,1.796,14.84,10.485,-229.622
3.17966849997174,-25.337,-19.604,-431.18,51.919,-3.444,-17.016,-45.394,-4.814,-25.052,-30.412,-23.548,42.919,-12.864,28.419,68.692,-91.578,13.992,-16.659,-5.609,-11.072,-18.96,-6.41,6.299,-6.227,-29.577,-4.353,5.091,11.499,-240.151
3.1797388000413775,-20.189,-11.387,-412.306,60.576,0.145,-14.438,-40.737,5.437,-14.781,-22.697,-15.327,51.073,-7.216,43.247,79.894,-81.241,20.126,-11.519,1.569,-1.839,-11.257,2.306,8.342,-1.098,-23.912,-0.25,13.283,12.0,-212.246
3.194686200004071,-13.509,-9.839,-408.307,64.614,3.731,-5.202,-42.746,11.067,-14.253,-20.113,-15.312,57.17,0.476,36.032,91.597,-76.036,25.229,-11.508,2.08,0.724,-7.147,-1.795,7.309,-5.707,-17.228,1.287,18.393,8.914,-196.665
3.1947503000264987,-20.155,-14.952,-414.559,55.328,3.728,-9.295,-53.974,5.933,-21.924,-24.704,-23.493,44.818,-9.771,23.188,83.821,-85.182,13.42,-10.984,-6.119,-12.084,-17.386,-11.014,0.642,-12.361,-28.994,-6.399,7.616,9.929,-226.694
3.2097226000623778,-26.283,-17.499,-422.853,54.248,-3.448,-16.971,-55.457,3.878,-22.414,-28.777,-23.47,41.699,-18.47,26.751,71.954,-88.683,12.382,-3.288,-8.675,-15.658,-23.004,-12.54,0.129,-12.861,-35.625,-15.102,1.973,5.821,-244.911
3.209788699983619,-28.818,-26.191,-427.554,64.44,-9.593,-20.54,-47.205,-0.737,-24.953,-34.896,-25.496,44.219,-15.89,16.99,66.247,-91.668,12.882,-11.994,-11.228,-14.106,-24.005,-16.626,-1.408,-16.435,-36.614,-19.698,0.434,-13.14,-227.76
3.2247034000465646,-30.838,-25.652,-420.466,68.986,-5.484,-26.155,-54.842,-4.322,-28.002,-39.472,-30.593,38.027,-15.874,8.264,69.254,-94.65,3.648,-22.741,-9.68,-15.116,-22.444,-14.56,-1.919,-12.832,-32.479,-15.067,-1.103,-11.59,-218.823
3.2264428000198677,-18.0,-4.622,-401.603,76.09,0.669,-17.419,-60.422,8.49,-18.24,-29.187,-18.267,46.698,-7.661,33.871,88.14,-79.699,14.403,-4.787,7.236,-1.269,-7.565,4.922,12.94,8.185,-11.442,4.416,13.755,21.209,-214.505
3.23976909997873,-14.396,-6.666,-395.566,76.526,-3.943,-9.717,-43.968,9.506,-16.173,-25.059,-13.638,54.848,0.031,46.645,90.614,-77.57,26.684,3.414,10.303,3.856,-6.533,8.503,19.587,9.202,-3.746,7.485,16.302,25.799,-213.266
3.239837000030093,-46.657,-38.935,-424.372,53.908,-18.796,-37.372,-52.121,-16.119,-33.575,-48.6,-40.777,30.715,-20.461,17.909,58.248,-109.255,4.116,-21.18,-19.934,-25.862,-38.802,-23.781,-5.024,-23.083,-28.333,-24.798,-14.965,-6.503,-244.304
3.25588329997845,-67.615,-54.778,-452.636,40.534,-26.974,-56.802,-84.344,-21.738,-40.714,-61.359,-55.081,13.266,-36.323,5.084,41.796,-125.54,-7.159,-33.454,-34.258,-43.255,-52.595,-38.614,-17.314,-37.404,-46.235,-43.729,-27.757,-24.427,-264.04
3.255950800026767,-40.395,-35.255,-437.327,59.449,-18.75,-33.179,-84.26,1.337,-26.841,-40.806,-35.046,31.696,-19.38,22.497,69.418,-108.508,10.779,-19.588,-13.219,-20.67,-28.464,-16.546,1.146,-14.825,-41.578,-23.705,-3.139,-5.959,-244.82
3.2698271999834105,-26.01,-24.974,-415.885,73.222,-7.973,-16.24,-51.388,9.02,-16.568,-26.932,-23.74,45.496,-6.041,28.11,82.669,-99.178,10.768,-18.544,-3.985,-7.842,-19.727,-6.283,8.83,-7.126,-34.877,-8.312,7.11,7.879,-238.94
3.2699031999800354,-37.767,-28.023,-420.592,71.099,-7.452,-26.47,-33.918,4.913,-17.576,-30.492,-29.351,39.815,-9.109,25.52,73.877,-103.177,4.097,-25.698,-15.764,-18.08,-29.441,-14.986,-1.425,-18.902,-28.694,-16.5,-1.606,8.896,-246.898
3.2848990000784397,-35.68,-28.507,-417.098,71.54,-10.007,-29.517,-36.446,7.47,-19.608,-31.998,-30.347,37.214,-10.124,30.105,74.315,-107.685,13.827,-14.401,-17.285,-19.599,-29.411,-15.996,-2.961,-17.858,-25.592,-18.533,-3.654,8.887,-235.38
3.2999318999936804,-30.521,-30.015,-404.385,69.42,-12.558,-28.976,-36.922,3.876,-22.15,-36.065,-31.853,37.177,-12.675,30.588,72.192,-112.188,10.739,-6.702,-11.12,-13.944,-28.357,-14.443,0.629,-10.668,-31.714,-11.855,-4.162,6.316,-222.849
3.2999954000115395,-34.589,-29.985,-407.567,67.301,-10.496,-33.045,-46.619,-0.739,-22.64,-38.078,-32.334,39.701,-13.175,26.971,69.558,-109.002,2.019,-16.429,-8.035,-13.417,-27.817,-13.916,2.677,-6.559,-29.12,-11.843,-4.158,3.236,-218.016
3.314928299980238,-33.017,-27.906,-412.795,73.381,-2.801,-29.938,-63.991,7.459,-18.006,-30.355,-25.641,46.321,-5.99,32.067,78.71,-102.745,12.263,-14.364,-3.416,-11.867,-22.153,-10.829,5.748,-2.454,-22.431,-13.88,-2.105,4.258,-220.359
3.3149932000087574,-39.644,-36.075,-417.505,70.234,-5.872,-32.47,-67.0,8.988,-17.476,-34.935,-30.227,43.201,-6.496,40.232,72.996,-110.839,17.886,-2.566,-8.023,-14.929,-30.328,-18.502,0.107,-12.185,-33.167,-20.014,-12.349,3.741,-246.267
3.329915100010112,-58.048,-49.871,-431.432,57.868,-20.211,-46.782,-64.884,-5.365,-25.655,-49.245,-44.541,32.4,-17.76,36.093,54.48,-126.098,7.11,-14.859,-25.946,-28.746,-47.204,-32.828,-12.701,-30.616,-47.991,-33.314,-25.656,-3.435,-265.488
3.329976200009696,-63.113,-57.506,-442.272,57.298,-25.314,-54.932,-73.529,-16.118,-33.314,-53.294,-50.132,27.244,-27.476,20.688,49.302,-134.169,-3.656,-34.312,-35.142,-38.964,-50.231,-36.382,-16.786,-36.221,-50.505,-43.015,-26.655,-15.727,-254.976
3.3448545000283048,-52.804,-52.838,-443.879,64.926,-20.165,-50.266,-76.017,-10.979,-30.72,-49.655,-46.495,29.266,-24.887,12.982,48.741,-133.522,-7.238,-28.642,-27.934,-32.265,-44.033,-30.198,-11.647,-30.55,-46.868,-37.336,-24.579,-18.785,-248.061
3.344912500004284,-38.919,-33.83,-425.504,74.082,-12.461,-38.433,-61.596,4.913,-16.857,-40.896,-32.104,41.02,-11.03,25.265,45.106,-123.143,3.528,-16.831,-13.05,-13.277,-32.206,-17.36,-3.438,-16.687,-35.038,-20.393,-16.358,1.214,-242.69
3.360050000017509,-24.535,-19.451,-392.291,89.89,-1.69,-24.05,-49.751,16.692,-5.057,-26.51,-17.215,54.811,-0.261,39.584,46.085,-112.773,13.77,-16.301,-3.303,-0.456,-19.366,-3.51,3.738,-1.813,-24.245,-5.515,-0.46,21.705,-227.591
3.3601172000635415,-18.363,-21.481,-391.898,101.071,5.997,-18.903,-49.189,16.675,-6.076,-22.898,-16.686,58.342,-0.773,40.057,42.453,-110.611,8.121,-14.748,-3.299,-0.456,-15.76,-2.994,4.759,-2.836,-29.343,-3.461,5.688,17.585,-230.437
3.3754158000228927,-22.955,-24.021,-419.683,94.309,6.503,-24.007,-50.677,16.658,-7.607,-25.949,-19.743,57.772,-0.772,34.894,29.603,-113.062,5.551,-12.172,-6.37,-1.48,-19.331,-9.139,4.754,-9.493,-33.925,-10.117,-0.465,5.272,-242.502
3.375486299977638,-28.568,-27.071,-414.141,84.994,3.423,-27.057,-52.163,16.129,-6.062,-27.972,-19.723,54.128,-3.333,30.76,16.253,-118.072,9.132,-18.307,-6.876,-0.454,-24.947,-9.642,5.261,-9.484,-31.329,-16.767,-7.125,5.779,-238.673
3.3899766000686213,-30.588,-31.655,-394.771,93.618,-1.704,-29.079,-51.599,10.478,-13.229,-34.092,-26.364,44.852,-11.526,29.705,13.676,-123.077,0.414,-21.875,-8.918,-6.089,-30.045,-12.706,0.645,-13.573,-32.323,-17.263,-9.167,9.871,-233.824
3.390036900062114,-32.095,-23.938,-407.696,102.233,-6.313,-32.636,-48.986,9.443,-22.437,-40.205,-32.997,40.709,-13.564,30.7,24.933,-126.028,-2.661,-17.243,-14.545,-14.28,-29.502,-17.817,-1.404,-18.17,-29.729,-15.708,-4.547,8.837,-238.201
3.4050469000358135,-40.259,-24.427,-420.609,92.397,-9.381,-37.726,-50.986,7.384,-21.902,-42.214,-36.55,39.131,-16.624,26.571,31.056,-133.074,1.441,-18.762,-22.727,-20.925,-35.621,-21.385,-1.915,-17.127,-29.187,-22.865,-7.616,6.779,-249.233
3.4051104000536725,-47.904,-40.796,-407.38,88.207,-10.396,-38.713,-56.57,3.79,-17.782,-41.148,-39.075,34.481,-19.681,19.884,28.463,-136.015,-5.733,-24.891,-24.753,-21.417,-44.806,-27.511,-6.524,-19.671,-38.891,-31.551,-18.879,5.235,-250.521
3.4201133999740705,-34.536,-32.558,-389.042,105.537,-2.701,-26.379,-51.903,18.131,-9.567,-26.762,-24.179,43.668,-7.366,27.037,44.316,-124.608,-4.191,-18.719,-14.483,-10.125,-30.417,-21.336,-2.932,-16.066,-33.217,-22.811,-9.639,11.89,-221.581
3.4201800000155345,-18.107,-11.009,-381.481,113.628,7.036,-16.619,-43.654,29.896,-0.848,-16.489,-11.347,53.871,0.326,39.817,61.178,-119.361,6.06,-12.552,-9.345,-2.942,-15.53,-7.995,2.194,-7.853,-19.864,-7.931,6.764,24.686,-202.917
3.4351396000711247,-30.385,-19.195,-392.882,105.318,-2.193,-30.435,-51.807,12.96,-9.557,-32.354,-27.218,37.936,-14.532,34.654,41.137,-133.073,-3.168,-23.298,-21.631,-14.21,-32.42,-17.208,-6.517,-15.017,-30.603,-14.071,-4.513,21.587,-231.403
3.4352055999916047,-46.748,-32.496,-405.81,104.188,-16.023,-44.237,-68.149,2.701,-21.843,-45.129,-37.949,24.578,-22.202,22.324,22.652,-142.162,-11.874,-27.373,-28.269,-24.442,-45.196,-31.024,-9.072,-19.1,-39.281,-26.864,-18.341,5.172,-243.979
3.4500837000086904,-38.505,-28.365,-397.719,108.182,-8.835,-37.02,-63.983,14.481,-16.185,-36.887,-26.64,33.775,-13.47,26.913,41.073,-135.872,-1.616,-13.001,-20.044,-19.294,-32.855,-18.697,3.233,-8.835,-28.483,-21.714,-9.613,2.605,-222.731
3.4650940999854356,-37.441,-34.996,-396.809,100.389,-4.727,-35.446,-48.549,11.393,-12.583,-37.875,-30.2,34.765,-12.944,35.083,54.352,-133.175,-1.102,-12.988,-15.413,-17.226,-32.31,-9.969,2.205,-11.9,-30.504,-17.082,-9.604,7.213,-234.291
3.465150500065647,-53.286,-49.306,-414.855,90.043,-15.993,-49.243,-57.722,-1.938,-22.817,-47.571,-44.002,23.972,-18.055,26.339,46.101,-140.726,-8.785,-27.32,-22.57,-26.43,-43.548,-24.304,-10.605,-24.696,-44.818,-25.774,-21.889,-2.016,-256.086
3.4651918000308797,-45.548,-41.06,-407.781,98.149,-10.342,-43.558,-75.083,7.797,-15.622,-38.814,-32.687,32.145,-10.864,25.288,57.325,-136.487,-2.629,-20.633,-19.474,-21.281,-33.771,-21.206,-4.447,-15.45,-40.675,-21.65,-14.183,-0.477,-236.874
3.4802141999825835,-18.862,-18.989,-384.319,125.204,11.185,-16.362,-62.713,30.844,5.911,-19.308,-11.65,51.581,5.54,44.73,86.469,-114.833,9.157,-1.657,-2.548,-0.255,-14.782,-1.204,11.951,2.496,-19.63,-0.111,7.348,25.139,-220.756
3.480280500021763,-16.794,-10.774,-381.373,136.862,11.686,-10.198,-46.256,38.497,4.881,-14.678,-9.589,52.554,11.683,44.685,95.604,-110.108,9.66,-1.655,0.016,2.307,-14.767,-2.228,10.402,0.445,-8.339,1.938,7.853,31.774,-226.171
3.4951887000352144,-33.171,-23.57,-383.041,117.257,-2.67,-28.119,-56.456,24.626,-9.981,-26.958,-23.412,34.57,-1.649,21.074,79.115,-130.49,-2.133,-14.973,-16.378,-16.651,-26.535,-16.57,-3.44,-12.876,-24.725,-15.482,-8.549,10.225,-217.235
3.5105766999768093,-38.773,-35.842,-383.682,106.894,-6.253,-32.702,-58.449,15.38,-7.41,-35.64,-30.048,22.753,-12.406,22.078,64.179,-139.581,-9.815,-20.594,-24.559,-24.831,-34.706,-21.164,-10.609,-15.937,-47.242,-23.151,-14.688,3.043,-215.481
3.510640599997714,-42.321,-33.245,-398.668,119.082,-2.149,-29.595,-46.095,23.562,-2.279,-34.068,-28.993,21.705,-10.857,37.937,63.603,-137.392,-9.805,-22.622,-24.534,-24.294,-39.794,-27.291,-12.648,-16.945,-45.145,-27.227,-15.185,3.552,-242.93
3.5252371999667957,-53.549,-40.384,-408.003,116.914,-8.806,-43.91,-53.221,18.928,-14.572,-39.669,-38.698,12.974,-16.993,27.653,62.514,-150.063,-17.48,-32.334,-33.731,-35.028,-46.414,-38.534,-17.758,-32.81,-45.1,-41.544,-25.416,-15.407,-262.155
3.5252999999793246,-58.619,-55.713,-404.521,101.428,-21.093,-56.674,-64.439,1.49,-23.267,-49.363,-47.369,2.715,-29.784,17.892,59.378,-158.622,-23.61,-38.961,-37.796,-39.604,-49.954,-39.521,-19.79,-47.122,-63.498,-45.601,-31.026,-24.101,-254.208
3.5402686999877915,-51.9,-50.534,-403.092,104.912,-19.023,-48.933,-59.251,6.099,-13.51,-46.24,-38.612,8.348,-25.656,32.731,70.589,-148.217,-14.878,-32.775,-28.024,-30.855,-43.244,-29.235,-16.696,-39.902,-59.336,-36.846,-22.286,-9.22,-244.22
3.5419835000066087,-45.188,-36.139,-393.98,119.664,-5.684,-40.174,-59.704,22.487,-5.3,-36.972,-31.401,15.512,-10.261,40.383,86.4,-140.384,-6.666,-19.422,-20.824,-27.238,-35.516,-24.083,-13.093,-29.104,-39.297,-34.76,-18.165,-9.21,-240.39
3.5553425999823958,-41.044,-35.078,-384.877,124.155,-2.092,-35.011,-59.132,26.051,-3.245,-29.763,-29.833,14.984,-2.054,36.756,93.486,-136.145,-3.073,-8.644,-20.291,-24.649,-35.993,-26.62,-9.494,-26.001,-42.844,-38.824,-20.709,-24.058,-232.977
3.555407500010915,-37.417,-36.58,-394.738,119.933,-4.651,-30.878,-52.413,24.488,0.857,-26.147,-24.168,16.506,-2.564,41.843,96.979,-130.886,2.053,-9.148,-17.197,-19.501,-38.006,-25.057,-7.947,-22.389,-54.584,-38.273,-15.565,-26.083,-228.133
3.5703457000199705,-36.355,-36.543,-393.831,117.764,0.989,-33.408,-62.095,24.463,-1.193,-28.683,-23.631,18.539,-6.148,44.362,99.956,-134.854,-2.56,-17.335,-16.667,-20.506,-34.382,-17.347,-7.94,-21.342,-48.894,-35.16,-11.963,-21.959,-233.028
3.5704069000203162,-34.27,-35.482,-375.506,124.306,9.185,-31.326,-64.082,28.537,-0.68,-24.043,-23.095,19.033,-1.018,44.318,102.417,-133.182,-5.119,-15.269,-14.601,-17.924,-31.274,-12.719,-3.321,-19.784,-39.111,-28.465,-10.414,-15.277,-236.381
3.5852938999887556,-33.211,-29.299,-379.742,130.329,6.614,-21.561,-44.55,33.632,5.981,-16.847,-14.875,20.55,5.13,43.249,104.876,-125.364,1.034,-10.643,-11.0,-10.734,-30.73,-15.268,-0.244,-17.202,-36.51,-25.363,-7.33,-6.04,-236.657
3.5853548999875784,-39.838,-33.881,-393.194,125.588,-2.102,-29.736,-44.505,22.328,-1.71,-29.125,-19.471,12.845,-3.584,30.91,95.55,-133.948,-7.164,-22.928,-13.551,-14.31,-33.773,-15.765,-4.342,-23.333,-40.06,-34.047,-10.397,-11.157,-245.642
3.600332000060007,-37.748,-40.507,-383.579,123.926,-1.075,-38.415,-50.609,16.157,-7.343,-34.732,-25.599,9.246,-5.63,32.416,83.159,-136.888,-10.743,-24.954,-8.414,-14.295,-31.178,-10.626,-0.751,-19.723,-37.971,-30.427,-8.337,-18.318,-242.835
3.6020196999888867,-25.415,-27.658,-374.487,129.437,7.123,-26.082,-36.726,34.072,7.521,-19.84,-15.328,19.483,7.696,52.876,86.15,-122.406,6.174,-4.949,3.377,-3.01,-20.901,-4.467,11.032,0.276,-22.564,-14.002,1.918,-6.517,-212.878
3.615422400063835,-33.075,-26.606,-382.821,125.722,-0.057,-27.08,-44.374,34.55,3.927,-29.042,-22.485,11.267,-3.07,45.139,84.527,-131.506,1.045,-9.555,-8.409,-10.18,-28.052,-11.123,4.361,-5.359,-20.492,-22.185,-9.355,-5.486,-202.419
3.6154900999972597,-53.534,-48.096,-394.734,117.399,-15.938,-48.57,-71.482,10.95,-18.106,-54.116,-46.028,-13.848,-28.683,21.527,73.684,-154.94,-20.985,-35.673,-28.893,-27.588,-47.492,-24.944,-12.037,-27.895,-41.476,-45.729,-29.326,-23.411,-232.955
3.630850200075656,-50.406,-45.999,-403.561,122.917,-14.898,-45.448,-65.262,10.426,-13.477,-46.377,-43.421,-11.272,-20.457,32.777,82.319,-151.711,-14.817,-34.1,-21.692,-23.462,-43.346,-24.407,-9.463,-22.744,-48.607,-39.024,-19.563,-22.363,-249.116
3.6309178000083193,-39.598,-27.51,-395.985,133.04,-8.223,-31.058,-50.34,26.81,0.369,-30.961,-28.008,5.645,-2.506,45.552,97.094,-140.801,-2.507,-18.185,-10.912,-14.729,-28.958,-15.161,2.329,-9.914,-33.701,-21.566,-6.735,-10.045,-232.986
3.6454362999647856,-46.73,-32.093,-380.22,135.469,-14.362,-38.199,-56.438,24.221,-6.292,-39.127,-32.079,-2.557,-12.237,31.161,89.824,-148.857,-9.164,-21.24,-21.659,-23.936,-40.712,-21.293,-0.747,-16.564,-25.471,-28.717,-17.999,-11.06,-227.117
3.6455003999872133,-57.442,-43.332,-380.864,135.845,-19.983,-48.407,-49.721,12.414,-11.921,-48.822,-44.342,-17.924,-25.545,25.495,77.952,-159.467,-14.278,-29.416,-33.933,-35.695,-55.528,-35.617,-9.968,-23.72,-32.105,-43.033,-26.691,-15.659,-236.624
3.660412000026554,-59.946,-42.776,-380.995,132.123,-17.402,-50.408,-39.425,9.328,-9.86,-51.335,-48.396,-19.443,-26.032,29.568,76.849,-160.844,-12.214,-27.85,-35.436,-36.684,-51.374,-38.143,-12.007,-26.258,-41.807,-45.551,-25.127,-18.718,-234.85
3.6622436000034213,-52.201,-38.635,-369.344,125.331,-12.773,-50.869,-53.218,15.466,-8.825,-48.21,-40.663,-14.3,-21.907,33.124,83.944,-151.974,-5.03,-17.576,-25.667,-27.426,-43.638,-27.346,-7.896,-22.645,-43.814,-37.309,-22.54,-18.699,-219.759
3.675523000070825,-33.706,-25.789,-367.437,134.94,-3.027,-38.011,-57.776,29.795,1.43,-33.817,-25.765,-4.552,-9.59,44.362,102.304,-136.453,9.32,-5.263,-8.735,-11.004,-31.299,-10.925,2.87,-5.716,-30.963,-18.828,-8.685,-2.799,-204.682
3.6755913000088185,-25.988,-11.931,-359.898,155.81,3.636,-21.067,-35.689,41.036,11.162,-25.586,-20.617,1.088,1.691,43.293,114.497,-132.73,7.773,-9.868,-3.091,-5.358,-17.436,-3.229,9.527,2.999,-16.075,-9.076,1.569,9.5,-191.67
3.689501899993047,-35.183,-15.505,-344.681,159.752,-0.978,-23.607,-22.845,39.458,9.102,-28.122,-25.207,-1.987,-2.41,26.856,107.722,-138.745,-7.091,-26.252,-10.26,-13.037,-25.615,-10.911,2.858,-3.664,-17.083,-20.85,-6.629,2.318,-185.33
3.704418000066653,-43.857,-26.76,-359.705,150.883,-10.199,-36.391,-31.532,31.222,3.457,-31.68,-32.866,-9.158,-10.604,27.854,97.881,-146.804,-11.695,-30.837,-17.422,-21.734,-42.496,-21.658,-4.318,-9.808,-25.263,-31.587,-17.381,-2.808,-207.686
3.7044761000433937,-57.646,-40.566,-383.936,139.974,-24.021,-47.626,-44.308,19.408,-4.743,-43.944,-47.178,-20.419,-16.741,32.437,88.049,-159.465,-14.757,-33.367,-25.602,-32.47,-47.576,-28.297,-7.899,-20.045,-32.923,-35.142,-25.56,-11.514,-239.754
3.719513399992138,-69.884,-58.968,-382.016,124.977,-32.194,-53.213,-53.485,12.216,-9.349,-51.072,-53.278,-27.571,-20.823,26.769,79.764,-161.867,-17.304,-38.457,-28.65,-38.585,-49.066,-31.342,-11.99,-27.197,-42.624,-43.816,-32.707,-35.069,-236.953
3.719571699970402,-59.568,-58.397,-381.634,119.217,-22.428,-45.476,-55.481,19.376,-0.631,-37.189,-39.905,-18.322,-12.093,34.427,89.418,-151.971,-8.577,-31.759,-22.474,-27.276,-46.455,-29.262,-9.929,-19.998,-42.581,-45.821,-29.088,-43.743,-209.564
3.7345898000057787,-52.848,-43.994,-391.498,128.831,-18.819,-40.307,-54.401,23.968,3.469,-34.59,-34.742,-12.668,-4.908,43.101,95.989,-150.794,-7.032,-21.993,-23.988,-21.613,-42.822,-27.695,-10.431,-23.564,-36.903,-40.652,-26.498,-30.379,-231.896
3.7346506000030786,-64.578,-45.487,-392.644,130.752,-30.071,-50.513,-54.859,14.21,-6.269,-47.875,-47.003,-24.951,-14.125,32.3,80.011,-158.328,-16.759,-25.045,-32.673,-35.424,-48.415,-34.328,-18.618,-36.348,-48.649,-44.71,-33.131,-24.713,-263.427
3.7495643000584096,-61.952,-50.052,-394.3,126.522,-25.943,-55.073,-50.193,12.659,-9.336,-45.266,-47.468,-32.098,-21.283,27.657,73.271,-158.682,-12.131,-31.68,-31.104,-36.413,-50.416,-38.392,-18.599,-32.725,-59.359,-48.252,-33.098,-27.762,-237.036
3.749628399964422,-49.595,-39.756,-383.66,132.544,-13.621,-46.309,-42.97,21.355,-4.716,-39.073,-37.174,-25.406,-15.114,36.851,87.542,-152.888,-0.848,-27.55,-22.876,-23.569,-41.656,-29.644,-10.384,-25.008,-43.93,-40.007,-24.356,-22.612,-204.523
3.7656428000191227,-47.496,-27.933,-350.488,142.657,-13.095,-40.115,-43.44,24.92,-1.125,-40.059,-33.039,-20.258,-9.464,43.474,99.75,-143.001,3.251,-14.202,-14.656,-18.423,-33.93,-17.832,-3.713,-18.835,-24.419,-30.233,-17.159,-9.781,-205.343
3.765704600024037,-38.739,-19.196,-341.429,152.248,-7.447,-34.952,-45.446,28.993,5.023,-30.285,-28.907,-19.725,-7.917,43.943,103.237,-136.198,4.272,-11.626,-9.518,-14.306,-30.822,-14.74,1.414,-6.009,-26.956,-23.542,-10.994,-0.038,-205.138
3.779634700040333,-30.504,-16.615,-366.19,155.17,-0.267,-29.281,-43.351,32.038,6.043,-26.668,-27.342,-24.316,-10.471,29.042,100.06,-142.21,-7.003,-28.009,-19.755,-16.341,-32.84,-20.873,-4.223,-10.101,-38.712,-24.031,-12.008,-1.575,-209.031
3.7797029999783263,-41.744,-26.332,-374.021,142.719,-9.488,-36.424,-44.332,23.297,-1.648,-38.425,-34.486,-35.05,-15.071,12.619,93.299,-149.752,-24.926,-40.276,-34.08,-30.669,-42.541,-29.561,-16.002,-25.973,-43.796,-33.741,-20.705,-8.745,-223.167
3.794680400053039,-49.387,-33.991,-368.524,132.331,-19.213,-47.146,-51.972,15.589,-2.158,-41.972,-39.575,-39.114,-15.569,24.389,88.083,-148.578,-20.803,-40.236,-30.459,-32.175,-44.548,-32.093,-12.4,-24.922,-41.191,-38.83,-25.295,-10.786,-220.382
3.7947422000579536,-49.337,-38.568,-377.889,133.735,-21.243,-50.173,-63.191,17.11,-0.619,-40.906,-43.122,-42.149,-15.041,39.734,78.773,-145.868,-8.487,-36.609,-26.843,-25.483,-43.479,-33.598,-8.289,-26.434,-40.125,-41.865,-28.856,-19.997,-216.063
3.8096854999894276,-55.948,-46.726,-383.659,134.114,-22.246,-51.148,-63.128,20.167,-3.692,-43.939,-44.615,-47.23,-15.026,38.158,73.059,-142.136,-6.941,-23.253,-33.476,-29.044,-48.559,-35.614,-15.453,-36.142,-42.134,-48.996,-32.413,-30.223,-222.507
3.824750400031917,-52.306,-41.044,-372.005,141.152,-16.589,-47.51,-45.134,22.196,0.922,-39.284,-35.349,-45.645,-9.375,42.73,76.06,-136.358,0.238,-12.471,-26.782,-25.428,-43.899,-29.943,-11.851,-25.859,-40.043,-43.824,-26.233,-20.459,-219.723
3.8248154000611976,-48.155,-35.88,-369.071,147.671,-18.109,-50.537,-47.138,14.489,-1.128,-43.855,-38.388,-52.26,-15.001,43.712,60.615,-140.32,4.336,-21.68,-19.071,-20.792,-39.757,-29.913,-8.253,-20.71,-41.54,-38.145,-26.719,-13.266,-224.627
3.824858000036329,-68.599,-56.336,-382.534,133.691,-32.948,-71.491,-77.83,-1.407,-20.595,-65.329,-62.428,-78.847,-35.479,26.762,29.816,-154.525,-11.55,-31.905,-33.909,-36.141,-57.136,-45.252,-24.127,-41.182,-55.843,-55.525,-45.136,-30.159,-236.697
3.839674200047739,-78.777,-67.551,-385.738,120.237,-35.989,-79.616,-75.703,-4.991,-25.185,-68.849,-65.952,-89.015,-37.492,27.248,29.786,-157.956,-15.124,-29.311,-42.072,-42.765,-65.788,-48.793,-27.176,-44.727,-62.447,-63.666,-52.775,-40.375,-221.091
3.8397336000343785,-58.718,-52.626,-374.594,132.412,-26.731,-63.143,-42.839,3.723,-9.278,-52.899,-48.467,-74.069,-20.549,43.614,52.81,-144.991,3.846,-24.671,-28.197,-27.353,-50.353,-34.912,-12.292,-29.313,-50.089,-45.672,-40.939,-31.113,-210.112
3.8548005999764428,-53.536,-50.012,-379.854,142.526,-26.704,-56.932,-44.333,4.744,-9.269,-51.821,-47.906,-77.069,-20.528,38.96,49.171,-136.649,4.355,-24.134,-26.632,-27.838,-49.278,-35.901,-13.305,-34.407,-42.355,-42.552,-37.825,-27.496,-242.177
3.8697737000184134,-69.877,-62.77,-400.992,128.039,-31.288,-67.121,-76.564,-0.384,-20.53,-60.991,-57.08,-95.435,-32.803,27.138,30.679,-141.635,-11.019,-32.819,-40.95,-40.105,-63.573,-49.186,-24.05,-47.692,-51.021,-57.879,-46.496,-33.616,-257.816
3.885127200046554,-73.393,-66.805,-402.64,114.078,-32.282,-69.103,-84.172,1.153,-17.948,-60.418,-57.023,-96.876,-30.721,26.598,31.16,-146.104,-14.082,-43.032,-42.446,-35.966,-64.022,-50.161,-25.05,-43.546,-64.803,-58.846,-51.06,-39.73,-235.017
3.885187500040047,-65.635,-60.591,-384.819,125.235,-30.2,-61.862,-63.084,7.3,-7.684,-51.136,-53.38,-90.632,-16.858,26.06,43.425,-137.761,-8.945,-33.768,-30.621,-26.197,-53.199,-39.865,-18.878,-32.744,-63.201,-49.053,-43.837,-35.079,-225.561
3.8852406999794766,-55.835,-47.21,-369.065,146.627,-24.535,-53.603,-50.213,16.514,2.057,-40.839,-44.617,-93.102,-6.595,33.718,54.14,-122.254,-3.3,-15.291,-22.393,-20.023,-42.388,-29.579,-10.15,-25.027,-41.109,-40.295,-30.473,-23.261,-218.163
3.899760300060734,-47.583,-41.015,-363.573,143.919,-19.387,-50.988,-43.503,20.084,5.129,-40.798,-38.425,-97.62,-6.076,49.054,58.696,-114.96,3.363,-12.202,-21.346,-15.392,-40.296,-30.061,-10.652,-25.514,-32.87,-37.693,-30.443,-27.849,-201.038
3.899817300029099,-58.806,-54.807,-381.652,122.77,-22.441,-64.257,-44.484,7.768,-7.684,-53.565,-50.682,-112.379,-18.365,44.906,48.391,-128.165,-4.325,-26.022,-34.645,-26.647,-56.65,-48.474,-25.498,-43.932,-58.965,-54.049,-47.831,-45.752,-224.916
3.91484019998461,-68.481,-58.85,-405.349,126.746,-24.981,-70.34,-58.271,-1.461,-16.898,-57.61,-58.316,-130.71,-27.056,30.517,38.097,-141.356,-13.542,-36.754,-46.393,-37.892,-65.814,-56.111,-32.132,-56.695,-68.64,-65.266,-51.881,-41.607,-256.966
3.9165470000589266,-51.506,-38.811,-392.648,151.722,-17.271,-52.339,-65.898,12.885,-5.61,-44.744,-43.401,-129.042,-18.832,33.56,52.403,-127.383,-2.258,-26.984,-32.002,-22.484,-47.818,-36.587,-17.243,-40.757,-44.493,-42.659,-33.899,-19.537,-232.631
3.929893000051379,-43.258,-36.211,-370.739,150.034,-10.594,-47.676,-66.857,22.094,-2.018,-40.089,-37.209,-125.84,-12.153,40.186,67.208,-112.399,5.941,-13.637,-18.138,-12.728,-39.573,-27.329,-10.054,-23.298,-47.01,-26.735,-28.229,-17.468,-209.344
3.92995730007533,-59.608,-58.716,-382.151,126.83,-19.292,-68.121,-68.839,6.702,-12.775,-52.856,-51.005,-143.132,-23.924,40.146,60.993,-123.557,-2.774,-21.82,-27.341,-25.523,-52.854,-39.084,-20.802,-31.984,-69.505,-40.54,-38.959,-34.869,-234.238
3.9448808999732137,-61.598,-61.731,-387.404,119.018,-27.47,-69.589,-54.938,1.573,-8.663,-53.828,-51.978,-149.137,-24.413,47.791,61.957,-124.458,2.864,-26.921,-24.24,-24.473,-48.702,-37.508,-21.806,-40.149,-55.091,-45.111,-40.457,-36.371,-232.467
3.9449422999750823,-50.778,-48.862,-371.647,120.436,-19.758,-52.614,-41.563,13.354,3.641,-40.967,-38.094,-141.303,-7.994,48.767,75.727,-111.013,11.571,-17.673,-11.408,-12.665,-36.358,-28.762,-12.05,-31.912,-34.543,-36.356,-34.782,-19.428,-207.644
3.9599231000756845,-53.289,-49.325,-382.547,123.39,-16.664,-53.586,-53.304,10.779,0.563,-41.438,-39.08,-153.457,-13.622,31.3,74.627,-118.587,-6.372,-26.364,-26.254,-21.874,-46.056,-35.393,-16.137,-30.855,-46.804,-40.418,-35.771,-18.897,-225.879
3.959986599977128,-50.162,-47.227,-391.898,138.635,-21.258,-53.532,-57.862,11.281,0.05,-43.958,-41.603,-165.599,-23.342,28.195,73.527,-123.592,-14.562,-33.51,-33.912,-24.414,-49.083,-35.87,-19.707,-33.386,-50.343,-38.841,-33.174,-29.636,-229.752
3.974944500019774,-38.841,-37.958,-370.501,143.62,-15.602,-39.646,-45.509,24.589,7.735,-34.18,-30.29,-159.286,-9.999,40.975,84.212,-108.099,-0.203,-19.645,-17.997,-10.557,-35.714,-25.588,-10.466,-25.156,-40.047,-26.507,-26.481,-22.434,-199.296
3.9900251000653952,-50.073,-49.703,-381.402,124.008,-17.635,-48.316,-54.685,12.269,-2.007,-37.732,-37.432,-171.422,-11.526,29.663,75.419,-115.675,-9.937,-29.359,-27.2,-19.768,-46.437,-37.345,-16.091,-33.84,-52.302,-35.702,-35.164,-22.924,-229.323
3.990091499988921,-62.83,-67.072,-413.296,117.224,-30.938,-68.248,-75.122,-5.674,-14.3,-52.551,-54.813,-193.792,-29.957,13.752,55.363,-133.49,-24.784,-48.797,-47.153,-36.142,-62.784,-52.165,-31.444,-52.249,-69.668,-52.572,-48.449,-42.881,-261.369
3.9901342999655753,-50.984,-59.833,-402.636,128.378,-27.833,-61.519,-72.486,9.701,-6.601,-48.4,-44.513,-192.061,-23.267,30.644,56.845,-122.598,-10.414,-34.916,-35.323,-25.348,-50.939,-41.867,-24.752,-41.95,-67.549,-45.347,-44.302,-40.789,-228.832
4.0053879000479355,-48.372,-53.113,-369.446,124.663,-19.608,-59.921,-57.556,13.79,-3.008,-44.254,-36.271,-191.869,-15.559,41.372,62.424,-115.816,-4.256,-26.172,-26.066,-15.588,-44.228,-33.115,-13.969,-26.027,-58.26,-36.08,-38.11,-25.891,-200.939
4.005450800061226,-59.082,-57.67,-374.712,115.317,-23.687,-70.619,-47.252,-6.204,-10.178,-50.357,-47.506,-202.948,-24.765,29.035,66.972,-121.848,-11.937,-35.367,-28.601,-19.159,-47.257,-35.644,-14.98,-29.587,-44.37,-37.581,-40.121,-26.89,-223.791
4.019980499986559,-43.141,-44.805,-387.145,129.547,-12.393,-50.569,-41.57,9.684,0.591,-34.425,-34.138,-193.524,-11.933,42.326,86.373,-105.844,3.445,-16.889,-11.667,-4.795,-30.304,-20.751,-3.694,-18.799,-31.005,-22.175,-29.322,-11.494,-213.322
4.020041899988428,-25.68,-30.416,-373.438,146.323,1.964,-31.563,-45.114,34.777,14.423,-19.021,-16.173,-186.67,1.399,59.19,89.872,-94.98,11.638,-0.478,-5.507,5.968,-23.614,-13.558,1.433,-9.559,-35.585,-8.832,-19.047,6.961,-182.882
4.035011300002225,-47.171,-48.316,-366.404,137.98,-11.358,-52.536,-58.389,13.226,-0.449,-42.056,-36.649,-213.123,-19.095,33.003,63.143,-116.914,-10.403,-25.581,-33.679,-18.116,-51.255,-39.16,-23.672,-40.288,-55.017,-33.927,-36.446,-24.297,-196.019
4.050089600030333,-69.153,-69.272,-376.796,122.985,-23.642,-67.34,-72.163,-8.304,-14.793,-58.92,-52.494,-232.89,-31.883,14.527,45.149,-131.654,-19.102,-42.974,-49.014,-37.054,-66.573,-56.539,-38.505,-64.326,-70.844,-60.02,-55.365,-56.548,-220.414
4.0501537000527605,-54.227,-58.445,-378.981,129.522,-12.347,-54.465,-61.845,10.659,-0.433,-41.443,-37.072,-223.436,-15.97,33.98,45.616,-120.252,-8.324,-32.172,-34.108,-18.061,-51.649,-41.114,-21.56,-43.769,-64.113,-46.128,-44.039,-31.389,-223.78
4.0651749999960884,-35.217,-40.455,-366.819,143.225,-2.601,-48.263,-32.581,24.993,12.375,-31.668,-26.789,-217.577,-6.732,36.508,49.669,-109.373,-7.803,-30.603,-20.754,-0.112,-39.814,-24.166,-7.194,-22.208,-38.433,-24.053,-28.113,-3.18,-209.724
4.06523800001014,-44.916,-48.1,-362.866,133.86,-9.771,-55.899,-39.721,11.648,0.579,-42.907,-35.472,-231.192,-15.947,13.417,50.131,-117.973,-19.066,-41.331,-25.857,-11.895,-47.459,-31.314,-15.896,-28.334,-39.42,-34.275,-38.331,-23.669,-193.12
4.080134300049394,-65.876,-67.007,-379.922,115.795,-22.569,-65.577,-71.957,-2.196,-16.84,-54.647,-49.269,-250.428,-29.763,10.842,37.786,-134.761,-24.683,-43.851,-37.614,-29.302,-61.756,-48.189,-28.176,-42.65,-67.045,-54.22,-56.224,-48.236,-207.271
4.080196500057355,-63.248,-64.378,-382.615,126.438,-24.595,-67.561,-75.471,2.93,-13.237,-52.031,-48.195,-253.252,-29.734,28.25,37.748,-135.139,-13.9,-33.049,-35.015,-23.637,-58.108,-46.604,-23.537,-41.583,-62.879,-45.969,-51.045,-38.967,-226.532
