Cz,Fz,Fp1,F3,C1,C3,T7,C5,CP5,CP3,CP1,P1,P3,O1,CPz,Pz,Oz,O2,P4,P2,CP2,CP4,CP6,C6,T8,C4,C2,F4,Fp2,Label
-0.05,-26.657,-184.02,-68.154,44.805,-23.77,-38.313,59.61,-24.735,-26.919,-8.901,-9.766,-16.879,-0.507,-4.671,-25.4,8.605,14.237,-21.743,-15.485,21.977,-12.494,-0.015,-31.091,-150.378,-12.972,9.122,-30.464,-37.312,0
-15.932,-38.414,-207.915,-79.357,32.465,-37.578,-67.476,37.522,-35.981,-41.237,-23.749,-22.052,-29.669,-22.023,-17.474,-36.133,-2.162,1.927,-35.554,-24.691,14.783,-25.802,-15.384,-48.479,-182.503,-33.451,4.502,-47.852,-35.226,0
-4.133,-30.179,-193.362,-55.199,37.043,-21.659,-99.684,60.538,-24.162,-29.925,-12.967,-18.443,-19.906,-23.026,-8.235,-28.924,-0.111,0.901,-35.518,-21.592,18.867,-25.776,-12.807,-47.406,-190.005,-31.881,8.084,-36.533,-39.289,0
4.068,-10.168,-164.992,-30.041,52.375,-3.194,-66.796,78.408,-7.231,-11.452,3.44,-4.08,-3.492,-1.998,9.704,-18.137,8.599,16.269,-24.724,-10.812,28.069,-17.041,-2.548,-28.403,-192.889,-13.406,16.272,-14.468,-30.54,0
-12.842,-11.183,-161.753,-40.257,52.835,-9.851,-65.705,67.571,-10.81,-15.027,-1.174,-6.638,-9.124,1.078,4.571,-21.705,9.102,16.765,-23.675,-10.802,27.017,-11.901,-5.107,-27.862,-182.45,-12.88,16.769,-24.699,-19.751,0
-14.878,-27.053,-180.547,-53.536,55.344,-20.088,-97.915,65.454,-23.095,-24.746,-12.956,-17.39,-22.947,-12.244,-3.118,-29.88,3.97,5.477,-33.385,-20.012,21.354,-17.012,-12.274,-45.765,-154.603,-25.163,10.604,-48.753,-26.904,0
-3.593,-31.637,-194.711,-49.384,57.85,-23.141,-91.669,67.951,-29.732,-33.43,-19.603,-19.421,-29.584,-18.891,-1.578,-34.973,-2.694,3.935,-36.938,-25.115,18.259,-27.241,-14.824,-53.404,-159.059,-30.773,4.446,-51.266,-38.66,0
-9.225,-31.093,-188.881,-53.946,43.447,-35.414,-58.79,46.366,-37.387,-46.204,-23.169,-20.427,-35.19,-14.262,-12.847,-39.549,-6.277,7.005,-33.827,-25.603,13.63,-28.239,-14.809,-48.74,-178.88,-32.791,0.343,-44.042,-41.183,0
-16.388,-29.013,-177.421,-57.478,43.916,-40.501,-31.066,32.487,-39.911,-42.572,-18.536,-17.332,-31.056,-4.001,-16.933,-37.973,-0.635,9.559,-29.182,-21.478,16.69,-15.403,-3.523,-34.859,-171.016,-24.562,3.929,-39.387,-42.166,0
-9.711,-18.225,-174.17,-37.953,61.291,-24.579,-63.31,50.898,-23.477,-25.623,-9.295,-8.606,-17.193,1.638,-0.01,-30.762,6.537,13.648,-18.395,-10.699,24.87,-3.604,11.85,-19.967,-159.575,-9.68,12.634,-27.053,-41.612,0
-6.628,-16.67,-181.168,-29.718,53.033,-17.895,-95.523,66.728,-14.232,-25.085,-10.311,-11.159,-17.176,-4.511,-0.522,-32.781,1.408,11.073,-14.79,-11.712,19.722,-6.162,7.739,-24.045,-150.706,-12.744,10.06,-23.952,-32.861,0
-11.232,-28.436,-189.184,-50.181,36.586,-24.537,-123.604,64.612,-22.927,-32.745,-15.936,-18.32,-23.819,-13.728,-19.477,-38.896,-4.229,3.377,-26.046,-22.971,13.555,-13.328,-1.49,-33.243,-146.969,-25.539,2.365,-37.248,-23.607,0
-12.245,-22.26,-176.699,-52.18,42.184,-16.828,-90.693,68.134,-17.781,-23.491,-7.723,-10.105,-13.036,-11.665,-13.31,-31.172,4.997,9.009,-23.459,-15.776,24.812,-7.68,7.733,-20.914,-166.802,-16.805,9.535,-35.674,-19.485,0
-8.647,-6.356,-153.469,-31.123,47.265,-6.565,-59.864,72.676,-5.98,-17.832,3.556,-2.922,-6.363,4.228,6.171,-21.92,15.75,22.32,-13.189,-3.465,28.886,-1.524,10.287,-15.77,-163.561,-7.054,19.772,-24.367,-17.928,0
-6.589,-13.522,-159.463,-25.456,45.681,-10.144,-92.079,70.042,-16.733,-27.548,0.478,-10.092,-18.652,10.371,2.579,-27.021,12.148,20.249,-23.422,-13.195,19.123,-8.695,-4.068,-37.784,-139.832,-20.879,14.117,-32.54,-23.033,0
-10.681,-22.73,-181.845,-34.652,47.685,-9.622,-120.164,72.021,-23.888,-30.082,-3.109,-13.155,-19.658,-7.57,-5.621,-31.092,4.964,9.47,-29.034,-19.842,22.69,-15.859,-5.089,-42.869,-168.893,-28.543,7.442,-36.093,-34.281,0
-12.719,-12.462,-179.614,-37.179,46.612,-7.563,-87.256,64.265,-11.057,-22.879,-0.032,-6.482,-6.831,-10.636,0.02,-24.913,8.545,13.047,-17.734,-8.039,29.328,-13.794,2.089,-25.408,-196.901,-17.244,12.558,-19.151,-40.907,0
-5.022,-8.351,-167.139,-34.581,54.25,-14.215,-54.381,47.294,-8.484,-20.295,2.53,-2.377,-4.775,17.039,10.779,-19.765,17.758,25.842,-13.618,-1.884,24.175,-7.12,1.574,-23.845,-163.917,-11.591,19.718,-15.033,-33.181,0
3.18,-12.953,-166.972,-30.448,66.492,-9.59,-86.602,58.518,-12.574,-16.689,8.675,1.211,-3.746,26.244,18.453,-17.696,20.814,28.377,-11.555,-0.345,26.2,0.06,7.721,-24.846,-142.748,-10.042,22.772,-24.752,-17.266,0
2.664,-13.452,-172.952,-30.929,57.204,0.153,-118.791,77.415,-9.488,-13.086,13.277,2.747,-1.18,8.287,12.286,-17.166,15.158,19.64,-6.42,1.705,30.272,1.084,14.373,-16.112,-174.881,-7.471,20.7,-28.314,-22.372,0
2.662,-17.537,-182.513,-40.632,49.462,-7.532,-85.884,64.53,-12.04,-17.171,5.067,-2.379,-6.302,4.18,-1.046,-20.735,8.483,13.985,-12.562,-4.957,25.119,-2.503,10.26,-16.608,-173.681,-11.562,16.068,-29.822,-46.941,0
7.782,-16.495,-183.355,-44.69,67.343,-10.086,-55.572,60.879,-8.954,-15.617,4.55,0.185,-3.734,8.274,8.177,-20.202,10.011,17.044,-13.061,-4.952,26.631,3.647,15.373,-10.956,-154.552,-6.427,20.151,-24.157,-40.234,0
6.75,-5.72,-170.364,-33.887,72.399,4.269,-87.792,85.409,3.35,-3.306,16.328,7.357,7.54,-3.517,22.513,-17.108,11.538,15.49,-5.364,3.25,32.752,12.353,22.017,1.35,-169.255,7.924,26.791,-12.35,-13.553,0
-5.552,-5.202,-169.682,-23.607,53.883,5.802,-97.438,89.422,-0.239,-4.327,15.287,0.178,2.41,-8.124,8.146,-20.165,4.867,6.766,-10.994,-3.926,27.596,4.656,11.237,-11.971,-157.815,2.793,23.178,-14.899,-26.348,0
-11.695,-9.296,-180.783,-28.706,52.805,-3.426,-64.553,67.816,-12.022,-14.569,4.514,-7.507,-7.839,2.642,-4.67,-24.756,-0.261,3.173,-21.229,-13.143,25.007,-4.57,4.053,-30.402,-124.869,-9.505,18.544,-20.519,-43.227,0
1.125,-3.139,-176.504,-37.899,65.047,-4.959,-31.701,56.989,-11.498,-14.042,9.12,0.185,-4.757,2.64,12.241,-24.219,0.251,1.633,-19.671,-4.933,29.593,0.557,9.685,-21.663,-137.552,-4.885,22.111,-10.253,-13.983,0
13.931,5.062,-168.13,-32.738,64.47,0.681,-63.945,64.105,-5.338,-2.757,21.918,6.845,2.932,-2.486,26.573,-14.973,5.886,1.631,-10.43,3.781,34.174,13.364,14.286,-6.272,-169.69,7.928,33.36,5.639,6.011,0
11.356,14.278,-160.277,-15.799,64.918,15.537,-96.156,86.582,2.352,8.004,28.556,10.424,13.175,5.201,22.961,-3.175,16.639,18.023,3.413,8.9,39.775,26.159,23.493,5.005,-175.668,20.727,43.573,16.392,-12.438,0
8.783,16.313,-149.871,-9.636,69.976,23.719,-124.749,99.815,6.448,6.971,25.966,10.926,15.211,8.27,17.302,-7.27,15.085,27.739,4.947,11.453,37.174,25.62,26.031,7.049,-148.852,20.707,38.919,7.666,-16.011,0
12.36,-1.122,-162.529,-25.508,60.172,5.764,-91.837,73.588,-4.829,-6.356,14.157,-0.868,-0.685,-6.083,8.064,-24.169,-0.811,7.219,-9.915,-0.854,25.866,8.176,11.148,-8.327,-147.166,1.73,27.097,-16.42,-11.385,0
8.762,-8.805,-183.883,-37.265,50.89,-9.098,-58.957,49.948,-11.997,-14.034,6.971,-8.04,-7.345,-12.225,-0.654,-28.756,-2.347,-7.133,-14.004,-9.562,24.303,0.996,7.551,-14.979,-140.359,-4.419,27.582,-14.354,-29.816,0
5.167,1.962,-171.916,-28.519,60.061,1.669,-91.173,72.952,-6.862,-9.409,13.624,0.165,-1.19,0.083,6.007,-22.579,7.901,7.731,-5.793,0.181,29.402,11.241,22.4,-0.619,-109.48,9.418,32.165,8.202,-31.836,0
13.871,4.522,-154.326,-20.293,67.173,11.401,-123.358,97.982,-4.293,-3.252,21.295,1.702,-3.75,8.28,20.345,-21.532,9.943,14.384,-7.324,4.792,28.86,14.816,23.402,1.943,-103.223,10.945,31.62,4.607,-8.75,0
16.419,1.443,-162.368,-29.495,61.983,8.316,-90.447,87.126,-2.752,-2.737,20.249,-1.886,-5.796,0.074,22.887,-23.047,7.883,7.197,-8.854,-0.336,28.319,8.653,13.645,-6.768,-132.321,3.762,32.101,-6.668,-12.328,0
4.619,-1.12,-168.866,-38.174,59.36,-1.426,-57.569,62.448,-5.823,-9.906,15.618,1.19,-3.741,-9.147,12.105,-27.635,5.826,8.214,-7.308,-1.873,26.754,4.034,9.021,-10.347,-157.292,2.221,25.921,-4.612,-36.906,0
1.028,-9.828,-168.185,-37.624,56.739,-11.671,-26.26,47.016,-17.088,-18.093,12.016,-1.885,-9.372,-4.015,5.433,-32.73,5.82,11.792,-12.424,-5.457,23.653,0.956,8.499,-15.46,-157.647,-2.904,18.723,-12.805,-34.308,0
13.323,-5.72,-171.603,-36.049,53.096,-9.098,-29.308,53.117,-12.973,-11.927,14.053,-2.395,-5.264,12.383,10.551,-23.989,16.573,15.367,-8.825,-2.89,30.802,6.59,12.589,-14.42,-144.682,-0.339,27.414,-18.427,-11.732,0
16.383,6.069,-167.845,-35.501,60.215,5.256,-61.554,78.167,0.873,0.38,22.749,8.365,7.549,19.543,13.614,-12.694,24.241,24.06,2.967,8.896,41.529,15.293,17.7,-4.672,-143,10.932,34.559,-6.626,-10.695,0
4.072,-4.695,-168.19,-33.929,66.303,9.349,-93.768,88.335,-3.227,-1.67,24.263,8.357,2.93,12.351,14.625,-17.804,16.02,24.549,-0.11,6.325,40.976,12.204,13.584,-8.253,-154.128,5.798,26.327,-6.619,-34.251,0
0.481,-14.425,-181.341,-35.944,62.138,3.705,-60.886,75.439,-10.908,-8.84,17.066,-0.361,-4.245,6.703,22.295,-22.397,12.418,18.377,-8.307,-2.902,34.787,8.605,10.496,-14.905,-149.363,-2.405,25.276,-17.371,-42.413,0
7.653,-4.676,-177.574,-40.006,65.149,1.652,-28.038,66.654,-8.848,-7.807,13.975,0.664,-0.655,9.258,21.248,-18.276,17.016,17.334,-4.2,0.687,34.24,14.232,17.146,-8.742,-127.185,6.307,31.399,-15.817,-23.928,0
6.109,-1.598,-165.101,-41.503,73.794,-0.912,-44.916,62.489,-9.864,-8.311,18.06,3.225,-3.215,11.298,10.981,-18.258,15.462,17.828,-0.097,5.297,38.816,15.755,20.715,-3.611,-122.447,11.423,30.342,-9.653,-11.609,0
-0.045,-5.695,-175.694,-40.437,73.207,-2.96,-32.063,56.791,-10.366,-11.377,17.017,2.197,-5.261,10.262,14.044,-20.289,13.397,18.323,-1.122,4.779,38.778,14.715,20.182,-4.632,-136.157,8.85,28.263,-4.008,-18.769,0
0.467,-7.226,-189.351,-38.86,70.06,-0.908,-12.563,61.857,-9.331,-8.292,13.414,2.708,-1.158,2.055,19.665,-19.244,12.872,15.743,-3.17,2.725,32.079,12.138,16.575,-7.188,-138.07,8.329,25.673,-4.004,-30.534,0
0.979,-11.317,-186.6,-43.432,65.892,-1.419,-44.826,72.554,-12.908,-8.283,10.839,-1.394,-6.792,-11.267,8.887,-24.86,5.687,6.506,-14.95,-7.011,27.948,-2.218,4.264,-19.989,-135.37,-2.95,18.987,-18.345,-46.385,0
1.49,-11.306,-183.34,-46.974,56.092,-1.418,-77.057,77.605,-11.358,-11.349,9.291,-4.466,-10.884,-9.207,-1.368,-25.348,4.656,6.499,-22.619,-8.029,32.531,-8.364,-1.376,-29.191,-148.555,-11.144,19.481,-24.986,-48.9,0
6.1,-2.073,-174.447,-36.681,56.036,3.707,-44.192,73.941,-2.125,-1.604,16.966,5.785,0.91,14.369,6.318,-12.515,19.509,21.862,-4.666,8.885,41.208,8.038,10.408,-17.378,-154.554,2.7,29.195,-7.543,-21.699,0
8.143,1.515,-164.539,-26.399,67.763,4.728,-11.36,63.108,-3.66,6.595,28.22,12.439,9.106,29.724,23.73,-4.817,31.784,29.012,11.22,15.024,45.265,18.789,19.619,-4.553,-141.591,13.968,34.289,2.711,-4.258,0
4.548,-0.535,-173.083,-32.007,67.183,1.649,-43.624,66.119,-10.317,-2.633,23.069,4.229,2.95,16.886,28.829,-10.96,24.068,21.299,-0.574,4.25,42.146,10.573,14.989,-7.11,-139.401,7.806,29.132,-9.587,-17.574,0
0.958,-3.096,-178.033,-38.635,58.407,3.697,-75.856,81.422,-11.331,-7.241,14.849,0.639,-2.176,3.549,16.505,-15.048,12.773,15.13,-12.357,0.148,38.518,3.39,8.826,-14.275,-144.897,2.163,23.979,-19.311,-30.364,0
-0.068,-7.192,-165.048,-40.646,63.471,2.156,-42.992,73.656,-10.807,-3.648,18.933,5.249,-0.637,10.718,11.878,-12.471,13.785,16.652,-7.734,3.734,41.041,4.411,9.842,-17.335,-129.383,2.673,26.517,-12.12,-33.92,0
7.617,-5.135,-163.858,-40.605,66.482,-3.994,-10.162,56.164,-8.235,-6.206,21.988,5.756,2.949,20.441,16.477,-10.41,22.993,23.295,-2.09,6.804,46.123,10.555,15.98,-11.682,-120.544,8.306,32.126,-3.911,-28.763,0
16.318,3.067,-172.916,-29.806,57.706,1.133,-42.427,67.891,-1.567,-3.126,24.527,9.337,8.582,19.908,13.899,-6.301,29.63,27.37,3.035,10.896,49.15,20.79,23.136,1.137,-140.403,20.08,35.168,-2.882,-9.267,0
8.618,5.113,-170.181,-21.067,66.357,11.378,-74.66,84.217,4.07,8.148,32.699,15.987,14.209,19.889,19.008,-0.147,31.137,28.367,10.204,14.983,52.175,26.917,25.162,8.308,-143.849,26.72,37.182,-1.855,-9.257,0
0.412,4.083,-171.548,-26.682,82.173,11.879,-95.59,81.571,4.579,8.14,33.179,13.922,13.682,15.258,31.284,0.878,28.032,28.339,7.632,16.505,49.561,24.329,22.063,5.226,-122.188,25.157,39.194,0.196,-39.474,0
10.658,5.616,-180.598,-29.729,66.721,9.306,-96.007,77.903,-1.574,2.496,24.949,7.248,7.008,1.41,21.007,-5.27,22.881,21.138,-0.572,11.365,42.34,16.62,16.406,-4.001,-123.603,20.008,36.081,-3.39,-51.218,0
18.332,4.586,-172.733,-29.699,50.261,5.198,-63.123,67.579,-10.794,-0.068,21.338,7.241,1.878,3.97,5.617,-8.339,20.809,14.97,-2.109,4.694,42.809,10.968,11.779,-11.681,-137.824,12.304,31.946,-9.534,-34.773,0
13.19,4.069,-160.265,-37.354,65.58,4.168,-30.272,53.679,-7.197,0.445,25.927,10.307,6.487,21.897,13.808,-1.671,24.374,23.152,6.09,11.349,49.939,16.592,16.378,-5.01,-132.051,12.292,34.988,-8.5,-25.517,0
18.812,12.262,-167.789,-31.681,82.933,17.996,-62.517,71.557,7.667,11.203,36.66,15.42,16.727,24.437,29.163,7.04,31.522,33.887,15.818,21.072,56.549,30.408,25.583,10.365,-126.796,25.087,43.662,2.267,-29.077,0
21.355,18.909,-174.281,-17.817,84.899,29.249,-94.73,98.637,12.783,20.413,40.722,18.991,20.809,19.289,36.819,10.619,34.564,36.414,16.315,17.977,58.542,31.402,24.533,10.867,-131.792,30.185,43.619,11.998,-31.61,0
1.866,11.206,-170.521,-28.046,80.203,16.925,-61.848,84.706,2.012,10.659,29.922,13.849,13.103,20.807,34.22,5.998,30.431,32.792,9.638,11.811,50.286,19.075,15.287,-3.489,-128.074,19.396,34.353,6.863,-32.603,0
-2.234,-2.125,-178.547,-42.874,64.241,3.075,-28.998,57.982,-5.675,0.914,24.257,7.175,7.967,13.614,20.354,-0.156,25.79,25.587,6.555,11.287,44.601,14.445,14.759,-6.559,-129.483,15.278,33.294,-4.927,-33.082,0
18.773,0.438,-182.467,-34.122,52.906,9.22,-61.244,64.584,-0.034,7.573,30.381,11.266,13.082,9.502,15.21,3.943,28.838,26.586,10.647,14.35,55.827,22.628,24.478,4.718,-137.038,22.435,42.483,-6.459,-34.586,0
22.34,11.196,-166.403,-23.842,63.1,18.432,-93.459,82.962,4.065,12.689,34.449,14.329,14.094,19.226,24.417,11.111,31.883,34.756,16.272,19.458,63.456,27.728,29.577,12.398,-129.216,27.536,43.977,-0.305,-34.552,0
8.485,5.037,-168.798,-25.355,73.795,13.291,-67.237,77.244,-4.136,4.992,30.316,6.118,2.809,11.01,24.905,3.928,23.142,23.451,8.571,11.754,52.121,17.454,20.838,0.603,-123.964,18.799,32.662,-5.94,-41.689,0
3.866,-11.874,-196.294,-35.064,66.549,0.47,-63.072,63.334,-13.354,-6.797,17.478,-3.11,-7.44,-7.444,13.097,-9.396,12.361,7.546,-9.881,-7.213,39.774,-2.031,5.448,-26.55,-134.086,-3.761,19.31,-24.889,-57.529,0
4.375,-13.911,-197.122,-51.935,50.088,-3.117,-95.284,70.443,-10.779,-7.814,9.776,-1.57,-5.383,4.859,3.862,-8.362,16.447,19.321,-14.482,-7.206,36.66,-9.713,-0.193,-39.331,-136.001,-15.028,15.192,-33.061,-64.132,0
7.956,-6.213,-174.384,-57.518,39.28,1.497,-62.401,74.471,-5.645,-0.634,17.963,6.116,3.331,25.346,3.346,2.405,27.189,30.06,-2.684,5.097,39.697,1.055,6.98,-24.435,-136.89,1.381,25.423,-21.757,-60.994,0
14.608,-9.28,-185.48,-44.653,45.388,-3.627,-29.551,48.781,-10.763,-5.244,19.994,6.11,3.84,19.173,7.441,3.939,25.112,18.76,0.392,3.043,45.805,6.689,11.071,-11.091,-159.807,12.65,32.058,-20.199,-60.933,0
10.495,-20.029,-216.033,-47.682,54.565,-15.407,-61.797,37.974,-20.486,-18.047,7.166,-1.581,-5.898,5.834,5.897,-4.774,15.866,14.13,-6.781,-5.157,43.198,-0.49,7.986,-17.74,-176.553,1.879,22.292,-34.011,-55.749,0
5.362,-22.571,-208.132,-67.615,48.362,-15.392,-94.01,62.015,-22.514,-19.566,6.647,-4.141,-12.039,-0.32,0.768,-8.355,8.677,15.14,-9.848,-6.689,35.47,-1.514,5.417,-21.82,-157.934,-2.221,17.659,-31.415,-45.447,0
7.918,-18.962,-178.21,-67.547,44.215,-13.839,-61.129,62.465,-19.418,-16.985,10.226,-4.136,-12.54,-4.93,5.378,-7.835,4.058,2.83,-9.325,-9.756,36.972,1.562,5.923,-18.212,-129.599,5.978,23.789,-22.674,-41.815,0
3.812,-14.845,-174.958,-53.135,53.905,-15.875,-28.28,41.91,-17.349,-20.041,3.044,-7.718,-14.064,-2.876,6.397,-11.413,4.054,-3.321,-10.853,-12.82,38.984,-5.1,3.868,-23.317,-124.859,2.898,19.666,-30.849,-41.261,0
-2.34,-14.83,-189.128,-51.032,57.95,-8.686,-60.527,60.311,-14.258,-16.435,3.041,-9.76,-14.05,-0.311,-3.856,-16.012,9.685,6.929,-17.502,-13.832,32.797,-12.78,-2.796,-35.589,-140.615,-9.912,7.864,-32.867,-52.491,0
-6.948,-23.524,-199.697,-57.641,52.769,-9.19,-92.742,75.108,-14.244,-16.419,2.525,-14.361,-16.597,-5.947,-4.364,-18.046,10.7,9.484,-30.805,-22.527,24.055,-23.013,-15.088,-45.288,-165.578,-24.247,3.245,-30.785,-74.467,0
-18.725,-35.796,-211.281,-64.756,49.642,-29.161,-59.861,42.757,-24.476,-31.259,-13.359,-21.519,-25.29,-10.039,-1.798,-24.175,5.566,-0.772,-39.483,-32.751,17.371,-35.798,-22.245,-48.828,-185.904,-36.518,-0.344,-47.148,-72.856,0
-18.706,-34.223,-212.094,-66.74,50.105,-31.181,-38.797,35.542,-27.525,-33.277,-14.882,-19.448,-23.728,0.729,-6.919,-22.614,7.61,0.766,-28.173,-26.058,21.965,-26.54,-12.489,-39.046,-165.226,-28.285,0.681,-48.126,-54.34,0
0.268,-21.894,-196.513,-58.989,50.055,-11.17,-68.984,68.295,-13.665,-17.875,3.064,-11.232,-10.896,12,-3.326,-9.272,16.312,12.036,-13.8,-13.737,33.726,-6.534,1.868,-25.687,-132.273,-6.227,10.926,-23.487,-56.847,0
1.805,-29.557,-198.365,-59.442,41.808,-14.745,-36.128,58.492,-13.652,-20.931,-0.526,-16.344,-13.959,3.278,-4.348,-10.799,10.66,3.827,-24.545,-20.383,24.983,-16.261,-6.331,-33.858,-153.658,-11.344,6.817,-34.734,-72.16,0
-17.152,-54.118,-214.561,-80.388,28.446,-38.296,-39.165,28.208,-31.569,-36.279,-17.431,-26.573,-27.778,-12.607,-20.737,-25.645,-4.208,-13.596,-40.402,-32.146,8.052,-32.639,-22.718,-54.316,-185.78,-33.362,-7.535,-66.975,-74.137,0
-16.11,-49.453,-206.149,-89.529,33.54,-34.672,-71.402,50.209,-28.976,-30.607,-10.242,-20.399,-21.602,-6.446,-15.593,-17.935,1.944,-3.336,-25.504,-21.355,17.265,-15.7,-10.4,-47.602,-161.003,-21.546,3.743,-54.1,-63.816,0
4.398,-18.153,-185.963,-65.873,53.999,-11.583,-88.749,74.749,-13.065,-14.183,11.798,-5.01,-5.187,8.417,13.111,2.575,20.385,17.672,-2.425,-1.866,33.642,8.394,14.713,-21.939,-128.054,8.702,25.769,-21.258,-55.556,0
11.566,-6.864,-183.728,-38.655,66.753,-2.35,-55.872,58.281,-9.978,-5.46,21.52,2.68,0.454,8.921,22.832,8.208,21.902,14.581,-1.91,2.234,36.17,8.898,16.235,-15.77,-139.197,11.255,25.743,-13.04,-53.451,0
4.382,-11.468,-179.958,-34.005,70.272,2.263,-44.546,56.686,-3.308,7.866,24.06,3.702,9.675,8.912,14.1,9.737,21.368,12.517,-6.519,-1.354,40.232,1.717,5.461,-24.975,-166.723,-1.564,20.082,-26.859,-45.713,0
0.791,-10.432,-175.68,-46.267,64.567,5.335,-76.776,69.949,2.843,9.907,19.425,1.649,12.739,11.977,8.451,7.165,25.957,20.701,-10.099,-3.914,36.605,-7.506,-1.205,-32.635,-174.24,-8.735,18.013,-34.005,-37.982,0
-2.795,-14.52,-186.263,-58.516,45.034,-11.577,-44.936,49.387,-17.652,-15.718,5.061,-7.574,-7.766,0.694,5.368,-8.211,17.734,8.897,-21.359,-11.083,18.638,-15.696,-5.302,-39.262,-175.603,-14.874,11.335,-34.995,-55.875,0
-3.305,-12.456,-181.466,-48.211,39.866,-19.25,-38.744,40.116,-26.344,-21.85,6.081,-7.567,-12.881,-2.38,7.925,-6.153,15.667,3.253,-14.166,-6.461,20.669,-0.823,4.437,-27.952,-151.861,-3.076,20.033,-19.591,-62.479,0
8.481,4.463,-154.132,-30.232,65.442,4.336,-68.931,72.351,4.421,7.373,28.616,8.835,15.308,18.114,19.7,16.394,34.607,29.89,10.951,11.476,40.628,23.256,22.363,-3.846,-122.508,23.567,38.456,-1.128,-29.629,0
14.108,-2.202,-161.15,-46.084,75.11,8.43,-44.272,73.303,10.052,10.44,29.612,9.851,17.855,21.17,21.729,15.865,33.548,32.421,5.817,7.366,36.489,15.548,17.218,-11.014,-133.656,16.884,29.196,-16.496,-16.28,0
-1.275,-30.376,-193.264,-73.19,49.42,-20.78,-44.74,41.467,-22.234,-17.235,4.479,-13.213,-12.389,0.657,6.338,-7.717,10.46,0.114,-22.365,-17.232,18.009,-14.693,-4.828,-40.717,-157.089,-15.409,6.625,-41.583,-48.539,0
-12.032,-27.784,-201.268,-59.284,39.636,-19.223,-76.97,52.696,-21.699,-17.218,2.938,-17.811,-16.475,-0.369,-5.451,-11.295,11.475,-3.985,-23.368,-18.751,22.602,-19.289,-5.848,-39.14,-155.395,-17.442,5.081,-27.709,-68.982,0
-3.823,0.42,-168.279,-26.437,59.064,10.51,-59.987,85.431,5.475,4.829,23.94,0.65,1.984,10.903,5.313,3.573,24.783,15.999,-3.877,0.735,38.461,3.271,13.113,-13.997,-145.505,8.703,17.884,1.008,-36.126,0
1.816,8.617,-144.032,-25.386,63.104,13.574,-27.139,82.784,1.883,5.336,25.965,3.724,1.47,0.645,18.627,6.644,20.66,13.422,2.787,5.857,40.984,11.977,20.272,-11.934,-139.212,16.379,26.063,2.031,-14.06,0
1.814,-4.712,-160.282,-46.366,49.208,-2.321,-59.388,66.308,-15.537,-11.063,13.644,-8.576,-12.364,-6.015,10.412,-2.585,17.053,7.26,-5.412,-5.419,33.771,-1.355,8.469,-29.341,-139.073,3.555,23.475,-14.364,-42.736,0
5.911,-17.003,-182.663,-56.053,45.573,-10.516,-52.668,54.97,-18.083,-18.224,12.605,-9.079,-14.913,9.36,-1.894,-5.656,22.159,14.425,-14.116,-11.049,31.176,-6.989,2.825,-35.971,-151.742,-2.084,16.28,-23.572,-55.501,0
10.003,-16.986,-175.308,-50.362,51.163,-11.018,-19.828,45.182,-13.454,-11.034,17.204,-1.386,-3.627,17.548,3.231,2.034,23.674,14.923,-8.467,-1.304,37.292,4.289,13.581,-23.128,-160.299,6.115,22.923,-18.937,-37.002,0
9.993,-9.284,-158.739,-41.602,53.673,-1.273,-52.084,60.506,-3.195,-1.289,21.285,2.714,6.11,12.407,9.888,7.155,28.773,15.421,1.276,6.382,41.866,9.408,20.227,-12.858,-146.307,14.818,32.634,-10.721,-26.719,0
5.885,-12.349,-171.9,-42.585,49.521,2.315,-84.307,82.474,-0.63,-4.874,17.165,-0.362,-1.581,12.907,5.779,0.488,31.818,17.967,-7.435,-3.359,32.602,-2.385,9.448,-24.629,-135.914,7.118,23.892,-15.322,-43.086,0
-7.953,-25.144,-195.295,-51.252,36.664,-20.229,-51.435,58.826,-18.048,-21.263,0.242,-13.17,-15.924,6.746,0.138,-10.783,18.979,7.19,-21.26,-16.675,20.274,-12.628,-1.832,-37.924,-152.172,-9.283,10.036,-25.04,-66.609,0
-14.093,-25.631,-187.415,-50.688,31.504,-31.992,-18.596,27.516,-25.714,-27.902,-5.394,-16.743,-15.908,-5.043,-1.399,-11.285,10.763,0.523,-16.115,-14.609,23.84,-8.517,1.244,-34.3,-162.266,-9.786,13.1,-21.429,-65.518,0
2.827,-16.384,-167.247,-45.002,40.694,-7.882,-50.852,52.079,-7.758,-8.918,13.567,-1.869,-1.547,2.134,5.775,-0.002,22.023,10.769,-2.779,-3.324,37.648,0.713,11.489,-25.556,-138.538,0.983,21.284,-12.186,-43.423,0
15.12,-15.343,-173.228,-49.568,46.801,6.983,-83.077,82.766,5.058,9.534,26.873,5.305,8.188,10.329,12.942,7.682,25.587,12.295,-1.752,1.29,42.734,2.249,15.576,-20.408,-134.301,1.494,22.287,-11.149,-33.646,0
7.932,-18.401,-184.838,-53.104,45.217,-5.319,-50.206,66.289,-1.607,1.84,17.113,-4.434,-0.529,-0.44,3.195,2.039,11.729,1.524,-14.558,-4.859,36.031,-2.876,6.339,-19.875,-165.417,-5.68,21.24,-10.626,-38.735,0
9.461,-9.674,-173.894,-35.121,48.246,-4.802,-17.368,53.415,-6.729,-6.872,10.948,-8.016,-8.213,-0.44,-7.567,-5.648,8.644,2.547,-21.203,-8.953,32.921,-5.435,-2.377,-24.978,-164.739,-4.137,23.781,-1.906,-40.233,0
19.698,5.705,-158.863,-9.982,51.272,11.597,-49.626,73.854,5.061,5.943,21.183,0.702,3.066,15.955,3.711,-2.056,19.906,11.766,-8.887,-2.796,40.061,2.255,6.335,-20.342,-132.812,7.65,30.417,9.879,-31.996,0
11.481,6.724,-160.241,-8.435,45.073,12.61,-60.335,78.391,11.716,10.036,24.236,3.262,10.235,10.303,10.88,2.557,18.349,11.242,-0.169,0.793,42.582,10.962,14.013,-10.076,-132.166,14.815,31.923,10.382,-21.206,0
1.736,-4.041,-159.057,-23.796,45.54,-0.723,-57.713,63.456,-1.616,-5.344,13.965,-3.913,-2.583,-4.052,0.111,-1.544,8.597,4.059,-8.365,-3.819,38.441,8.902,6.314,-13.14,-152.014,8.14,27.793,2.687,-21.185,0
10.956,-4.037,-151.213,-24.797,59.327,-3.283,-74.049,67.491,-7.762,-8.925,10.877,-7.495,-6.679,4.149,5.234,-4.616,12.174,3.542,-11.431,-5.352,38.915,3.77,5.283,-15.688,-156.985,1.984,25.716,4.733,-33.971,0
11.457,-3.521,-158.234,-18.112,59.78,-0.206,-90.882,77.669,2.492,-3.28,14.453,-3.902,-2.574,4.657,18.548,-4.099,14.724,3.026,-10.395,-5.346,37.339,0.692,8.352,-14.648,-157.341,-0.58,23.129,4.728,-42.134,0
-1.874,-18.886,-174.982,-29.365,34.617,-2.768,-123.066,75.03,-0.072,-8.912,9.827,-5.435,-9.744,-16.864,6.234,-7.169,3.95,-6.71,-20.631,-11.489,28.593,-8.53,-3.952,-28.465,-155.134,-11.337,15.421,-11.67,-43.629,0
1.201,-23.991,-173.782,-39.582,26.385,-1.74,-101.938,71.881,-6.732,-9.928,7.256,-10.552,-9.221,-15.823,-3.506,-8.699,5.483,-7.728,-21.635,-11.989,28.052,-15.181,-9.071,-34.585,-149.344,-18.498,13.869,-15.757,-48.708,0
11.446,-10.134,-160.801,-28.784,52.487,3.897,-69.049,63.1,-0.065,-1.721,16.47,-3.882,2.059,13.395,11.355,-1.518,22.384,9.186,-8.805,-3.268,36.733,-4.408,4.258,-16.619,-150.219,-6.697,22.052,1.677,-46.61,0
2.726,-10.124,-157.566,-21.583,63.705,-2.767,-44.901,52.791,-1.602,-4.281,18.503,2.27,0.52,22.091,19.028,0.021,24.411,15.836,-7.772,-0.191,38.745,4.818,8.352,-11.48,-145.97,1.507,23.567,7.823,-30.682,0
-5.986,-17.286,-156.896,-29.758,48.272,-9.936,-77.132,62.984,-9.797,-12.474,10.288,-5.929,-7.678,1.064,14.398,-5.615,11.579,4.55,-12.887,-4.802,35.12,0.715,4.245,-22.739,-136.09,-2.593,20.469,3.717,-27.065,0
5.803,-8.56,-153.153,-33.314,51.81,-0.705,-109.33,80.852,-4.152,-6.313,12.327,-8.997,-5.621,-7.134,18.995,-2.023,10.543,1.471,-8.776,-4.285,36.622,1.226,8.34,-16.568,-139.54,-0.029,26.084,9.349,-37.284,0
21.679,2.719,-158.123,-24.059,63.029,9.542,-76.433,80.259,3.024,5.476,24.61,4.332,1.557,10.804,20,8.225,22.315,11.716,-2.619,5.454,40.684,10.959,13.967,-0.158,-147.598,8.168,34.255,17.536,-31.099,0
20.12,3.229,-166.674,-17.375,47.597,9.02,-43.569,68.908,1.484,4.958,25.61,6.376,8.215,17.965,10.759,10.266,24.854,14.266,1.994,9.034,38.594,12.997,15.49,2.916,-146.938,10.721,32.684,18.031,-19.798,0
5.243,-8.557,-167.02,-29.653,33.717,0.814,-54.284,61.667,-2.616,-3.756,11.752,-6.95,5.646,1.041,1.526,3.084,12.534,3.493,-1.082,-2.758,28.309,3.251,9.839,-7.845,-139.106,2.514,20.356,10.328,-34.122,0
-0.398,-24.943,-167.365,-44.993,44.441,-4.822,-86.505,66.728,-6.712,-7.338,5.592,-10.529,-4.094,-8.694,-3.598,-3.067,5.862,-5.732,-14.401,-14.538,22.133,-5.974,-0.929,-21.67,-120.012,-11.321,14.188,-0.44,-49.97,0
7.8,-20.819,-168.223,-35.214,57.205,2.867,-118.694,77.42,-2.606,-1.696,15.833,-3.346,-0.504,-3.562,5.627,-2.552,11.491,-3.165,-15.923,-9.401,26.722,-4.431,0.608,-23.185,-118.355,-9.773,22.883,5.195,-43.26,0
7.792,-6.966,-171.128,-26.47,60.221,7.988,-85.787,60.949,0.47,-0.157,23.502,-0.781,6.669,-2.021,23.04,3.086,13.017,1.962,-4.636,-0.682,27.208,1.208,9.317,-12.403,-150.512,3.044,27.983,18.51,-40.143,0
-0.925,-12.594,-180.691,-42.325,57.087,-3.804,-52.914,35.785,-7.727,-5.792,19.38,-1.805,0.515,1.567,25.578,3.595,9.93,-0.602,-5.656,-2.73,21.033,-1.867,3.672,-11.366,-166.755,-0.545,22.319,7.221,-42.664,0
0.613,-20.266,-176.412,-40.233,46.784,-6.361,-85.136,56.241,-8.232,-4.762,16.287,-4.877,-3.072,9.762,16.843,-1.531,12.994,0.423,-13.335,-6.826,18.45,-9.037,-4.016,-21.089,-147.121,-12.327,18.199,-8.668,-29.301,0
2.149,-12.049,-155.231,-22.262,40.077,2.354,-117.327,85.386,-0.539,-5.269,14.733,-7.946,-3.069,1.555,16.314,-4.091,10.931,1.448,-12.81,-9.381,14.846,-11.077,-4.524,-24.142,-157.732,-13.852,16.644,3.124,-28.76,0
-3.489,-4.865,-152.002,-28.388,43.111,0.815,-84.422,76.079,-2.588,-9.875,11.132,-5.377,-7.164,-13.303,19.372,-3.063,4.26,-5.726,-10.748,-9.884,12.269,-6.968,-1.958,-15.921,-174.993,-8.715,17.139,19.515,-49.736,0
0.101,-1.274,-155.948,-28.359,50.752,2.863,-51.549,67.806,-0.024,-2.18,17.269,0.264,0.528,-4.068,23.451,1.551,10.916,-0.597,-4.077,-1.677,20.966,4.822,9.827,-4.122,-142.03,3.077,25.831,22.057,-42.514,0
9.835,-4.346,-147.595,-15.011,58.899,3.885,-18.71,65.689,4.587,-0.641,18.789,-0.249,3.601,8.231,30.087,2.062,16.028,12.723,0.538,0.374,23.507,7.891,15.452,-4.63,-109.1,9.734,26.83,20.498,-25.053,0
2.653,-21.761,-158.718,-33.439,53.717,-16.611,5.387,44.107,-10.274,-20.621,3.913,-9.982,-15.358,-8.171,25.447,-9.211,4.742,-2.146,-13.295,-13.971,11.7,-5.437,1.605,-18.97,-141.267,-3.596,16.557,11.768,-45.52,0
-12.207,-25.325,-180.077,-48.262,39.831,-21.205,-26.894,53.284,-15.899,-22.137,-0.189,-12.534,-20.466,-23.532,15.687,-14.837,-0.899,-19.05,-19.429,-17.543,10.664,-9.53,-1.471,-21,-173.401,-10.252,16.541,6.633,-60.331,0
-6.559,-10.443,-172.724,-27.722,39.791,2.895,-59.142,86.019,-0.002,-1.623,11.082,-3.812,-6.613,-12.75,15.672,-5.601,8.324,-4.687,-6.602,-6.255,21.924,-0.811,8.777,-9.708,-157.346,0.516,21.647,17.897,-38.754,0
6.767,-8.895,-162.305,-27.182,43.337,5.453,-26.295,74.15,1.535,-3.67,12.095,-4.32,-7.631,-5.053,20.267,-4.058,8.316,4.027,-9.157,-8.298,18.316,-3.372,6.719,-9.699,-124.913,1.54,21.113,23.515,-31.543,0
7.273,-8.886,-163.168,-40.475,40.732,-5.311,6.519,54.095,-6.664,-13.4,9.521,-9.951,-12.746,-12.22,20.759,-9.177,3.696,-4.686,-12.734,-9.314,13.687,-2.856,6.2,-9.177,-107.882,1.539,24.678,15.807,-44.831,0
6.753,0.344,-156.344,-27.626,41.204,-2.744,-25.763,62.238,-7.169,-8.776,14.123,-4.306,-8.123,-10.158,16.127,-4.557,11.89,1.979,1.111,0.429,23.407,10.467,15.927,1.079,-119.557,12.296,29.264,14.254,-41.713,0
9.82,-11.439,-161.824,-28.623,40.65,-12.475,-54.939,51.418,-16.384,-15.94,8.985,-4.814,-11.189,-2.464,10.476,-4.553,17.001,11.198,-3.501,-5.207,21.334,5.333,10.276,-3.021,-151.713,4.599,22.575,9.629,-32.45,0
1.614,-26.797,-182.666,-51.136,38.048,-26.807,-65.643,38.046,-23.027,-27.707,0.267,-14.543,-16.301,-3.486,14.564,-15.307,10.324,6.064,-17.842,-17.497,9.018,-7.992,0.532,-14.801,-154.635,-10.775,15.38,-0.627,-40.614,0
-11.708,-18.573,-182.484,-46.474,43.133,-18.583,-41.499,50.816,-16.344,-22.556,1.292,-12.992,-16.797,-7.581,22.234,-17.853,5.703,0.422,-11.677,-15.943,7.472,-6.447,3.093,-14.274,-122.718,-6.666,14.34,3.472,-56.455,0
-13.746,-18.555,-171.543,-33.62,43.09,-14.979,-8.669,48.716,-16.84,-22.021,0.778,-10.417,-21.903,-12.184,13.502,-16.81,3.648,-4.189,-13.714,-16.439,4.903,-11.564,-0.496,-16.309,-125.669,-7.684,10.227,7.567,-62.034,0
-3.998,-21.098,-168.81,-38.71,39.461,-16.501,-40.936,49.179,-12.725,-21.487,2.826,-12.456,-17.27,-14.221,7.853,-15.769,3.644,-2.648,-20.36,-18.472,2.336,-16.675,-1.52,-20.903,-132.715,-15.873,10.729,7.047,-53.775,0
8.814,-0.072,-155.321,-29.962,49.668,3.496,-73.171,81.406,7.268,-1.998,16.656,-2.197,-0.347,-8.571,21.166,-4.482,10.301,4.527,-3.946,-5.646,16.678,0.248,12.313,-9.611,-104.406,-1,23.526,22.409,-39.377,0
15.977,8.125,-145.432,-14.563,49.106,11.689,-40.31,85.935,6.236,3.127,19.713,1.903,0.678,-7.026,19.095,-0.379,10.803,-1.625,0.669,-2.054,22.297,4.858,13.326,-0.38,-109.424,10.784,29.651,25.973,-26.017,0
11.35,-7.765,-159.119,-28.38,30.101,-10.864,-22.339,53.574,-17.849,-18.393,4.324,-12.956,-14.692,-11.63,-1.416,-13.699,0.546,-9.308,-17.775,-15.372,6.393,-10.004,-0.008,-8.065,-141.59,-3.571,19.887,-0.18,-22.405,0
3.142,-12.88,-170.23,-45.258,28.022,-22.124,-13.607,40.2,-22.954,-27.084,-1.828,-17.553,-20.825,-11.618,-1.927,-19.833,1.57,-1.102,-18.27,-17.406,1.264,-6.407,-0.52,-11.13,-140.424,-6.642,15.256,-5.303,-37.752,0
5.701,-9.793,-165.961,-37.016,39.777,-13.392,19.194,49.381,-10.636,-14.249,5.859,-6.265,-12.607,-9.045,10.37,-13.153,12.327,0.436,-7.493,-10.728,10.996,2.308,4.604,-6.508,-126.451,5.148,20.876,16.219,-49.497,0
12.355,-10.296,-164.771,-25.708,39.225,-4.67,-13.1,62.652,-4.477,-6.55,12,-3.185,-4.397,-9.548,7.798,-9.042,12.314,-8.786,-10.047,-12.767,12.522,-6.916,-0.524,-6.502,-138.62,0.532,21.368,16.715,-41.251,0
9.269,-7.212,-163.069,-27.219,43.796,0.458,-45.363,72.835,-4.985,-8.593,12.501,-5.743,-7.979,-11.588,5.229,-11.594,5.642,-10.826,-16.185,-14.803,8.924,-12.032,-6.159,-10.594,-136.945,-10.227,17.76,4.915,-45.82,0
4.649,-6.692,-153.172,-30.266,54.511,-4.153,-12.53,63.541,-11.128,-11.658,9.927,-5.225,-13.607,-14.65,12.396,-14.656,5.636,-10.303,-17.193,-12.739,11.476,-8.434,-5.64,-16.219,-115.291,-7.143,18.255,9.009,-60.631,0
11.816,-8.735,-143.285,-29.723,56.506,-7.223,20.271,55.281,-9.58,-8.06,11.454,-2.146,-6.933,-10.025,15.457,-11.568,8.705,-9.268,-11.028,-9.14,15.051,-7.4,1.538,-15.69,-106.466,-4.062,20.798,15.147,-44.177,0
15.391,-0.017,-140.068,-18.935,61.06,7.129,-12.025,75.205,5.799,2.706,21.688,4.004,4.857,6.379,18.004,-3.872,14.331,-2.086,-1.283,-1.447,18.11,-0.221,8.196,-3.891,-113.02,-1.496,23.851,20.255,-13.394,0
8.203,9.717,-136.854,-1.498,68.683,17.88,-25.333,88.962,12.966,11.413,28.839,10.147,12.025,15.594,24.133,1.768,24.051,6.625,3.329,4.703,23.727,9.001,8.7,8.92,-119.055,8.751,29.975,32.018,-5.184,0
6.658,9.195,-131.082,-5.083,61.442,9.665,7.48,71.967,3.731,8.328,23.175,8.6,11.5,7.382,24.621,2.278,25.564,12.254,3.838,3.673,24.216,7.967,8.179,8.399,-107.665,13.866,30.97,31.986,-13.376,0
7.676,3.038,-134.537,-27.619,53.696,0.434,33.088,56.014,-2.42,-1.414,14.955,1.419,4.316,-2.872,17.425,-0.798,16.829,7.631,3.834,1.108,19.068,5.398,9.196,-0.831,-88.089,9.241,26.84,25.294,-30.268,0
6.131,1.498,-142.087,-25.03,59.79,3.508,0.78,65.692,2.705,1.661,19.038,3.467,3.8,0.205,20.993,-0.797,18.349,4.037,5.879,5.205,21.098,11.028,13.285,4.293,-94.661,13.843,28.35,36.027,-36.386,0
16.371,11.743,-134.773,0.611,67.415,12.213,-31.497,82.02,7.313,13.442,30.802,12.173,11.993,17.111,32.755,5.864,30.114,17.865,14.07,12.885,29.274,19.726,21.981,24.781,-116.596,25.612,36.007,50.848,-15.345,0
26.601,15.829,-128.49,-4.513,61.2,13.226,-24.805,76.302,2.695,8.306,27.698,8.062,8.395,17.606,26.063,5.345,23.423,18.36,10.47,7.749,24.122,15.096,17.348,22.707,-128.775,20.463,33.409,38.502,-1.497,0
13.767,3.006,-140.145,-32.173,48.331,5.528,-16.071,62.906,-3.968,-5.023,12.813,-4.753,-3.397,-4.953,3.495,-5.931,4.957,-8.299,-6.447,-6.091,14.364,0.736,1.961,-1.907,-129.158,6.098,24.154,17.459,-17.89,0
3.507,3.003,-144.615,-23.432,54.431,9.621,-33.986,78.212,4.746,4.716,17.923,0.887,0.193,-10.583,4.516,-4.388,7.001,-11.364,-4.391,-3.011,18.96,2.784,5.033,-3.954,-99.315,8.141,26.692,22.565,-34.265,0
15.286,15.808,-139.86,3.232,74.356,23.443,-34.464,97.09,19.086,18.544,32.25,13.694,11.463,2.747,26.541,5.863,19.29,8.115,7.909,9.799,26.114,12.003,14.762,6.809,-66.428,17.867,32.813,41.497,-33.207,0
16.808,7.595,-143.306,-9.067,69.159,12.662,-1.642,74.451,4.722,4.181,22.484,5.995,3.255,-3.403,24.977,0.734,15.684,4.008,1.753,4.154,20.452,4.306,8.6,1.166,-86.342,15.288,25.607,33.771,-19.341,0
0.397,-11.368,-144.7,-41.333,45.011,-15.016,31.147,42.101,-21.411,-16.316,5.555,-6.306,-14.167,-12.621,1.899,-11.562,7.984,-5.217,-7.982,-9.17,12.235,-4.919,0.906,-2.933,-118.531,5.538,17.385,10.684,-11.637,0
-6.775,-13.406,-147.629,-47.952,40.355,-19.611,10.112,40.522,-20.877,-20.398,3.5,-6.3,-18.763,-5.436,-4.763,-14.625,4.902,-3.675,-10.024,-11.21,9.661,-3.89,-0.119,-2.93,-125.585,-0.615,16.343,7.599,-32.63,0
-1.133,-6.22,-158.752,-33.559,54.66,-4.223,-22.174,64.048,-8.048,-12.693,9.132,-3.732,-13.621,-3.894,7.024,-10.512,4.385,-10.844,-7.452,-7.613,13.238,-1.324,3.467,-2.415,-119.311,4.509,17.351,17.325,-49.504,0
3.991,4.032,-145.786,-14.058,61.777,10.126,-54.427,89.599,-0.356,2.177,19.369,1.395,-3.874,-5.427,15.727,-0.767,12.577,-7.247,7.412,2.129,20.909,10.46,16.784,15.518,-114.581,22.435,28.092,24.48,-27.937,0
10.135,11.713,-120.025,-6.359,53.006,15.751,-21.585,92.071,6.305,8.835,25.498,7.029,4.327,-1.836,10.588,6.918,16.151,6.593,13.553,9.299,20.376,18.134,20.865,24.212,-87.314,27.536,35.237,28.554,-11.515,0
9.612,-0.082,-128.102,-21.21,41.17,1.903,11.224,60.216,-0.874,-3.982,14.714,-0.151,-1.313,-13.104,-1.718,-0.773,2.303,-8.271,-6.441,-4.03,10.622,0.185,3.426,-3.477,-70.321,7.016,22.394,21.353,-20.725,0
3.967,-9.816,-140.781,-28.873,48.301,-10.906,27.607,44.786,-11.631,-11.663,10.088,-5.274,-8.996,-19.751,2.894,-5.896,-3.335,-21.07,-13.607,-13.248,9.074,-11.598,-1.7,-14.744,-88.181,-1.188,17.76,12.623,-19.168,0
5.5,0.44,-128.345,-12.963,64.134,4.986,-4.696,77.529,2.725,1.157,22.374,4.978,-0.278,1.273,21.335,4.869,15.111,2.005,1.264,-1.451,17.774,1.734,9.572,7.3,-100.389,14.182,29.013,18.246,-17.612,0
8.056,3.001,-129.241,-9.364,51.775,19.326,-36.967,98.456,13.993,9.353,20.814,8.047,5.358,9.469,13.629,7.938,23.293,12.761,1.262,2.136,18.269,4.293,8.026,4.218,-99.264,14.681,25.398,18.227,-39.623,0
2.925,-12.371,-152.166,-26.261,29.182,3.425,-4.142,76.841,-1.903,-3.465,4.912,-2.72,-5.918,-8.984,-9.439,-1.804,12.511,-2.109,-10.01,-8.112,9.541,-10.056,-3.766,-18.84,-115.558,-2.24,12.053,2.84,-58.539,0
0.873,-23.629,-166.358,-36.481,34.276,-15.022,11.744,52.173,-13.684,-19.343,-1.241,-7.328,-11.548,-12.049,-9.942,-4.876,10.45,-3.643,-11.536,-11.178,3.384,-14.656,-6.836,-19.845,-134.91,-7.361,9.479,-6.897,-53.87,0
4.458,-21.557,-163.118,-39.006,44.487,-16.543,44.52,37.264,-12.646,-19.836,2.859,-3.734,-5.901,0.771,-2.247,-1.285,18.124,2.508,-7.939,-8.093,5.942,-6.445,-1.706,-9.067,-119.918,-1.718,9.982,-7.915,-38.447,0
10.089,-5.141,-137.34,-31.794,43.418,-3.719,68.553,46.449,-7.51,-5.983,15.151,4.466,-0.772,2.819,1.341,4.352,19.643,1.993,1.291,-0.4,15.67,6.369,9.054,0.164,-87.011,8.017,20.218,3.876,-19.453,0
16.739,15.356,-106.976,-9.221,51.572,18.826,36.21,79.19,6.33,7.855,28.969,13.171,6.401,-2.306,14.66,12.544,18.086,5.577,8.974,9.334,22.314,15.585,14.681,14.508,-90.51,23.378,36.08,28.976,-8.163,0
13.648,13.292,-113.529,-8.699,52.545,19.32,7.484,84.234,7.348,3.749,22.28,8.547,4.858,-8.452,16.694,10.482,13.457,0.449,0.256,1.128,16.657,8.397,5.957,13.981,-122.695,23.355,30.408,26.385,-19.425,0
1.852,-2.091,-144.154,-28.671,33.025,-2.729,40.264,51.874,-9.565,-8.551,7.913,-2.732,-6.93,-12.03,-0.228,-0.287,5.759,-13.896,-12.04,-11.169,9.468,-4.419,-3.271,-4.476,-132.306,4.376,17.058,0.231,-38.361,0
4.411,2.522,-146.059,-17.884,34.016,5.471,7.949,62.068,-3.408,-1.37,16.614,3.418,-0.776,-5.87,2.846,4.837,9.339,-9.784,-4.856,-2.448,15.094,-0.829,2.88,-8.058,-99.386,2.323,24.213,8.428,-33.2,0
18.752,16.864,-124.396,5.188,55.499,28.007,-24.335,93.769,15.551,10.927,27.868,12.636,15.107,-0.741,18.724,14.566,18.552,3.546,5.396,7.8,23.275,9.418,12.099,4.758,-75.208,16.153,33.41,33.522,-14.211,0
18.733,11.724,-124.272,-13.26,47.759,10.048,8.477,69.085,4.264,-1.892,14.52,2.378,6.895,-7.912,8.972,6.354,15.972,1.493,-2.295,-1.429,17.104,2.749,4.915,4.753,-107.408,11.013,24.668,21.706,-24.955,0
7.956,-4.681,-143.103,-38.862,23.121,-15.577,41.257,43.4,-16.232,-19.82,1.698,-9.92,-12.58,-11.491,-13.579,-5.947,8.783,-5.681,-14.075,-10.649,7.866,-11.599,-6.873,-8.059,-129.33,-4.367,14.909,1.704,-47.472,0
10.509,-5.189,-146.034,-30.627,29.245,-7.877,8.94,61.8,-9.044,-14.678,7.844,-5.299,-11.543,-6.868,-10.491,-4.405,9.287,-5.163,-10.987,-8.589,12.981,-8.513,-4.817,-13.174,-123.565,-2.825,16.431,1.19,-29.494,0
17.159,6.087,-134.617,-18.813,50.22,4.426,-23.344,75.571,4.285,-4.929,13.984,0.854,-0.773,-5.837,8.987,3.284,12.351,-2.596,-4.316,-4.994,19.116,1.229,1.848,-4.964,-117.294,5.887,22.562,2.726,-5.898,0
7.408,6.593,-130.896,-21.868,51.195,2.885,-13.587,67.81,0.695,-4.924,10.896,0.853,-0.772,-5.831,11.027,1.232,13.876,0.993,-6.874,-7.551,12.437,-1.846,1.333,2.213,-96.685,5.368,21.515,9.383,-22.798,0
3.814,3,-129.228,-24.408,42.947,0.32,19.214,57.496,-6.478,-6.456,11.398,0.852,-4.87,-1.214,3.331,-0.819,16.936,7.652,-5.842,-8.568,10.887,-3.381,2.869,5.285,-83.78,5.363,18.932,18.595,-34.046,0
20.204,10.17,-119.877,-20.797,49.051,-0.192,46.859,51.804,-2.885,-7.987,15.997,3.925,-1.791,4.934,11.013,7.892,22.042,13.792,6.971,2.711,21.123,8.406,11.575,13.477,-105.213,15.091,25.061,18.064,-11.471,0
26.332,16.307,-119.758,-18.727,55.662,4.931,14.537,65.072,1.728,-5.929,15.469,8.019,2.822,5.442,16.125,12.494,23.045,13.265,13.624,11.93,23.151,12.496,15.15,19.611,-112.793,22.249,31.184,20.608,-6.336,0
16.059,12.705,-131.421,-20.245,52.533,11.586,-17.753,80.888,0.702,1.249,16.478,7.499,4.868,-1.224,7.399,6.334,19.948,7.104,6.439,3.209,18.517,6.848,10.012,13.444,-97.311,17.103,26.542,23.149,-25.285,0
17.58,15.766,-126.679,-16.126,58.116,17.21,15.053,83.881,8.898,9.445,26.707,9.541,15.109,4.413,12.515,10.939,28.125,13.757,8.481,3.718,23.621,12.476,11.539,10.869,-103.361,17.086,27.54,20.564,-24.235,0
23.198,27.021,-109.134,-5.352,71.89,28.463,42.19,89.945,22.209,18.144,34.878,18.24,25.34,25.925,27.872,22.711,43.978,29.625,23.33,20.108,30.258,22.198,20.236,20.592,-100.184,29.877,36.221,28.228,-2.694,0
13.441,20.334,-115.172,-11.494,63.109,21.775,70.837,74.486,9.379,12.491,24.597,13.611,11.995,21.801,18.622,13.979,33.688,19.349,14.597,11.379,22.543,10.392,13.044,15.96,-74.468,24.724,30.037,26.663,-4.741,0
3.694,-1.203,-137.086,-32.487,37.43,-10.01,103.554,42.136,-18.295,-14.674,2.543,-7.407,-14.145,-10.496,-4.962,-8.577,7.014,-8.335,-15.644,-14.248,8.176,-11.647,-8.486,-3.011,-88.226,0.108,14.126,4.607,-34.45,0
6.251,-3.251,-141.048,-27.332,37.905,-15.123,71.175,45.68,-16.739,-23.369,1.003,-8.936,-16.18,-15.096,-6.494,-9.08,8.544,-5.252,-15.628,-11.16,7.655,-10.099,-6.941,-3.008,-119.389,-1.941,15.136,5.627,-42.1,0
14.954,14.17,-133.222,-4.251,63.483,15.118,38.828,78.422,6.331,0.733,20.982,10.028,2.792,15.657,12.468,10.396,31.077,16.27,9.491,8.319,21.992,7.842,12.534,14.413,-100.314,18.041,29.466,24.577,-15.418,0
21.599,17.742,-130.527,-9.369,68.03,26.886,71.577,90.127,15.034,12.516,28.134,13.092,9.961,17.178,23.726,17.046,30.021,14.717,10.506,8.311,30.167,11.42,11.497,16.96,-83.307,20.072,33.023,14.306,-5.669,0
15.942,6.454,-125.274,-20.631,47.47,16.101,83.289,77.741,8.359,2.769,19.396,3.857,1.754,-7.429,15.505,7.295,11.548,-2.204,-4.362,-0.919,22.452,1.675,0.727,2.087,-109.352,6.22,27.354,-5.688,-20.52,0
6.705,0.812,-122.587,-11.389,40.25,9.937,60.664,72.54,3.228,-2.869,12.717,2.316,-2.346,-13.057,4.731,1.14,3.34,-8.35,-6.919,-5.017,13.208,-6.523,-1.323,-6.625,-121.026,-2.496,22.204,-6.707,-24.598,0
8.747,-6.361,-135.784,-15.988,50.968,-0.319,93.391,59.148,-1.899,-7.989,8.606,2.314,0.218,-3.823,11.899,-0.398,7.435,-8.341,-8.449,-7.573,12.683,-11.128,-5.42,-4.569,-116.806,-8.128,16.034,-8.237,-23.549,0
10.276,-14.039,-144.358,-33.903,56.04,-10.565,126.085,42.182,-5.995,-10.03,10.134,3.849,3.292,6.939,24.695,3.189,14.6,-6.796,-7.416,-3.467,17.793,-8.043,-3.878,-0.978,-132.058,-7.608,13.969,-16.426,-27.624,0
4.63,-5.828,-140.115,-28.746,54.96,-0.821,93.684,47.263,-4.452,-1.823,20.37,10.505,6.875,17.179,23.645,15.993,18.684,1.92,5.399,5.245,24.435,1.699,5.86,0.047,-132.951,0.596,21.127,-15.897,-29.133,0
5.138,3.399,-145.098,-14.885,56.441,11.476,61.315,64.635,-1.374,1.765,22.399,12.031,8.917,7.428,21.572,19.051,16.104,9.09,8.468,5.753,24.411,1.698,1.243,-2.514,-115.4,-1.966,25.717,-14.344,-34.227,0
10.768,1.859,-145.465,-13.333,51.774,11.464,53.569,74.304,4.263,1.251,17.766,9.97,9.42,-3.338,26.162,11.347,14.038,7.032,0.775,3.185,18.751,-2.403,-3.369,-3.024,-114.26,-9.136,22.617,-11.769,-30.606,0
12.294,4.931,-127.389,-7.684,41.989,14.527,86.303,69.106,11.431,8.934,22.871,12.522,14.534,15.108,24.086,14.922,20.684,6.513,6.922,9.33,18.732,3.235,8.93,5.688,-105.948,-0.418,23.107,-1.511,-10.083,0
10.745,9.537,-126.237,-3.066,44.508,16.049,119.004,53.156,6.296,6.876,23.873,14.046,16.056,25.852,16.378,19.006,23.737,9.068,11.526,10.857,20.251,6.306,10.458,12.855,-94.572,6.755,26.157,4.126,-7.512,0
9.71,1.842,-146.603,-14.333,52.148,5.274,86.61,43.881,-8.567,-6.963,12.578,7.372,6.307,7.383,13.8,8.228,16.541,1.374,-4.367,-1.449,13.57,-4.971,-2.36,5.67,-126.24,-6.059,21.008,-6.124,-26.46,0
9.7,-0.721,-145.944,-20.467,49.535,0.146,54.248,52.546,-9.583,-7.981,11.029,2.754,1.689,2.252,14.298,2.072,10.889,-6.824,-13.072,-8.107,8.946,-12.651,-3.383,-1.508,-149.68,-13.226,17.913,-14.315,-34.118,0
8.665,9.014,-128.379,-10.713,50.51,10.392,68.026,68.375,4.259,2.785,22.288,10.436,10.397,14.545,20.432,11.292,18.563,5.99,0.261,2.659,16.109,-3.929,5.33,6.178,-116.743,-0.405,26.092,-6.616,-34.084,0
6.608,12.591,-125.69,-5.066,62.755,17.042,100.746,67.795,10.915,9.955,28.414,18.622,17.559,14.531,30.657,18.453,28.791,21.866,11.531,11.366,20.704,7.858,8.399,15.906,-95.109,8.817,30.165,1.588,-26.365,0
8.65,7.967,-129.15,-8.647,64.229,9.852,111.403,54.919,3.219,6.359,23.262,12.968,11.906,8.368,26.528,14.336,23.639,14.159,7.421,4.182,15.048,5.801,5.829,11.279,-112.945,2.148,24.499,-10.709,-8.408,0
12.228,5.91,-129.533,-8.639,53.406,4.719,79.017,51.79,-5.493,-3.381,15.042,4.246,4.209,3.749,13.694,6.637,12.857,-1.224,-0.783,-2.482,12.471,-2.914,-0.837,2.558,-103.098,-5.538,21.401,-21.457,-10.449,0
13.24,6.929,-135.039,-0.946,44.643,9.326,52.298,60.448,-5.488,-3.89,18.613,7.316,4.718,0.672,14.705,6.118,14.893,-0.711,1.779,3.156,18.094,0.163,1.213,10.24,-101.458,1.127,26.502,-7.091,-33.492,0
20.911,12.045,-139.002,4.178,43.574,14.952,54.807,70.121,2.202,6.872,28.329,15.505,11.373,10.405,21.862,14.821,23.587,8.512,13.561,11.349,23.199,13.482,14.532,27.649,-133.632,15.983,32.111,6.748,-38.582,0
24.477,13.058,-134.253,-10.683,51.728,14.424,68.584,75.174,6.811,8.914,26.763,14.977,12.898,18.591,19.279,17.88,26.638,11.577,15.596,12.875,24.201,13.981,15.029,28.646,-120.691,15.967,33.616,-0.431,-25.223,0
13.694,2.286,-133.094,-31.164,55.774,8.775,101.303,62.291,4.242,-1.341,17.003,7.278,8.787,9.864,12.087,9.665,22,4.393,1.236,5.178,19.566,-1.402,0.67,10.174,-87.782,-0.443,26.41,-13.75,-14.952,0
7.532,-3.352,-135.522,-20.887,44.448,7.229,101.202,55.569,3.726,-2.364,16.473,6.758,6.729,8.317,10.538,6.069,20.441,2.339,-3.888,-0.975,14.935,-6.524,-1.38,5.041,-108.187,-6.078,21.261,-19.884,-10.838,0
14.697,7.41,-132.313,3.725,40.305,11.832,68.826,73.957,7.821,5.835,20.555,10.85,10.308,18.555,14.114,13.748,28.106,13.096,8.923,5.686,17.994,5.778,8.355,18.356,-134.718,4.174,28.924,-13.204,-18.512,0
15.195,6.89,-134.23,-8.574,45.9,3.624,101.544,62.1,-1.921,-3.392,12.85,4.179,4.15,7.265,13.075,10.66,23.467,8.984,4.816,5.68,14.39,2.699,2.199,13.726,-103.845,-1.465,28.383,-8.068,-35.912,0
8.007,-12.584,-145.366,-39.817,36.632,-19.434,134.231,29.762,-23.948,-26.955,-4.581,-10.682,-15.834,-16.308,1.792,-8.306,1.926,-14.591,-22.854,-14.818,-0.994,-21.895,-19.32,-8.316,-121.672,-22.468,10.424,-26.503,-43.048,0
4.925,-20.768,-147.783,-42.851,29.936,-21.464,101.821,42.028,-24.949,-28.977,-10.724,-13.233,-22.478,-16.292,-7.944,-15.47,-3.199,-21.237,-32.052,-24.025,-2.017,-30.07,-23.912,-8.82,-153.826,-29.106,4.266,-44.407,-35.321,0
3.384,-13.063,-143.024,-34.099,39.127,-6.073,69.444,74.773,-8.53,-15.116,-3.029,-6.56,-11.185,-7.566,-5.887,-7.257,5.001,-11.994,-17.676,-12.73,7.719,-19.281,-12.617,5.021,-137.791,-20.88,11.434,-35.654,-28.625,0
1.843,-12.538,-148.004,-36.114,36.527,-9.653,102.162,63.428,-9.546,-18.687,-2.001,-6.041,-10.149,-8.583,-1.783,-5.201,4.996,-9.933,-14.072,-11.693,3.613,-18.237,-11.58,2.966,-104.865,-18.81,6.811,-23.835,-38.843,0
3.378,-12.013,-150.418,-31.467,27.269,-13.23,97.449,55.68,-15.172,-23.791,-4.049,-6.035,-15.262,-5.501,-3.318,-5.196,10.627,-7.873,-15.595,-15.267,1.047,-21.293,-16.179,0.402,-109.371,-19.303,4.755,-23.299,-49.05,0
4.4,-3.292,-141.558,-22.214,33.389,-0.921,65.076,75.604,-7.985,-12.497,1.079,-3.467,-10.123,-0.372,-3.827,-1.092,16.764,-4.279,-10.456,-10.129,10.268,-20.247,-11.552,5.012,-127.705,-17.235,11.411,-22.251,-37.731,0
9.006,-4.825,-140.392,-29.876,36.942,-10.654,97.799,50.938,-14.124,-18.12,-3.021,-9.099,-13.187,-8.569,-4.848,-4.677,4.964,-12.472,-16.081,-14.217,7.696,-26.375,-14.614,-1.653,-123.479,-20.291,5.252,-27.864,-25.397,0
13.608,-14.042,-145.374,-37.019,29.733,-27.037,122.292,26.296,-25.893,-31.422,-9.678,-11.652,-20.346,-13.683,-10.478,-7.234,3.422,-13.484,-22.725,-18.814,2.053,-26.348,-18.698,-5.75,-113.109,-22.832,1.66,-30.91,-27.421,0
8.983,-6.343,-134.983,-23.662,32.264,-8.055,89.894,59.057,-13.06,-17.558,1.09,-3.443,-8.031,-7.01,-9.955,4.556,18.788,0.362,-11.431,-6.499,11.785,-13.514,-8.945,9.625,-102.75,-12.563,13.954,-17.559,-20.222,0
3.851,2.372,-128.188,-13.392,38.38,3.224,122.592,68.732,-5.874,-8.319,6.725,-2.927,-1.363,-7.515,-3.285,10.187,13.646,-4.249,-9.371,-4.444,11.261,-16.062,-10.473,13.202,-121.09,-7.428,15.477,-16.517,-15.078,0
0.261,-11.975,-144.966,-30.285,26.046,-21.37,155.257,36.388,-25.848,-28.29,-9.676,-17.269,-19.292,-17.754,-7.893,-4.168,-4.811,-26.787,-28.317,-21.858,-3.608,-32.44,-27.369,-4.742,-153.244,-21.765,2.141,-34.431,-43.752,0
-10.497,-25.283,-155.579,-50.234,11.675,-31.595,122.826,30.204,-32.483,-36.459,-18.376,-21.862,-28.494,-20.81,-20.18,-12.36,-6.343,-26.76,-32.899,-27.471,-4.629,-33.944,-26.317,-8.836,-139.259,-31.477,-0.935,-39.52,-59.59,0
-8.438,-16.036,-141.591,-42.499,22.935,-13.632,90.428,62.961,-17.081,-21.053,-9.136,-10.57,-18.732,-11.055,-15.037,0.972,5.959,-7.266,-14.935,-13.099,5.622,-20.078,-9.897,6.03,-106.332,-17.101,8.288,-33.333,-26.743,0
14.112,-2.188,-128.642,-18.891,46.478,1.238,123.125,80.829,-4.256,-8.225,3.681,-1.338,-7.955,3.301,4.958,16.34,16.711,0.426,-2.113,-0.791,13.301,-7.25,-3.739,15.246,-111.349,-3.252,18.526,-30.738,-0.076,0
19.734,4.475,-126.464,-11.187,44.894,7.385,155.79,80.748,2.92,-4.63,10.85,1.225,-0.774,4.834,7.002,15.812,18.232,-2.648,-3.135,0.235,17.386,-4.169,-4.248,15.743,-128.143,-4.785,21.581,-17.387,-29.79,0
2.295,4.47,-126.85,-19.885,22.82,0.205,151.023,68.885,-2.718,-11.286,3.667,-2.874,-5.897,-10.54,-10.935,7.087,6.43,-7.256,-8.768,-7.962,11.221,-13.899,-7.318,10.091,-111.621,-11.953,12.338,-5.587,-51.277,0
-4.367,-8.342,-134.92,-26.525,17.674,-18.238,182.635,44.225,-22.695,-26.643,-12.219,-14.655,-21.772,-20.775,-20.146,-0.093,-5.359,-20.569,-22.079,-21.274,-2.622,-28.23,-18.069,0.348,-120.731,-21.675,-0.482,-20.95,-42.517,0
-0.264,-19.092,-146.056,-29.06,25.854,-21.806,179.891,40.595,-25.746,-31.74,-14.768,-20.788,-21.751,-15.119,-15.515,-2.654,-5.354,-30.282,-32.303,-25.352,-5.181,-31.788,-25.223,-1.702,-152.886,-28.825,-2.531,-35.786,-48.109,0
-0.776,-10.876,-139.762,-26.47,30.438,-11.026,162.293,60.534,-7.79,-18.388,-2.458,-8.984,-7.384,-7.932,-6.278,5.545,3.361,-18.981,-20.487,-13.031,4.046,-20.997,-14.439,2.398,-125.068,-17.013,6.693,-21.406,-44.987,0
1.786,-0.107,-122.204,-19.783,39.117,-6.404,189.283,67.646,-1.122,-7.099,7.791,2.296,1.332,-5.362,6.024,17.835,12.579,-7.179,-3.049,-1.747,9.677,-9.706,-2.642,4.957,-92.156,-1.627,15.908,-3.966,-15.229,0
3.834,-1.644,-124.643,-18.739,42.152,-2.811,156.818,67.066,-6.756,-6.067,10.345,0.757,0.819,-1.259,11.141,20.379,14.103,-12.807,-5.607,-3.282,9.667,-8.671,-6.738,11.612,-116.654,-4.187,15.892,-10.11,-16.238,0
1.268,-2.154,-139.376,-20.769,31.351,2.827,124.386,76.22,-5.725,-8.11,5.723,-2.318,-2.256,2.329,3.445,16.772,9.991,-15.356,-10.724,-9.427,4.535,-14.298,-11.342,16.724,-148.813,-8.281,11.265,-21.37,-39.276,0
2.804,3.483,-132.576,-12.552,32.857,2.824,157.049,74.095,0.429,-7.078,5.205,0.758,-0.204,0.79,1.392,18.293,14.592,-3.557,-2.517,-6.856,2.481,-12.747,-4.158,15.682,-131.758,-3.662,10.742,-19.812,-27.453,0
3.826,7.578,-114.513,-7.416,49.73,2.309,189.68,59.164,0.428,-1.948,12.373,3.831,6.968,0.277,9.075,23.397,23.286,4.643,4.658,1.86,7.601,-4.025,1.994,17.204,-98.839,-2.122,13.293,-11.083,-13.081,0
1.773,7.058,-121.058,-14.581,52.242,2.306,157.215,55.518,-5.72,-2.458,12.872,4.852,4.912,1.813,12.652,25.935,20.701,-0.485,2.604,4.42,9.131,-2.484,-2.619,17.186,-100.277,-0.07,15.329,-9.023,-25.363,0
4.845,0.904,-141.43,-22.763,45.53,-5.893,124.782,59.049,-13.911,-13.214,3.126,0.236,-6.364,-2.287,12.128,22.836,12.996,-10.218,-4.058,-4.806,3.486,-8.629,-8.252,12.559,-120.156,2.491,13.776,-15.161,-29.949,0
9.963,0.903,-136.165,-21.716,45.484,-6.399,105.19,65.138,-10.311,-12.176,5.172,-2.325,-3.796,-3.309,14.165,21.788,18.106,-6.622,-4.054,-5.313,6.557,-4.01,-3.12,19.206,-131.819,5.563,14.787,-13.097,-24.796,0
7.391,17.296,-110.926,-10.424,41.34,9.489,137.872,78.393,6.605,5.767,18.999,7.411,12.602,10.526,14.663,31.5,29.871,8.242,10.807,9.037,16.796,11.364,8.154,31.994,-122.978,15.291,24.506,3.822,-19.136,0
7.384,22.914,-109.79,-4.778,34.127,9.992,170.522,74.728,6.086,6.786,20.005,10.99,12.589,18.2,11.062,36.08,27.792,8.234,15.407,10.564,14.218,8.791,6.609,27.864,-104.924,15.788,28.068,10.479,-10.92,0
13.524,7.522,-133.247,-19.118,36.142,-9.486,146.273,53.136,-13.387,-13.201,5.64,-3.366,-7.403,4.35,6.44,26.822,15.981,-4.07,2.071,-5.328,5.494,-6.075,-3.644,18.102,-98.672,2.452,16.257,-2.852,-22.179,0
16.585,5.465,-136.7,-24.222,42.253,-5.378,113.852,56.669,-13.374,-12.163,6.659,-5.924,-9.445,-4.364,5.921,26.795,18.014,4.131,3.094,-3.273,10.1,0.591,-1.079,23.207,-103.184,8.597,15.728,-1.824,-33.94,0
18.105,20.316,-118.12,-3.705,42.211,16.144,143.964,79.667,4.058,6.804,21.509,7.914,9.52,4.35,8.477,38.551,26.193,19.496,14.874,13.636,16.237,13.398,9.168,30.869,-103.081,22.933,31.082,13.034,-12.389,0
18.599,21.321,-115.44,0.909,36.534,14.079,176.608,76.513,4.054,5.261,19.439,6.369,8.485,5.882,8.468,33.902,21.044,8.206,6.662,7.987,9.049,0.577,5.061,26.227,-99.392,10.615,26.44,7.386,-3.668,0
16.019,12.078,-118.399,-13.948,30.862,0.745,144.156,67.215,-4.66,-10.626,3.025,-5.933,-7.917,-2.32,4.874,21.06,14.363,-2.049,-3.079,-5.853,1.355,-10.182,-1.092,22.102,-102.878,-1.691,11.557,-4.405,-20.57,0
9.855,13.09,-110.083,-12.397,30.831,0.744,156.307,73.296,-1.581,-10.103,4.047,-2.34,-2.274,-2.318,4.357,26.162,21.009,10.761,5.121,1.837,2.378,2.124,3.007,28.74,-113.534,9.582,18.205,-0.814,-11.328,0
6.259,15.126,-114.072,-5.725,32.849,0.231,188.938,65.538,-1.067,-2.409,15.314,5.859,8.487,5.369,6.914,35.87,27.648,16.898,12.289,10.033,2.888,9.294,6.59,31.785,-115.47,14.695,26.384,4.822,0.978,0
12.401,15.624,-123.692,-9.818,32.816,-1.819,156.474,54.201,-8.238,-3.943,14.786,4.828,2.331,9.462,10.493,30.711,26.083,12.783,10.739,4.387,-1.213,4.674,6.072,30.217,-105.108,9.045,18.673,7.891,-18.49,0
18.536,20.731,-109.736,-7.246,37.907,5.356,124.042,73.615,-7.206,-4.452,13.234,4.824,0.279,10.477,12.532,29.656,24.008,15.332,6.118,5.407,-2.749,2.62,7.09,28.137,-99.88,10.061,17.629,11.469,-28.718,0
15.956,19.686,-99.38,-0.067,46.066,10.473,156.706,83.275,0.486,1.188,16.807,5.331,7.451,9.442,9.445,34.749,24.496,14.292,-1.573,6.939,-0.185,-1.994,0.935,18.375,-102.854,5.952,21.71,2.749,-21.517,0
14.915,17.617,-108.502,0.958,48.069,9.95,189.337,67.31,3.56,5.286,18.327,3.276,9.493,6.359,6.362,31.128,24.471,10.691,-3.621,-1.265,2.889,-8.139,-5.726,8.623,-112.485,-0.714,18.102,-5.963,-22.52,0
20.536,26.821,-104.807,11.715,51.607,21.724,156.872,81.588,8.679,12.453,24.969,8.396,13.582,8.402,14.04,32.634,25.472,16.316,6.629,3.859,4.423,-0.959,0.94,18.348,-120.569,6.459,21.158,-0.322,-17.887,0
21.54,29.355,-100.092,19.9,55.141,31.436,124.44,106.097,13.281,19.612,30.067,12.999,19.204,10.955,23.248,42.848,28.008,18.349,15.844,15.126,4.419,9.801,10.161,30.113,-108.666,12.6,26.772,-1.858,-11.209,0
15.371,14.469,-118.435,1.95,40.229,15.01,157.103,76.277,2.51,5.761,18.254,5.813,8.426,7.87,17.077,37.682,25.93,12.695,11.73,7.939,-0.196,5.692,6.052,22.398,-98.311,5.415,20.598,-13.127,-18.882,0
10.232,5.745,-127.025,-18.544,24.308,-7.034,189.734,45.462,-8.251,-12.688,6.965,-1.877,-4.902,1.714,6.301,25.861,19.245,9.096,4.033,-0.266,-6.856,-3.535,1.435,18.79,-122.803,1.824,16.991,-13.114,-28.597,0
12.271,3.69,-118.189,-23.649,29.919,-4.978,157.268,67.446,-4.657,-10.626,9.519,-1.363,-2.336,-5.46,2.197,26.348,16.664,2.939,1.468,1.271,-10.435,-7.63,0.922,20.82,-132.927,2.847,16.974,-15.15,-35.229,0
16.87,-7.072,-129.854,-30.798,35.012,-0.874,124.836,75.575,-4.14,-8.054,8.485,0.175,-0.284,-10.065,-0.879,24.272,15.622,-7.31,-6.731,-6.415,-14.523,-15.307,-9.838,4.405,-103.592,-8.427,7.736,-28.968,-43.903,0
7.631,-13.212,-149.704,-32.816,31.903,-9.582,157.499,48.86,-9.771,-13.682,3.354,-1.362,-4.895,-3.907,0.146,19.125,13.558,-7.302,-16.458,-13.068,-21.169,-24.513,-21.611,-13.017,-103.488,-21.226,2.605,-36.623,-50.006,0
-4.159,-7.051,-147.505,-22.537,38.531,-7.524,162.464,54.446,-5.663,-9.569,4.887,-4.434,-2.328,2.757,4.244,21.155,14.569,-2.172,-14.904,-10.494,-24.221,-25.001,-21.077,-7.369,-135.66,-19.668,5.676,-37.611,-52.006,0
-0.057,-7.557,-141.21,-23.027,36.443,0.168,130.026,73.859,-6.682,-9.048,1.296,-9.553,-8.473,-1.857,-0.883,14.986,12.505,-3.194,-17.451,-15.606,-28.296,-26.513,-22.081,-5.825,-150.382,-18.624,2.084,-40.647,-43.757,0
4.554,-9.598,-141.069,-33.25,25.136,-8.541,150.901,57.904,-19.483,-20.309,-4.853,-11.08,-19.736,-3.392,-8.054,8.311,11.98,-2.167,-23.069,-19.177,-28.78,-26.486,-22.571,-13.504,-140.497,-21.167,1.057,-36.508,-31.93,0
6.086,4.244,-128.12,-24.508,39.455,-9.045,183.538,45.038,-18.951,-15.166,5.911,-3.385,-9.47,7.882,2.712,22.647,26.313,15.254,-4.603,-2.764,-14.406,-6.992,-3.593,2.904,-134.209,-4.239,15.401,-22.127,-31.898,0
20.425,21.145,-111.086,-5.528,58.884,11.457,151.079,69.072,-4.075,2.78,22.299,9.939,5.396,16.584,18.591,39.018,36.533,30.096,17.943,14.145,-3.121,14.019,14.854,30.053,-113.583,18.306,28.706,-1.613,-30.841,0
26.552,19.587,-116.098,-7.059,45.505,15.031,118.652,84.372,-0.485,2.265,20.739,10.954,-0.757,13.493,13.962,33.344,29.324,20.332,14.339,8.496,-12.34,6.321,7.667,24.388,-86.829,13.677,25.603,8.635,-19.54,0
9.107,2.149,-134.425,-27.544,27.016,-4.451,151.321,60.209,-12.268,-13.106,6.374,-1.353,-13.051,1.184,-3.983,21.015,21.097,5.967,1.005,-7.394,-23.598,-12.129,-7.71,-1.252,-89.304,-4.267,13.794,-5.718,-19.52,0
1.926,-5.025,-133.778,-33.152,30.063,-14.693,183.958,36.071,-21.989,-21.29,0.22,-5.45,-15.087,-3.94,-10.639,16.896,20.052,4.424,-2.07,-9.436,-23.574,-13.653,-8.215,-3.3,-110.219,-4.775,9.682,-20.057,-28.722,0
14.732,8.3,-114.689,-11.09,38.23,-3.408,151.498,52.428,-16.332,-13.072,9.441,3.265,-8.412,8.359,0.642,22.514,21.056,6.469,3.055,1.844,-22.526,-5.955,-1.547,13.609,-122.404,5.476,15.82,-9.279,-30.23,0
14.205,11.878,-120.722,-1.345,42.29,3.768,119.072,70.819,-8.631,-5.374,15.579,5.823,-3.281,8.863,6.789,25.053,21.035,1.851,2.54,0.817,-26.602,-5.949,-4.619,8.473,-124.331,3.421,16.829,-9.269,-34.299,0
-1.691,-7.602,-152.364,-28.496,37.637,-8.531,151.74,50.768,-18.869,-15.615,3.268,-2.38,-11.987,-18.81,-0.902,15.294,8.207,-10.446,-10.783,-15.065,-33.748,-17.214,-16.91,-16.639,-126.256,-10.927,6.566,-34.875,-43.998,0
-1.689,-12.717,-156.31,-42.3,30.939,-17.744,178.228,44.57,-24.485,-21.235,-2.882,-1.353,-16.073,-22.378,0.124,11.181,2.563,-14.022,-11.796,-14.025,-35.251,-19.246,-16.381,-15.085,-127.667,-13.99,3.998,-39.451,-43.954,0
10.608,5.739,-124.903,-23.302,41.667,-0.82,157.558,74.239,-3.968,-3.795,13.002,10.432,1.361,10.433,9.857,26.026,23.053,3.923,7.171,3.407,-23.945,-1.808,-2.532,10.033,-114.219,2.418,15.777,-16.358,-36.226,0
7.523,8.294,-113.508,-16.106,49.31,11.476,190.188,74.165,3.72,3.381,21.698,11.958,9.045,17.082,8.31,32.66,31.739,13.653,10.75,5.965,-20.335,3.829,1.057,11.56,-102.322,8.563,19.86,-8.145,-34.14,0
-3.243,-4.009,-132.349,-25.312,39.015,-3.392,179.752,52.061,-14.726,-8.918,11.43,2.212,-2.748,-1.89,7.278,20.845,16.338,-0.705,-1.556,-1.213,-31.073,-8.983,-6.117,-0.747,-123.736,0.358,13.18,-20.432,-36.155,0
3.933,-4.005,-137.852,-26.311,42.049,-13.123,147.297,59.182,-17.786,-11.983,8.345,4.259,-4.282,3.747,15.467,19.287,18.371,-2.241,1.007,-0.187,-32.067,-8.461,-4.061,3.864,-142.056,0.87,13.167,-27.584,-34.582,0
12.638,0.609,-122.345,-27.822,55.327,-4.913,179.937,65.27,-4.96,-6.335,14.484,9.891,2.383,13.477,15.964,26.952,32.185,12.106,8.69,1.862,-25.887,-0.256,3.115,10.008,-113.224,5.992,17.252,-20.896,-35.06,0
10.064,6.757,-109.415,-22.158,48.612,3.801,212.545,59.057,-3.931,-3.255,18.568,8.344,3.405,4.754,15.436,27.437,31.64,18.241,10.219,4.934,-27.398,0.769,6.186,12.047,-84.422,7.523,19.284,-6.018,-36.562,0
16.714,21.094,-101.621,2.455,39.854,17.63,180.057,78.978,-2.902,6.482,24.185,11.409,9.549,9.873,22.08,32.021,34.682,24.883,20.454,15.176,-25.321,11.014,15.401,27.405,-87.411,17.249,28.486,5.258,-22.181,0
21.308,22.098,-100.495,9.112,41.863,26.322,147.601,95.293,2.224,11.598,26.21,13.447,11.076,25.232,16.423,35.063,39.259,28.444,28.631,17.21,-23.247,17.663,19.484,30.963,-83.225,21.843,32.044,1.667,-7.302,0
5.917,-1.49,-118.325,-14.976,36.186,3.241,180.241,69.07,-12.123,-10.442,10.815,-0.399,-6.865,14.961,2.062,17.609,24.875,9.973,10.672,0.286,-40.642,-6.433,-0.003,5.829,-87.753,3.89,12.032,-16.778,-26.762,0
-6.384,-22.493,-142.798,-34.941,24.367,-29.037,212.849,36.726,-36.701,-38.097,-12.25,-15.255,-26.839,-6.059,-6.649,-0.339,10.505,-10.53,-11.881,-17.132,-58.532,-28.456,-19.983,-9.546,-119.941,-15.582,-6.936,-36.741,-59.011,0
-1.767,-22.983,-148.29,-35.93,20.756,-32.082,245.424,23.369,-33.591,-34.985,-11.725,-13.191,-23.738,-9.127,-13.815,4.784,12.544,-7.958,-10.332,-15.066,-52.326,-19.718,-14.84,-4.413,-132.628,-15.566,0.244,-39.266,-70.735,0
6.944,-11.177,-136.871,-27.185,28.42,-1.312,212.903,56.133,-6.917,-10.871,11.853,-2.931,-3.222,-1.433,-9.191,16.05,19.191,3.321,0.437,-1.219,-39.466,-9.964,-5.091,-2.872,-99.708,-7.354,13.563,-30.517,-52.733,0
8.474,-7.068,-129.562,-22.547,36.077,13.547,180.415,88.865,0.774,-4.713,14.915,0.145,1.392,-3.481,2.089,12.96,19.172,2.806,-5.711,-2.754,-41.988,-16.614,-8.672,-8.504,-103.195,-8.371,9.451,-34.073,-25.016,0
-1.781,-18.331,-131.994,-34.82,21.184,-7.984,213.022,63.673,-22.28,-23.663,-8.154,-11.638,-17.565,-16.797,-17.38,2.189,9.419,-8.468,-21.587,-19.146,-56.29,-26.844,-18.91,-11.57,-135.367,-20.145,-0.292,-43.773,-28.065,0
-7.414,-24.461,-140.059,-39.908,3.232,-25.907,245.597,31.334,-37.627,-35.935,-14.806,-21.36,-29.842,-21.391,-39.392,-6.01,0.7,-14.095,-27.201,-25.274,-61.357,-31.94,-25.551,-13.095,-147.527,-26.785,-1.316,-41.68,-56.726,0
3.864,-13.678,-140.431,-21.938,17.061,-14.098,213.076,45.647,-29.393,-28.214,-1.471,-12.117,-21.103,-10.099,-19.373,-3.443,7.872,-6.396,-17.952,-16.027,-49.513,-24.224,-18.865,-12.57,-114.592,-20.099,2.271,-34.978,-52.571,0
10.52,-6.492,-132.094,-13.719,36.511,-4.35,180.587,59.434,-23.728,-18.965,3.141,-2.371,-13.91,-1.892,0.114,5.27,12.987,-2.804,-5.639,-5.765,-42.291,-9.342,-4.502,-6.409,-81.689,-11.882,6.367,-32.382,-28.44,0
6.411,-6.998,-131.45,-18.828,31.352,-9.468,213.194,41.956,-28.315,-20.995,3.65,-5.443,-16.458,-3.427,-11.669,7.826,5.802,-7.412,-2.047,-2.685,-47.372,-7.284,-3.985,0.257,-89.804,-8.283,11.484,-30.812,-44.293,0
12.04,-1.355,-136.953,-10.612,27.222,-5.36,180.706,54.721,-23.676,-20.462,6.72,-3.388,-13.367,-4.448,-11.657,5.769,6.821,-4.843,-2.557,-3.195,-47.324,-9.326,-9.616,0.769,-113.281,-7.251,14.546,-28.22,-63.204,0
18.176,2.232,-124.521,-2.405,33.855,6.94,148.25,83.868,-11.357,-10.195,8.763,3.788,-1.571,-0.858,1.162,10.374,17.572,2.334,3.593,0.394,-43.691,-4.706,-3.459,2.818,-119.828,-8.268,13.507,-24.093,-38.037,0
8.936,-5.455,-113.638,-8.038,30.235,2.323,180.889,61.243,-12.37,-8.136,9.266,1.222,1.505,3.754,-6.524,10.876,18.067,-0.229,4.614,1.418,-49.795,-9.312,-4.48,5.376,-112.023,-11.334,9.395,-29.192,-18.532,0
1.243,-17.744,-128.381,-17.251,21.495,-17.147,213.496,28.906,-26.19,-24.521,-0.477,-6.976,-11.817,-0.861,-18.3,-2.455,8.828,-10.475,-12.297,-13.44,-56.405,-24.159,-22.406,-9.998,-120.108,-23.618,2.214,-47.606,-33.37,0
6.364,-23.362,-140.548,-22.869,21.986,-22.253,181.007,42.71,-29.238,-30.645,-10.21,-9.018,-16.928,-13.667,-13.671,-9.112,4.208,-16.1,-20.994,-22.136,-54.812,-27.209,-26.995,-23.821,-137.919,-32.816,0.674,-55.243,-45.632,0
14.043,-11.043,-136.309,-12.6,32.722,-2.251,148.551,75.455,-16.401,-14.22,3.632,-0.812,-4.104,-8.531,-3.411,1.655,12.913,-7.887,-5.091,-4.183,-49.634,-12.325,-8.525,-5.866,-125.998,-17.413,12.457,-35.208,-47.636,0
18.127,1.775,-137.71,-2.342,40.374,6.46,181.19,75.379,-12.798,-7.546,15.412,3.799,-2.05,11.458,-0.334,9.338,26.22,6.465,5.16,6.068,-47.023,-3.091,0.705,8.997,-100.769,-3.051,17.567,-18.267,-52.199,0
14.011,-7.96,-136.548,-18.733,33.674,-12.501,213.796,43.028,-27.642,-23.42,1.052,-6.963,-14.344,7.86,-6.994,2.669,22.095,2.36,-5.091,-7.258,-53.636,-11.285,-11.078,-5.357,-107.328,-15.344,5.767,-30.031,-48.048,0
7.849,-16.149,-122.067,-28.96,28.517,-21.71,191.553,31.715,-35.299,-29.032,-4.585,-13.103,-16.891,-8.542,-10.573,-3.994,9.778,-12.499,-9.185,-10.837,-60.754,-18.446,-17.215,-10.475,-125.151,-21.476,2.687,-40.247,-29.557,0
7.841,-2.813,-117.334,-9.464,36.686,-5.807,159.086,56.786,-23.993,-18.244,7.715,-2.844,-9.189,-2.385,-2.878,-0.916,11.817,-10.437,-2.003,-1.093,-55.058,-12.792,-8.489,4.905,-119.391,-9.159,13.443,-30.986,-18.257,0
9.882,0.264,-124.901,-4.844,38.698,5.469,133.312,77.734,-15.772,-12.591,9.245,0.232,-6.106,5.814,0.711,2.159,16.416,-2.23,-0.464,0.445,-48.855,-9.705,-4.894,4.9,-99.291,-7.613,15.991,-25.832,-28.485,0
13.971,-3.323,-122.727,-13.548,40.709,8.538,165.966,77.656,-13.707,-8.48,11.797,0.745,-2.514,-2.901,0.711,4.718,14.863,-3.252,3.635,3.519,-45.733,-7.647,-3.352,1.309,-86.384,-8.118,17.512,-24.269,-41.264,0
26.765,11.025,-113.895,1.322,59.623,17.751,198.588,74.505,-1.398,5.361,29.716,14.576,8.759,4.786,12.493,15.472,25.607,7.509,16.439,16.323,-33.392,7.218,8.947,16.677,-86.298,5.21,29.278,-7.851,-34.563,0
32.373,16.137,-112.756,11.567,67.248,21.319,224.517,74.43,4.238,12.016,35.322,18.148,17.46,23.225,18.628,23.653,35.827,23.384,18.984,21.43,-28.235,12.334,9.962,21.784,-93.384,9.816,32.322,-0.671,-21.72,0
16.972,3.313,-120.328,-2.789,57.96,10.539,215.071,67.183,-9.598,1.245,22.479,4.81,10.27,15.005,10.413,12.871,23.496,11.065,8.207,10.65,-43.064,-0.998,-5.417,5.88,-105.074,-0.952,21.531,-21.675,-22.211,0
6.196,5.872,-123.794,-7.397,62.512,3.356,182.58,61.481,-15.736,-7.977,17.845,1.219,-1.523,-6.015,10.402,2.1,11.177,-9.951,3.075,0.905,-50.193,-4.584,-5.924,4.337,-115.215,-3.513,16.387,-32.924,-22.701,0
17.461,15.6,-113.424,0.807,70.135,13.599,150.122,77.301,-7.011,-2.334,26.024,9.414,3.089,-4.472,18.589,8.246,17.314,-4.306,7.171,6.027,-41.434,3.106,5.353,17.141,-105.366,3.15,23.03,-21.62,-17.555,0
24.103,13.535,-107.163,0.294,64.429,21.783,117.697,96.691,-8.029,4.328,28.048,8.38,9.234,4.242,19.082,10.799,19.858,2.359,7.676,9.608,-42.417,1.566,-0.288,7.902,-91.94,1.61,24.032,-18.524,-20.611,0
12.808,9.423,-117.302,-8.927,58.217,8.953,143.195,82.25,-18.267,-6.947,18.286,0.175,-4.096,-0.886,12.403,-0.483,12.153,-9.939,-0.529,0.376,-49.547,-7.658,-12.071,-10.549,-113.878,-8.125,16.836,-28.24,-30.325,0
12.283,8.389,-117.185,-15.066,50.986,-3.351,175.839,51.429,-19.786,-15.649,14.169,1.199,-7.165,-2.422,7.268,-2.532,14.19,-7.368,-3.09,-2.186,-46.936,-7.138,-6.423,-0.292,-134.256,-7.605,18.868,-23.088,-31.319,0
26.616,15.04,-99.137,0.318,51.448,13.046,208.451,56.501,-7.47,2.297,30.036,14.518,13.846,14.999,18.531,9.766,29.545,17.231,11.77,13.186,-41.253,7.726,8.952,23.274,-101.334,10.334,31.145,-1.036,-19.505,0
24.54,27.833,-99.55,20.298,64.204,31.476,175.967,89.232,3.808,19.201,38.716,19.627,20.493,27.28,30.296,11.806,34.639,18.75,19.955,17.271,-41.724,14.379,13.554,21.714,-68.445,18.52,32.65,7.162,-16.411,0
7.097,14.485,-125.578,4.396,60.041,16.075,143.516,91.704,-5.93,0.739,18.184,5.262,0.492,10.346,13.872,-5.112,16.161,-7.396,-0.045,-1.189,-51.417,-5.616,-4.39,0.688,-95.017,-0.454,16.224,-10.776,-32.276,0
3.504,-9.608,-134.162,-24.298,47.686,-9.556,176.16,59.337,-22.318,-23.34,3.822,-4.989,-8.73,-6.57,-0.487,-17.402,5.387,-10.975,-14.902,-10.41,-60.587,-22.516,-19.755,-9.559,-118.488,-17.359,5.961,-28.696,-37.367,0
10.16,-4.987,-118.658,-21.2,52.249,-8.01,208.772,47.495,-18.709,-17.169,16.113,2.701,2.037,3.682,14.371,-11.237,18.701,5.942,-1.054,0.359,-52.841,-13.272,-10.514,-4.939,-97.877,-13.756,11.079,-29.692,-23.498,0
7.076,1.678,-119.052,-12.469,48.098,3.781,176.287,80.235,-14.592,-7.931,19.171,3.723,1.523,3.166,15.893,-7.64,19.707,-1.748,0.996,2.408,-46.129,-8.136,-4.355,-2.885,-94.193,-10.668,13.117,-31.712,-28.085,0
2.971,-8.058,-138.401,-20.141,35.755,-0.321,143.836,96.036,-23.287,-15.607,7.881,-5.503,-9.749,-17.329,0.508,-15.829,3.806,-17.628,-12.837,-7.328,-53.767,-15.812,-13.573,-5.443,-121.763,-13.219,9.005,-37.315,-47.012,0
10.14,-5.488,-138.775,-18.072,44.428,-3.907,176.48,79.034,-19.677,-18.666,10.435,-4.985,-9.227,-9.115,3.069,-16.326,11.487,-3.266,-6.164,-5.784,-51.664,-12.21,-9.461,-2.876,-122.154,-9.107,13.095,-30.618,-38.256,0
13.716,1.689,-121.217,-14.468,45.921,-3.903,209.091,62.561,-16.584,-17.11,14.01,-0.369,-5.12,13.948,3.066,-10.162,28.894,10.57,2.039,0.37,-45.977,-8.612,-0.23,1.737,-105.638,-7.561,14.106,-24.952,-18.238,0
6.53,-10.095,-122.633,-29.31,34.604,-16.194,209.394,51.228,-30.912,-26.827,3.238,-6.004,-13.824,1.126,-7.183,-15.787,16.569,-7.372,-14.87,-8.34,-59.251,-19.362,-12.525,-1.338,-119.365,-16.263,3.334,-32.099,-22.83,0
3.449,-20.331,-137.88,-41.576,38.668,-26.936,176.909,46.566,-34.467,-35.509,-3.425,-13.17,-22.519,-20.904,-6.151,-25.505,-2.403,-23.246,-27.15,-21.652,-67.389,-27.027,-23.783,-12.608,-132.053,-22.394,-0.768,-39.752,-41.25,0
6.52,-18.774,-139.791,-40.51,29.92,-23.836,209.52,48.569,-25.723,-33.424,-3.422,-12.133,-19.935,-15.248,-9.731,-23.43,2.723,-17.587,-22.512,-20.605,-61.686,-28.025,-21.198,-17.206,-112.453,-21.86,3.843,-45.86,-42.746,0
7.026,-12.095,-129.405,-29.199,16.57,-12.541,221.606,55.18,-23.648,-23.145,-0.857,-5.461,-11.206,-3.449,-15.869,-15.21,13.991,-8.348,-15.83,-8.802,-60.087,-23.898,-17.59,-7.967,-91.848,-18.252,5.376,-47.863,-28.359,0
9.068,2.261,-119.542,-3.042,46.267,9.501,189.109,87.913,-7.743,-3.654,15.538,2.742,2.638,2.702,4.127,-8.535,17.051,-3.729,-5.568,-0.084,-55.416,-11.067,-10.913,-0.274,-86.121,-8.5,14.08,-30.397,-26.793,0
14.694,8.919,-124.545,9.769,67.226,23.323,156.644,120.612,8.658,4.547,23.207,1.202,7.246,4.236,13.856,-6.989,15.497,-4.75,-4.538,-3.67,-50.238,-8.494,-7.316,-3.348,-99.867,-1.831,19.702,-16.022,-44.185,0
11.093,-11.07,-143.376,-18.418,34.883,-0.778,189.275,88.216,-14.404,-18.512,-0.382,-12.119,-12.742,-11.65,-12.798,-16.716,5.235,-18.577,-19.902,-18.011,-62.995,-25.904,-21.653,-10.517,-132.043,-15.662,3.288,-40.084,-49.264,0
3.91,-31.551,-149.893,-45.039,10.77,-32.028,221.874,55.853,-40.517,-40.522,-20.874,-20.816,-28.098,-22.909,-30.203,-27.458,-3.479,-28.805,-29.104,-25.165,-70.105,-37.661,-34.439,-21.265,-163.162,-35.114,-10.035,-68.221,-43.579,0
6.98,-23.323,-140.009,-36.285,32.788,-25.849,189.377,73.215,-28.694,-29.211,-7.534,-12.598,-17.824,-8.029,-22.488,-18.209,6.77,-17.505,-23.439,-15.918,-59.276,-30.451,-28.769,-32.002,-130.211,-34.054,-2.341,-56.882,-47.122,0
14.145,-7.93,-137.82,-18.318,40.44,0.305,156.912,105.93,-13.296,-9.202,11.942,-0.803,-3.974,3.762,-13.244,-0.772,20.084,-2.631,-11.633,-2.582,-54.094,-17.613,-14.908,-22.749,-97.293,-18.651,6.883,-37.357,-46.562,0
16.693,-5.361,-142.293,-12.664,32.715,9.526,147.021,106.336,-13.283,-5.094,17.053,3.809,-0.384,3.246,-6.059,2.815,21.088,-0.579,1.186,2.543,-52.503,-8.374,-4.647,0.84,-106.929,-7.361,11.999,-35.783,-39.344,0
16.164,-4.331,-134.978,-14.189,40.367,3.369,179.662,97.521,-10.708,-3.04,17.548,4.317,1.666,8.878,-1.954,2.3,26.19,3.52,4.259,3.565,-45.79,-5.804,-1.569,8.012,-130.901,-1.718,16.086,-26.014,-45.452,0
15.123,2.334,-121.523,-15.711,43.913,-0.221,212.27,96.911,-8.136,-2.525,17.531,4.313,3.714,11.943,-2.465,9.47,33.849,11.713,2.718,3.562,-47.794,-5.286,-2.592,7.491,-114.376,2.382,15.045,-8.569,-40.796,0
21.255,4.893,-116.279,-11.085,43.356,0.292,179.782,90.154,-14.787,-9.694,14.439,0.723,1.148,5.784,1.636,11.509,28.179,9.14,7.326,3.046,-50.308,0.867,2.022,17.218,-92.745,5.966,16.055,-9.585,-13.09,0
25.845,2.839,-118.724,-8.512,53.559,0.804,147.327,84.428,-19.896,-14.295,11.351,-3.377,-3.976,4.753,3.172,3.813,20.467,-0.603,4.245,3.043,-48.208,-0.158,4.069,18.738,-106.484,5.96,19.113,-19.822,-6.93,0
15.573,2.324,-126.29,-15.164,58.629,4.389,179.967,88.955,-17.827,-11.72,9.803,-4.398,-8.07,2.699,-0.418,0.736,20.446,-4.701,-7.542,-1.571,-56.357,-12.453,-7.718,6.423,-131.993,0.831,13.458,-20.314,-31.001,0
9.41,1.297,-135.385,-17.198,57.033,10.02,147.512,106.284,-9.612,-7.097,10.817,-2.857,-6.013,-4.476,-1.442,2.272,15.303,-10.331,-10.609,-7.205,-60.911,-16.539,-16.932,2.319,-134.423,-5.318,7.809,-18.757,-47.876,0
15.036,-0.242,-139.86,-14.619,54.415,5.912,115.089,111.813,-7.041,-8.115,7.733,-5.927,-6.007,-6.008,-6.051,-0.292,10.164,-20.567,-10.086,-8.222,-56.239,-13.449,-16.403,1.292,-121.481,-9.923,9.338,-21.812,-50.39,0
6.824,-4.852,-139.72,-22.801,42.577,-7.926,147.762,81.475,-18.817,-19.377,-2.009,-10.532,-13.173,-1.904,-14.755,-6.439,12.716,-21.571,-15.711,-9.751,-61.306,-19.583,-17.411,-13.054,-114.187,-15.549,6.767,-29.475,-46.753,0
-1.38,-12.02,-141.63,-31.488,35.875,-14.066,180.402,63.463,-23.921,-22.432,-0.982,-5.911,-11.111,0.66,-8.08,-5.921,15.777,-11.816,-16.208,-12.303,-62.782,-23.15,-20.467,-19.701,-122.782,-18.095,4.199,-38.667,-32.874,0
15.015,-7.397,-141.488,-17.624,53.769,-1.244,147.946,95.163,-9.04,-7.04,12.339,3.316,1.708,2.196,10.884,-0.279,18.322,-5.144,-8.507,-6.143,-49.399,-15.442,-17.885,-8.411,-145.201,-12.954,8.806,-36.579,-26.694,0
21.148,4.906,-132.638,-2.237,69.597,11.052,115.522,111.461,-1.859,-0.885,15.4,3.313,1.706,1.681,14.971,0.746,20.866,-5.139,-5.937,-2.55,-48.325,-12.353,-14.794,-4.304,-145.568,-6.793,13.408,-27.321,-37.425,0
6.782,1.827,-123.283,-11.456,62.355,1.82,148.195,88.296,-14.665,-14.717,6.676,-4.375,-9.054,-1.394,2.661,-4.378,19.82,-8.72,-9.005,-7.158,-55.449,-13.877,-11.193,-9.423,-112.635,-6.786,11.345,-24.732,-41.999,0
6.775,-4.322,-129.308,-27.327,50.51,-7.916,180.834,82.572,-19.773,-17.264,5.644,-7.444,-8.533,0.144,-3.489,-7.448,24.411,-5.125,-5.41,-4.59,-50.783,-10.277,-4.009,0.833,-111.497,-5.755,8.26,-23.17,-35.809,0
18.552,2.854,-140.449,-26.275,51.484,0.289,150.427,88.638,-10.532,-5.976,12.811,-0.777,-0.839,10.39,1.637,-2.829,34.121,6.663,3.817,5.149,-47.146,-4.632,-0.931,14.664,-135.464,2.96,12.35,-17.512,-37.31,0
21.095,6.438,-135.186,-19.076,58.605,6.949,172.306,82.401,-7.96,-2.383,18.434,8.958,3.772,21.138,4.197,1.784,36.648,7.169,9.449,10.779,-45.562,2.545,2.143,10.551,-102.541,12.179,18.998,-11.347,-36.761,0
25.172,5.919,-122.755,-15.471,56.497,10.528,139.858,99.225,-4.878,1.205,24.051,11.51,8.891,17.019,4.193,0.758,34.562,-0.523,12.001,15.379,-37.319,9.203,11.363,11.565,-69.651,17.802,22.565,-6.725,-21.867,0
24.634,9.499,-128.268,-17.505,51.317,15.64,107.443,117.569,2.812,5.302,23.514,6.376,9.395,5.731,3.676,-1.805,29.917,2.551,6.866,11.777,-37.794,3.558,7.765,19.238,-100.32,16.247,17.932,-9.792,-17.234,0
10.778,-4.855,-142.996,-33.369,50.754,3.842,140.123,90.299,-7.437,-5.974,11.708,-1.828,-3.935,2.651,-2.475,-11.024,18.616,-0.013,-11.584,-3.604,-51.589,-13.864,-13.247,0.776,-132.495,-2.212,6.13,-26.688,-34.123,0
1.545,-22.269,-143.878,-43.581,44.555,-12.044,151.766,70.229,-19.725,-16.214,3.499,-6.949,-12.64,0.599,-8.108,-22.796,12.962,-15.382,-20.282,-11.797,-56.66,-21.535,-20.918,-22.791,-137.485,-18.604,-1.048,-40.494,-49.458,0
4.617,-11.488,-137.074,-31.755,37.338,-1.786,119.339,93.212,-7.922,-7.488,9.131,-3.356,-3.918,-6.061,-4.514,-19.7,18.072,-16.391,-7.966,-4.613,-51.481,-12.804,-9.627,-12.522,-124.028,-9.364,5.101,-35.842,-49.921,0
7.687,-4.304,-138.474,-27.112,43.961,5.901,151.495,102.341,-5.353,-5.432,11.171,1.771,-0.328,-6.567,-1.948,-13.02,16.517,-7.666,-5.397,-3.071,-51.941,-9.205,-8.593,-4.313,-124.929,-1.67,8.682,-29.659,-48.847,0
7.679,-20.694,-148.069,-40.405,43.917,-9.474,175.422,83.283,-22.254,-19.771,-0.623,-3.866,-12.623,-10.147,-9.63,-24.79,8.304,-16.367,-20.76,-13.827,-61.111,-23.028,-20.367,-22.239,-138.124,-17.037,-0.548,-36.801,-63.655,0
5.11,-21.185,-148.946,-38.828,32.602,-13.051,142.971,79.101,-21.207,-20.263,-2.16,-6.936,-14.66,-15.26,-11.158,-30.401,9.32,-19.425,-19.203,-15.862,-61.05,-26.591,-18.297,-23.754,-131.325,-20.094,-1.06,-35.228,-74.862,0
8.691,1.89,-129.329,-18.809,38.205,2.844,175.616,88.244,-7.866,-4.874,16.798,4.854,1.237,-0.9,-0.9,-14.489,22.118,0.063,2.846,1.06,-46.644,-2.998,-2.398,-1.188,-98.406,1.955,17.384,-13.163,-44.561,0
17.904,10.597,-111.782,-10.593,51.999,8.476,188.76,88.155,-10.932,-0.258,25.49,12.021,6.871,10.372,6.273,-5.765,27.732,7.747,10.528,10.793,-41.475,9.3,4.265,9.571,-87.55,12.712,24.539,-4.441,-11.729,0
14.3,2.39,-118.842,-19.804,54.509,2.32,156.296,84.481,-16.044,-6.918,14.706,5.861,-2.358,-1.934,8.316,-10.37,21.044,-3.531,0.783,2.585,-50.142,-4.029,-1.375,6.488,-119.737,5.527,15.293,-18.781,-17.352,0
5.576,3.924,-128.969,-22.346,65.725,6.416,123.865,94.13,-9.368,-2.813,16.229,7.905,-1.331,-1.932,12.406,-7.286,23.072,2.107,3.344,3.095,-46.506,-3.513,-1.373,5.457,-120.642,6.546,16.302,-19.275,-49.61,0
16.841,11.605,-129.865,-11.053,73.344,16.656,133.987,106.332,-3.723,6.924,28.508,18.143,10.454,7.291,14.443,-2.155,32.783,17.475,14.611,14.875,-35.189,10.835,6.313,3.914,-87.734,11.15,21.921,-12.083,-57.758,0
27.071,1.859,-138.444,-15.652,53.803,8.442,166.641,90.856,-8.842,-0.768,20.795,11.465,7.369,-1.425,7.768,-8.301,26.09,6.186,6.912,8.2,-40.789,-0.959,0.671,-5.311,-99.942,1.917,14.727,-27.44,-57.7,0
13.724,-11.975,-145.991,-42.277,43.503,-9.497,199.262,67.711,-17.543,-13.575,9.503,1.207,-1.859,3.187,-0.949,-14.953,19.404,-8.164,-6.927,-5.641,-49.97,-15.815,-10.601,-11.966,-132.117,-8.843,7.028,-37.147,-67.888,0
6.538,-4.278,-142.258,-44.284,53.706,-1.803,166.787,80.451,-10.353,-1.778,17.691,8.378,6.339,24.188,0.077,-10.327,31.168,2.602,0.252,0,-46.334,-5.553,-4.955,-7.343,-124.3,-1.662,11.631,-23.277,-65.259,0
12.679,0.337,-146.727,-27.846,46.992,10.494,134.345,97.277,-2.658,5.909,18.185,12.468,10.431,12.893,3.151,-8.267,30.624,5.673,5.375,3.586,-45.775,-0.937,2.735,-7.848,-99.073,3.975,12.644,-26.84,-59.046,0
4.981,-19.131,-152.728,-39.089,32.088,-9.496,166.998,77.2,-20.586,-17.664,-0.788,-2.401,-8.022,-10.173,-5.562,-20.042,11.638,-12.263,-13.074,-12.299,-56.488,-19.891,-9.563,-23.209,-107.171,-13.447,2.386,-50.892,-67.184,0
-3.221,-25.772,-146.94,-52.369,36.154,-23.319,199.619,67.901,-32.349,-26.867,-3.861,-8.546,-17.236,-4.528,-11.704,-26.682,10.09,-15.837,-21.77,-16.385,-58.993,-27.043,-18.263,-26.26,-117.822,-21.118,-0.691,-51.865,-71.727,0
10.103,-4.742,-146.793,-35.923,44.828,-5.877,225.547,83.202,-14.385,-8.397,9.462,3.758,-4.923,2.137,-0.421,-13.848,20.838,-3.526,-6.891,0.025,-47.151,-11.135,-6.461,-8.303,-108.995,-1.63,7.507,-28.247,-69.094,0
18.802,3.972,-153.818,-31.277,45.295,-1.773,258.109,76.459,-8.223,-6.852,13.039,8.877,-0.82,-5.55,8.801,-6.149,16.206,-4.547,-0.736,6.173,-43.005,-0.877,0.717,-0.098,-98.128,8.106,13.135,-15.411,-60.828,0
13.148,-8.327,-146.492,-46.102,39.614,-13.554,225.576,71.26,-21.023,-18.628,6.366,0.671,-9.016,-5.545,-0.942,-14.34,11.067,-10.69,-7.396,-3.567,-51.671,-6.512,-5.431,-8.295,-104.177,-2.661,10.56,-23.593,-44.373,0
12.11,-14.979,-133.538,-49.642,30.353,-10.467,193.075,93.73,-19.465,-15.536,0.724,-5.477,-12.081,-3.49,-12.212,-18.936,15.155,-9.142,-8.413,-7.662,-52.644,-13.678,-11.061,-13.922,-122.516,-8.293,4.914,-32.791,-46.378,0
11.585,-9.841,-138.015,-43.957,29.81,-3.796,225.669,96.71,-11.761,-10.91,2.773,-1.373,-10.019,-5.535,-11.687,-13.794,15.139,-7.596,-6.355,-3.556,-43.882,-15.201,-12.587,-14.42,-123.93,-7.261,2.348,-27.635,-70.923,0
7.988,-5.732,-149.148,-31.618,40.539,-3.792,258.231,84.83,-13.286,-11.923,8.918,5.8,-5.398,-2.456,-7.577,-9.682,15.637,-8.101,-3.787,-0.991,-40.765,-11.6,-12.062,-16.455,-104.339,-6.229,5.419,-25.558,-74.95,0
12.078,-8.288,-147.974,-26.463,39.474,-7.887,225.698,86.282,-18.396,-16.522,3.273,2.208,-8.979,-5.015,-9.619,-11.722,14.596,-15.265,-6.857,-4.576,-45.335,-14.662,-13.587,-23.098,-100.136,-8.272,4.389,-38.853,-62.58,0
14.628,-15.452,-143.728,-46.417,30.725,-22.224,258.26,68.778,-29.648,-27.776,-8.513,-6.503,-21.266,-13.207,-13.195,-18.37,3.823,-28.57,-20.171,-12.768,-45.802,-26.943,-21.77,-32.809,-116.43,-17.485,-3.812,-42.912,-63.542,0
10.515,-11.85,-144.609,-51.493,37.867,-22.714,290.789,57.95,-26.545,-23.138,-1.332,-1.373,-15.097,-9.095,-7.547,-14.766,5.356,-20.857,-19.638,-11.731,-40.12,-26.403,-23.798,-29.703,-123.486,-16.955,-2.271,-28.525,-59.38,0
17.164,-0.056,-136.267,-23.777,49.612,1.387,258.223,90.68,-5.514,-2.11,12.502,9.899,4.898,3.721,2.195,-0.918,23.794,-2.905,-2.712,1.601,-35.469,-9.983,-11.991,-11.742,-124.899,-0.544,7.977,-20.299,-48.05,0
20.733,-1.592,-131.008,-23.754,45.464,7.021,230.812,103.397,-7.557,-4.67,7.878,6.303,3.357,6.791,3.217,-1.43,23.77,-7.513,-2.71,3.136,-37.995,-5.362,-7.368,-7.632,-127.336,2.018,6.432,-28.476,-59.272,0
4.831,-12.862,-146.758,-50.882,39.783,-13.99,263.369,71.018,-24.456,-20.034,-4.937,-3.437,-11.504,-1.925,-1.909,-12.187,9.402,-16.215,-13.978,-8.65,-44.105,-14.066,-16.07,-22.993,-107.228,-10.792,-3.308,-37.669,-78.681,0
-2.859,-16.435,-157.37,-50.319,42.305,-18.075,243.638,70.435,-19.308,-19.502,-8.006,-2.409,-13.541,-11.656,-3.957,-11.15,9.392,-11.588,-12.427,-10.69,-44.573,-18.151,-19.128,-30.143,-89.19,-15.904,-4.329,-40.193,-79.627,0
7.903,-17.955,-147.991,-42.584,38.676,-12.421,244.931,85.734,-16.215,-21.531,-6.461,-3.944,-15.577,-13.182,-3.953,-9.09,10.92,-16.699,-13.439,-9.143,-42.48,-19.669,-16.035,-25.502,-117.79,-17.425,-4.325,-43.226,-72.375,0
4.309,-25.11,-151.429,-54.837,30.441,-23.68,277.474,65.668,-32.593,-32.781,-13.627,-13.161,-26.32,-14.193,-11.121,-18.814,2.2,-23.855,-23.159,-17.843,-48.072,-24.773,-19.605,-25.989,-149.948,-20.482,-10.981,-51.38,-74.864,0
-11.577,-30.208,-172.283,-58.88,30.923,-33.902,244.921,56.893,-36.146,-36.334,-23.86,-14.685,-30.392,-21.864,-22.893,-22.382,2.71,-19.732,-23.136,-22.948,-52.123,-28.334,-24.708,-33.135,-133.404,-23.535,-16.093,-56.964,-92.208,0
-9.516,-30.177,-172.11,-48.575,33.966,-25.159,217.524,76.816,-24.839,-33.224,-19.737,-9.035,-27.288,-20.305,-23.895,-17.236,8.343,-20.737,-18.502,-17.802,-46.948,-30.355,-24.171,-35.663,-107.143,-28.122,-13.003,-51.784,-100.825,0
-1.31,-30.66,-155.032,-54.162,29.321,-25.134,250.094,69.567,-26.864,-34.728,-16.644,-11.075,-27.773,-15.674,-20.797,-19.268,2.187,-27.377,-23.607,-19.321,-46.901,-34.936,-26.196,-32.554,-115.745,-29.631,-11.453,-47.634,-79.207,0
-11.555,-40.363,-153.852,-77.674,20.07,-44.577,282.632,39.271,-43.743,-46.476,-33.021,-21.31,-36.967,-31.54,-28.973,-30.008,-10.111,-36.058,-38.44,-33.647,-56.075,-44.122,-36.416,-36.62,-132.536,-31.651,-20.151,-59.369,-61.709,0
-16.154,-43.909,-160.871,-74.523,23.636,-44.02,250.074,51.527,-44.212,-52.065,-37.086,-20.777,-41.54,-38.68,-27.407,-31.514,-12.15,-40.121,-41.988,-34.638,-51.921,-44.59,-36.38,-37.608,-130.354,-35.717,-22.692,-64.945,-71.894,0
3.842,-18.762,-141.755,-41.66,43.592,-11.188,217.548,84.264,-14.966,-22.811,-4.774,0.249,-19.982,-10.977,-2.789,-10.991,7.842,-18.052,-17.867,-10.524,-30.352,-21.492,-13.802,-15.541,-112.805,-17.751,-3.714,-37.728,-67.211,0
13.572,4.311,-117.534,-13.954,51.234,9.316,250.119,101.598,6.054,4.876,14.699,13.056,4.116,6.452,12.071,5.927,24.74,3.996,1.106,3.318,-21.1,-3.027,-0.468,3.43,-96.298,3.784,9.61,-11.563,-45.115,0
-1.811,-8.501,-133.811,-34.945,35.813,-7.088,282.656,72.295,-9.834,-12.035,-2.222,1.26,-5.621,-10.46,4.374,-3.813,13.957,-11.377,-13.752,-10.517,-34.399,-17.369,-13.275,-8.869,-102.35,-9.028,0.891,-23.846,-53.266,0
-9.494,-21.812,-160.317,-45.156,29.63,-21.425,306.964,51.218,-26.73,-30.466,-11.954,-6.938,-23.034,-17.11,1.808,-15.08,2.672,-21.612,-27.058,-18.191,-43.586,-30.159,-23.508,-23.205,-119.666,-24.388,-4.745,-39.704,-73.705,0
0.25,-11.545,-148.373,-27.692,42.92,-18.842,283.091,52.704,-24.654,-22.239,-6.819,-2.833,-17.888,-4.285,4.88,-9.942,10.867,-7.246,-18.322,-12.025,-35.858,-22.444,-20.411,-16.521,-120.059,-16.167,-2.179,-33.004,-60.824,0
3.836,-11.533,-131.319,-28.689,46.975,-18.823,250.533,54.7,-25.654,-22.729,-9.886,-5.904,-17.87,-7.355,1.801,-10.957,5.22,-13.899,-18.816,-16.624,-30.699,-25.496,-24.489,-18.554,-112.254,-18.712,-6.788,-37.07,-40.271,0
-1.291,-23.817,-137.848,-46.079,35.145,-25.977,252.331,51.571,-32.289,-35.001,-16.024,-13.07,-30.66,-22.716,-4.86,-20.68,-12.203,-33.353,-35.191,-26.341,-33.23,-37.766,-34.198,-33.392,-121.363,-34.063,-10.879,-52.914,-45.866,0
-3.339,-23.793,-138.734,-50.644,25.376,-29.025,284.867,43.835,-32.769,-33.429,-18.057,-12.545,-30.629,-24.743,-13.052,-21.684,-10.142,-31.782,-36.693,-24.778,-32.684,-33.63,-34.164,-32.334,-137.123,-31.979,-7.795,-49.275,-61.702,0
0.763,-13.011,-131.423,-41.372,26.376,-19.262,252.306,53.013,-25.051,-22.637,-12.916,-5.36,-18.816,-12.423,-10.478,-12.953,4.213,-22.017,-19.238,-13.995,-24.967,-18.739,-23.372,-16.933,-135.449,-19.14,-3.688,-33.857,-64.202,0
7.934,-1.215,-126.169,-23.399,38.132,1.25,219.779,85.748,-8.12,-9.295,5.54,8.478,-4.965,-0.627,7.976,-1.157,16.504,-7.138,-3.849,-0.661,-15.721,-8.986,-12.077,-5.645,-112.26,-9.387,4,-25.626,-49.793,0
3.316,0.836,-120.407,-16.716,47.316,2.785,252.347,84.637,0.085,-4.675,11.682,12.568,0.676,-0.627,13.603,2.431,21.611,6.189,-6.407,0.364,-18.266,-13.076,-13.602,-6.664,-96.778,-9.89,6.045,-26.625,-40.521,0
-2.835,-14.022,-130.533,-34.63,40.096,-18.222,284.882,52.277,-17.846,-20.039,-8.309,-4.351,-17.256,-11.897,-4.853,-9.355,8.781,-9.698,-21.77,-16.03,-27.982,-28.432,-26.909,-19.465,-113.076,-27.298,-6.769,-37.357,-54.313,0
7.926,-21.693,-146.796,-42.792,32.371,-22.302,252.322,52.225,-31.148,-31.802,-15.986,-12.544,-31.071,-17.008,-17.144,-18.055,-4.547,-28.132,-26.871,-22.162,-27.442,-35.064,-30.468,-29.18,-118.598,-37.005,-11.885,-41.93,-62.456,0
11.504,-7.839,-130.768,-30.454,39.511,-7.423,219.794,78.813,-17.285,-20.5,-1.625,-0.748,-16.695,-8.794,-12.004,-11.889,6.728,-12.734,-16.086,-11.381,-19.73,-23.758,-18.654,-19.929,-90.815,-22.111,-2.139,-25.494,-44.975,0
-2.34,-1.171,-113.219,-28.375,41.009,-10.489,252.362,73.611,-7.533,-14.844,-2.648,3.351,-7.457,-3.15,-7.381,-6.242,17.992,4.185,-7.36,-8.296,-21.247,-16.562,-9.926,-6.589,-94.822,-14.404,1.449,-15.223,-37.245,0
-4.899,-11.928,-132.061,-35.006,31.234,-25.336,284.897,49.971,-19.821,-29.686,-16.478,-5.362,-21.282,-10.319,-10.96,-12.895,10.289,-4.017,-12.476,-16.484,-26.861,-21.156,-16.064,-12.218,-127.003,-24.636,-5.212,-31.601,-56.163,0
-2.333,-18.064,-147.81,-38.557,25.567,-29.921,252.337,43.261,-32.609,-40.927,-17.486,-12.016,-32.531,-20.555,-15.56,-23.641,-0.479,-16.308,-18.099,-19.542,-26.834,-26.258,-24.757,-21.427,-128.925,-27.173,-8.281,-45.914,-65.841,0
-8.99,-15.484,-137.416,-41.593,21.956,-26.305,219.809,56.538,-32.577,-34.226,-13.37,-14.053,-30.962,-22.584,-16.569,-25.667,-3.553,-20.39,-16.032,-15.424,-22.709,-27.768,-21.146,-16.795,-98.058,-23.047,-5.199,-40.745,-51.431,0
-1.809,-8.809,-126.008,-37.453,24.495,-16.033,208.831,74.924,-21.273,-21.896,-9.258,-4.818,-20.685,-12.315,-10.404,-17.444,3.111,-12.173,-9.868,-8.748,-12.952,-19.544,-8.83,-7.044,-84.64,-17.389,1.466,-28.409,-34.473,0
16.124,-2.652,-123.321,-30.755,36.254,-5.258,241.41,77.411,-11.518,-14.19,3.559,5.946,-9.393,1.53,-3.734,-10.767,16.94,4.233,-4.223,-3.616,-4.742,-9.79,-8.309,-2.939,-87.629,-8.15,7.613,-20.184,-40.074,0
9.96,-12.383,-138.567,-39.946,31.094,-17.036,273.956,55.304,-21.753,-23.397,-1.568,-5.844,-18.605,-6.156,-12.439,-18.953,10.775,-6.017,-13.44,-13.859,-16.008,-23.101,-24.182,-16.256,-102.398,-17.875,-0.08,-30.41,-66.674,0
-6.444,-33.888,-163.019,-57.837,8.009,-41.61,278.805,26.048,-42.736,-46.94,-31.792,-22.744,-40.104,-35.352,-33.944,-38.914,-16.388,-36.75,-38.017,-34.337,-36.485,-48.181,-37.478,-39.293,-121.251,-45.01,-17.498,-55.483,-80.44,0
-4.388,-32.317,-154.659,-56.242,5.952,-37.982,246.251,31.145,-38.594,-47.918,-33.297,-15.036,-36.99,-42.489,-38.008,-42.973,-18.421,-36.201,-39.004,-34.303,-31.837,-45.059,-31.293,-32.594,-120.618,-42.916,-15.431,-52.866,-61.916,0
10.473,-7.694,-121.717,-31.595,29,-8.23,213.729,63.901,-9.867,-16.619,-0.476,2.909,-11.85,-14.782,-16.966,-22.95,6.189,-12.598,-11.3,-13.264,-8.752,-18.374,-11.794,-0.798,-112.812,-11.622,4.052,-22.587,-38.288,0
18.659,2.56,-114.935,-15.169,45.365,6.123,207.88,81.256,0.39,-1.746,7.721,9.054,-3.641,0.602,-0.043,-11.144,12.842,-8.487,-2.58,-1.98,-1.571,-8.109,-2.048,4.326,-106.552,-4.95,8.146,-13.855,-40.299,0
15.055,-1.541,-124.554,-20.79,49.93,1.506,240.46,66.83,-9.857,-10.453,-2.021,4.947,-9.785,-6.058,-0.555,-18.818,5.657,-11.552,-10.262,-4.027,-5.155,-11.175,-5.632,-8.999,-79.805,-15.191,-0.059,-21.525,-57.677,0
8.38,-0.515,-120.843,-22.818,48.856,2.017,215.117,73.423,-10.359,-8.906,5.154,2.892,-8.751,-6.564,-2.091,-21.873,10.775,-5.906,-1.03,-2.486,-1.564,-7.577,-4.602,-2.842,-64.869,-7.492,3.527,-14.844,-63.767,0
7.859,-3.076,-120.722,-18.185,40.098,-2.596,214.902,73.862,-9.325,-10.434,2.075,1.865,-12.328,-12.706,-7.212,-24.412,7.178,-11.023,-0.004,-5.045,-3.099,-9.107,-3.573,2.796,-97.079,-4.41,5.573,-15.854,-49.359,0
7.339,-10.758,-129.311,-23.289,35.447,-15.914,247.474,43.05,-18.537,-23.231,-11.247,-1.211,-19.488,-24.988,-14.89,-33.61,-3.076,-19.209,-14.861,-13.237,-6.682,-15.245,-11.254,-7.965,-109.277,-15.677,-2.629,-26.084,-26.768,0
6.307,-1.013,-124.058,-19.68,48.219,-8.213,271.818,45.568,-10.834,-10.912,2.596,4.426,-5.636,-11.131,-6.166,-25.379,11.272,-6.894,-2.551,-3.49,8.181,-4.984,-4.07,-4.371,-76.38,-6.439,4.545,-11.713,-19.569,0
16.034,14.357,-107.028,-7.877,60.466,9.726,239.27,75.749,4.546,8.054,18.987,16.204,10.763,5.274,10.234,-8.96,27.655,9.507,16.919,11.37,24.055,4.755,11.303,8.441,-62.984,8.936,16.836,4.18,-32.357,0
22.166,7.683,-103.335,-20.677,51.697,1.007,206.756,67.476,-8.266,-6.811,6.673,11.065,-1.543,-12.662,5.101,-17.66,13.795,2.325,2.045,-0.937,15.834,-8.058,1.046,2.797,-95.196,-4.393,6.061,-8.632,-44.62,0
4.725,-8.719,-116.039,-40.636,34.739,-16.925,239.337,46.404,-24.651,-25.76,-7.166,-3.803,-18.447,-30.068,-10.786,-31.987,-1.588,-18.17,-15.888,-18.354,4.547,-21.369,-17.398,-8.476,-122.254,-22.319,-10.851,-24.505,-44.575,0
-5.526,-8.71,-128.219,-32.911,34.192,-13.322,271.885,48.919,-15.917,-17.025,-7.159,-2.262,-13.818,-20.304,-11.287,-27.344,0.975,-24.299,-11.261,-11.163,9.153,-18.274,-13.283,-7.443,-107.274,-16.661,-10.328,-21.919,-42.994,0
10.874,0.52,-123.48,-19.558,43.891,-4.599,250.096,55.018,-7.192,-7.274,-2.029,6.449,-5.607,-6.964,-1.542,-21.169,5.585,-15.566,-4.59,-0.394,15.292,-11.084,-5.585,-2.313,-74.892,-8.96,-5.195,-11.138,-46.025,0
15.986,0.52,-118.233,-19.539,44.36,-4.595,222.694,57.012,-13.333,-11.365,1.56,4.906,-7.651,-3.37,3.07,-21.66,8.141,-9.915,-3.56,-4.492,14.252,-9.536,-9.165,-2.823,-58.423,-9.976,-3.653,-7.029,-49.052,0
1.625,-6.653,-128.361,-20.544,40.217,-3.565,197.368,63.615,-14.344,-13.915,-3.565,1.827,-11.23,-7.466,-2.568,-20.614,8.132,-12.979,-6.631,-9.61,11.676,-15.674,-11.205,-7.431,-82.443,-9.453,-4.673,-12.145,-46.954,0
3.161,-8.183,-131.819,-23.085,39.152,-5.611,164.895,74.31,-9.719,-13.389,-8.685,1.313,-12.243,-14.63,-12.299,-22.13,5.051,-18.089,-13.796,-9.601,12.689,-22.318,-11.194,-7.936,-106.951,-12.518,-5.181,-16.231,-37.686,0
14.941,-4.589,-116.318,-30.746,34.502,-12.265,167.804,73.723,-13.295,-16.449,-7.139,-0.225,-15.305,-13.591,-15.361,-26.719,5.045,-19.608,-13.783,-12.153,16.263,-21.271,-11.183,-2.805,-93.524,-17.116,-1.077,-18.777,-28.939,0
3.655,-6.121,-113.64,-37.888,32.931,-19.938,200.424,41.374,-21.991,-21.044,-9.693,-1.249,-17.851,-12.553,-9.71,-26.18,4.016,-14.977,-9.67,-14.702,14.709,-19.201,-9.635,-1.265,-85.746,-14.537,2.51,-24.393,-34.033,0
-14.792,-13.8,-129.408,-44.51,33.922,-30.676,233.011,9.057,-29.142,-26.658,-16.344,-5.347,-20.394,-25.86,-9.188,-27.691,-4.697,-20.085,-17.858,-20.323,5.985,-26.354,-12.699,-8.948,-97.956,-17.084,-4.153,-23.344,-51.417,0
-12.728,-18.909,-136.451,-43.953,23.13,-33.207,200.503,27.491,-31.674,-29.705,-20.426,-12.514,-26.522,-33.007,-19.425,-34.323,-11.865,-37.484,-27.574,-29.012,3.418,-34.012,-19.859,-18.161,-92.735,-28.338,-10.809,-21.272,-61.612,0
-1.957,-11.718,-129.142,-33.663,21.058,-19.342,168.027,60.252,-26.519,-25.065,-18.868,-10.964,-27.008,-24.777,-17.869,-31.215,-7.242,-33.86,-21.398,-23.86,13.148,-30.392,-18.302,-17.118,-88.031,-24.211,-5.162,-23.299,-53.866,0
3.681,-0.435,-117.742,-28.506,42.554,-7.027,200.647,63.777,-18.296,-17.867,-8.603,-0.707,-17.759,-19.117,-0.945,-16.839,5.06,-8.211,-7.032,-8.979,22.869,-18.066,-8.037,-4.805,-99.214,-7.793,6.114,-14.055,-41.004,0
2.14,-4.533,-115.575,-34.113,45.073,-13.68,233.234,46.808,-19.302,-20.411,-4.496,0.831,-16.717,-16.536,-0.944,-13.236,11.203,-5.129,-6.001,-10.507,21.822,-17.536,-5.98,-2.239,-96.553,-10.347,6.62,-7.893,-43.525,0
-8.62,-19.898,-130.829,-43.301,24.023,-30.572,263.227,30.367,-30.041,-32.686,-18.836,-10.441,-28.995,-14.47,-18.874,-23.981,1.458,-26.641,-21.876,-23.816,17.189,-32.887,-18.27,-18.118,-97.481,-27.243,-4.658,-27.353,-62.949,0
-16.809,-23.977,-140.432,-49.917,21.437,-39.763,259.377,24.701,-37.184,-39.826,-29.576,-16.578,-35.114,-21.628,-20.392,-31.13,-9.302,-34.811,-32.613,-27.891,17.172,-40.539,-27.473,-27.834,-116.852,-30.802,-11.313,-38.596,-70.058,0
-13.206,-21.391,-135.68,-45.769,19.879,-36.65,245.286,31.849,-34.585,-37.224,-24.423,-12.976,-31.493,-28.779,-15.761,-27.512,-6.219,-27.604,-27.457,-27.351,20.741,-34.863,-25.396,-22.171,-111.099,-28.209,-6.691,-26.774,-60.767,0
-10.119,-22.394,-136.569,-37.526,5.514,-26.879,240.43,43.088,-24.816,-28.99,-19.276,-9.376,-25.826,-21.065,-24.966,-20.313,-2.114,-23.99,-22.307,-26.299,25.331,-32.267,-19.223,-18.05,-81.274,-26.644,-0.537,-23.162,-61.218,0
-7.547,-20.323,-134.384,-42.099,12.169,-20.705,230.968,49.192,-20.693,-23.838,-18.232,-7.318,-19.652,-15.409,-21.868,-15.169,-3.649,-25.503,-23.309,-20.637,32.99,-32.747,-16.13,-17.52,-81.193,-22.007,2.538,-29.798,-62.694,0
-2.416,-22.864,-126.565,-56.914,22.915,-27.856,215.367,39.922,-31.943,-29.962,-22.825,-9.872,-23.731,-24.615,-13.136,-18.228,-5.695,-29.576,-26.872,-25.227,32.445,-34.251,-21.237,-17.502,-105.19,-24.546,-1.051,-33.867,-50.848,0
-6.512,-30.013,-136.172,-60.444,10.597,-40.124,201.832,26.049,-40.621,-41.203,-33.048,-16.01,-34.978,-31.763,-24.906,-21.796,-7.226,-30.059,-27.869,-33.911,25.752,-37.803,-25.314,-20.046,-111.745,-31.694,-5.661,-36.907,-48.748,0
-8.555,-22.299,-142.183,-41.428,18.271,-28.813,169.355,45.491,-22.649,-28.866,-23.793,-9.334,-24.185,-22.509,-21.808,-9.479,0.466,-16.709,-16.571,-20.557,33.411,-28.031,-12.993,-11.829,-97.801,-20.392,1.005,-27.136,-58.945,0
0.675,-7.932,-123.086,-25.505,44.38,-1.632,142.033,77.721,-2.134,-4.759,-2.765,2.971,-2.644,-11.216,3.83,4.876,10.712,-4.909,-3.234,-6.192,45.161,-14.683,-2.222,-1.059,-82.334,-7.051,11.25,-12.252,-54.276,0
-1.375,-13.559,-118.352,-40.848,27.942,-10.339,174.679,61.762,-15.964,-16.025,-14.033,-5.741,-12.887,-17.865,-5.908,-4.863,0.967,-17.199,-14.502,-18.994,35.894,-24.915,-14.515,-10.792,-87.887,-16.778,3.042,-19.412,-48.586,0
-12.644,-25.841,-137.189,-57.201,-0.775,-42.604,207.292,29.424,-42.588,-46.747,-38.61,-22.129,-37.465,-29.63,-32.542,-20.228,-11.842,-33.064,-29.856,-32.295,27.661,-39.234,-26.284,-22.052,-120.075,-27.52,-5.67,-30.151,-55.198,0
-8.021,-21.717,-136.54,-44.337,11.009,-42.05,239.872,26.321,-39.984,-41.065,-28.837,-14.935,-30.768,-20.379,-20.727,-9.961,-1.584,-23.297,-23.167,-23.041,39.417,-30.998,-21.647,-15.882,-133.787,-20.32,3.045,-22.437,-52.068,0
1.209,-15.035,-117.448,-38.657,22.781,-17.929,207.357,54.984,-20.477,-17.458,-12.414,-3.649,-12.294,-9.088,-7.386,0.295,6.615,-9.441,-16.483,-17.382,45.013,-25.844,-19.576,-15.354,-100.865,-16.201,6.116,-20.877,-42.795,0
-2.891,-16.045,-114.256,-47.327,9.95,-12.788,174.874,68.249,-14.308,-16.928,-19.574,-9.281,-14.331,-14.714,-21.211,-4.828,-0.052,-13.53,-18.516,-20.951,40.357,-31.454,-18.532,-18.413,-67.977,-18.747,-0.038,-27.004,-43.777,0
-2.376,-11.418,-120.802,-28.837,10.453,-5.091,207.487,70.23,-10.708,-13.837,-16.993,-7.223,-13.292,-10.089,-19.653,2.349,6.096,-10.443,-7.227,-11.709,49.538,-20.664,-6.73,-7.123,-80.204,-8.482,7.134,-15.194,-43.733,0
6.336,-0.136,-117.095,-10.365,27.348,11.821,213.427,76.82,-3.525,-0.503,-3.656,3.031,-2.008,-1.369,-4.776,14.642,13.775,-1.211,-1.072,-5.037,54.612,-9.885,-2.625,-5.067,-93.444,-0.276,15.324,-3.396,-44.201,0
0.182,-7.82,-109.806,-34.945,31.932,-7.147,180.938,65.472,-18.891,-17.409,-17.485,-8.755,-16.35,-24.934,-15.53,-2.279,-7.244,-19.653,-24.637,-24.5,41.237,-30.879,-21.065,-24.017,-90.789,-19.744,3.013,-19.786,-56.965,0
-10.577,-25.743,-117.381,-54.378,24.728,-37.878,204.324,44.402,-34.753,-40.446,-37.447,-22.067,-38.363,-44.377,-31.396,-17.134,-23.118,-39.101,-38.957,-39.844,34.023,-47.755,-33.34,-27.067,-102.994,-36.118,-8.261,-33.599,-67.154,0
-4.931,-19.57,-129.559,-33.832,21.117,-22.471,215.902,62.801,-7.566,-21.45,-24.09,-7.7,-23.468,-21.791,-22.143,0.302,-4.14,-18.569,-19.45,-23.923,44.236,-32.338,-20.498,-8.085,-110.063,-20.2,-0.568,-19.22,-56.841,0
-0.828,-12.378,-130.454,-30.724,18.534,-10.153,191.608,76.57,0.638,-11.182,-15.357,-2.057,-9.1,-13.572,-16.485,8.499,3.037,-7.28,-14.82,-16.215,45.216,-27.182,-13.818,-12.175,-102.268,-13.52,3.531,-17.664,-40.39,0
-10.048,-34.907,-135.959,-62.969,7.245,-42.418,224.204,44.218,-31.638,-43.446,-39.932,-24.084,-37.268,-40.199,-33.887,-10.465,-20.532,-35.45,-39.396,-36.178,28.265,-48.672,-34.296,-42.901,-122.658,-39.634,-8.768,-49.922,-49.059,0
-11.063,-39.483,-144.019,-75.201,4.164,-51.597,225.517,25.219,-46.975,-53.137,-45.015,-26.621,-49.013,-38.622,-36.927,-9.943,-18.975,-35.414,-37.82,-35.63,25.163,-49.136,-39.898,-43.883,-148.663,-42.156,-9.784,-53.458,-72.576,0
-0.293,-10.242,-134.142,-42.338,30.8,-18.758,193.016,57.981,-14.141,-20.296,-13.207,-3.029,-16.689,-10.918,-11.275,14.658,9.221,-2.591,-8.58,-9.979,43.068,-23.471,-12.193,-13.613,-120.85,-12.4,6.62,-20.617,-62.257,0
1.244,-9.207,-126.835,-26.414,47.675,-14.128,225.611,59.973,-9.003,-15.665,-7.559,-0.464,-6.938,-10.907,-2.042,21.303,12.286,-0.027,-6.01,-9.457,47.636,-19.349,-3.984,-8.989,-87.942,-8.801,10.2,-17.523,-41.191,0
-5.93,-28.153,-139.004,-44.831,22.012,-43.316,258.173,27.637,-41.27,-39.728,-28.556,-13.784,-28.961,-23.192,-17.409,12.061,-3.096,-21.031,-20.861,-25.329,35.805,-32.65,-22.935,-28.96,-84.78,-26.211,1.48,-35.948,-65.74,0
-9.51,-15.83,-135.279,-46.323,7.133,-34.051,225.639,51.176,-24.322,-30.466,-23.404,-10.696,-26.37,-18.046,-19.441,14.098,-2.581,-22.035,-16.742,-21.717,36.282,-27.494,-23.425,-27.394,-99.04,-20.549,6.602,-22.592,-89.753,0
-10.525,-5.568,-118.749,-36.03,27.106,-14.549,193.138,76.74,-4.318,-16.091,-13.134,-5.05,-12.512,-18.54,-13.786,16.645,-1.041,-15.865,-13.139,-17.085,39.831,-24.393,-14.18,-17.633,-112.773,-13.357,12.743,-16.422,-63.023,0
-9.49,-20.419,-123.241,-42.142,27.591,-22.219,218.048,59.245,-21.732,-26.834,-24.904,-13.242,-20.696,-30.304,-20.432,10.481,-7.7,-15.849,-25.421,-26.801,32.107,-38.713,-23.899,-27.861,-123.419,-26.151,3.509,-40.484,-41.443,0
-6.407,-21.423,-128.754,-43.637,11.682,-25.783,233.712,59.185,-21.711,-29.881,-27.953,-14.765,-26.823,-27.713,-23.486,9.958,-7.692,-14.809,-28.47,-26.262,32.075,-38.674,-27.462,-34.493,-120.221,-29.199,-0.081,-41.468,-51.648,0
-9.474,-14.742,-124.526,-40.007,17.306,-29.856,266.266,50.929,-18.103,-30.363,-23.315,-9.628,-24.235,-15.902,-20.389,13.022,-4.611,-17.868,-20.757,-20.601,38.191,-25.828,-18.725,-23.7,-117.54,-17.899,4.53,-26.57,-56.207,0
-14.588,-23.949,-135.673,-48.676,22.411,-43.658,233.724,31.923,-36.015,-41.091,-32.513,-15.766,-32.407,-16.911,-22.93,10.447,-6.143,-18.362,-22.785,-28.265,33.542,-33.999,-23.829,-22.652,-132.279,-22.492,-1.11,-34.74,-60.249,0
-14.061,-28.535,-150.906,-52.726,17.266,-39.004,201.215,53.92,-35.467,-38.489,-37.091,-21.898,-36.473,-23.554,-23.931,7.875,-7.674,-15.27,-34.033,-34.384,29.41,-49.847,-33.539,-37.486,-145.467,-38.351,-11.355,-44.951,-75.558,0
-20.194,-30.556,-151.268,-54.21,15.712,-39.477,233.801,39.522,-29.796,-35.376,-36.542,-17.777,-30.801,-22.505,-23.907,7.868,-8.178,-19.353,-38.098,-32.3,32.454,-47.748,-32.994,-43.084,-146.346,-41.386,-11.856,-49.517,-82.655,0
-25.297,-36.161,-144.969,-67.988,14.671,-53.782,266.355,7.207,-40.525,-42.513,-35.993,-13.661,-28.721,-16.848,-25.42,10.421,-5.096,-16.26,-27.301,-27.657,37.032,-35.917,-27.325,-31.77,-124.683,-28.537,-3.647,-52.029,-75.912,0
-10.927,-19.731,-124.331,-54.6,25.927,-27.601,233.813,39.987,-22.554,-23.003,-16.489,-4.426,-16.397,-8.121,-8.489,24.243,7.716,0.15,-6.269,-14.31,50.315,-22.049,-12.953,-18.418,-91.77,-12.115,9.676,-29.436,-56.881,0
-1.183,-4.854,-102.178,-24.32,42.808,1.628,201.304,72.735,2.06,-1.463,-1.103,5.825,-1.012,-5.552,7.401,35.49,10.27,-0.875,-3.189,-6.611,60.511,-16.903,-8.842,-16.863,-90.141,-9.541,13.765,-14.549,-38.893,0
-17.575,-25.342,-119.494,-44.275,24.322,-30.649,233.891,40.387,-22.533,-28.102,-27.23,-6.989,-19.454,-22.965,-11.562,18.548,-12.282,-23.928,-29.313,-27.096,46.618,-34.305,-30.862,-27.605,-122.327,-27.975,-0.081,-44.761,-54.736,0
-26.779,-38.124,-143.453,-71.383,4.83,-52.135,201.381,18.83,-41.466,-49.59,-44.109,-23.376,-40.439,-38.311,-26.407,3.16,-25.077,-32.613,-37.993,-40.389,36.838,-42.98,-36.467,-30.139,-127.327,-34.607,-6.229,-52.913,-76.198,0
-9.846,-10.421,-117.182,-38.524,31.465,-19.295,168.905,51.599,-14.784,-21.364,-15.376,-9.008,-20.931,-24.44,-3.327,22.112,-3.535,-13.625,-9.778,-16.783,52.683,-17.322,-10.303,-7.567,-94.412,-11.518,11.196,-20.073,-53.068,0
-4.713,3.934,-96.572,-15.432,40.655,-10.054,201.523,41.813,-9.134,-9.559,-8.188,1.248,-8.102,-15.194,5.386,33.361,7.227,-5.927,-1.572,-6.008,56.728,-6.546,-5.681,0.638,-95.343,0.277,19.382,-7.757,-31.498,0
-22.127,-21.686,-125.677,-47.692,8.339,-42.32,234.11,9.496,-34.228,-36.702,-37.381,-17.197,-31.148,-33.622,-17.161,13.86,-18.908,-27.95,-27.698,-30.08,38.229,-32.667,-26.68,-22.929,-127.523,-19.704,1.944,-40.025,-51.959,0
-21.593,-30.885,-126.576,-53.28,7.818,-38.179,201.6,35.614,-29.071,-34.616,-34.782,-20.766,-33.678,-33.589,-20.218,11.797,-21.451,-30.996,-27.67,-31.587,42.289,-35.196,-24.092,-26.493,-119.198,-24.807,-1.132,-44.595,-57.03,0
-0.566,-8.825,-93.662,-20.439,35.987,-9.964,190.64,68.366,-3.426,-6.917,-7.595,-1.79,-8.029,-7.427,-3.804,32.79,10.846,-2.276,-5.613,-9.014,60.177,-12.619,-8.699,-5.461,-96.025,-6.339,15.263,-17.911,-32.382,0
-0.054,-9.329,-101.253,-28.103,28.779,-18.663,223.237,45.244,-11.108,-15.107,-16.297,-4.862,-12.632,-10.494,-5.849,25.072,4.688,-7.397,-16.366,-16.689,50.383,-25.414,-21.498,-15.702,-118.983,-13.505,9.1,-23.528,-36.961,0
-15.935,-27.25,-133.427,-46.518,16.455,-36.063,190.738,18.046,-35.687,-37.121,-35.236,-21.251,-35.161,-37.636,-19.163,4.043,-26.055,-37.103,-39.404,-35.628,38.55,-46.906,-37.87,-38.74,-123.987,-32.959,-5.253,-40.923,-59.978,0
-13.87,-13.391,-121.511,-27.004,31.295,-20.145,158.272,39.033,-27.455,-23.764,-22.905,-14.057,-24.88,-37.086,-16.07,13.772,-14.246,-25.795,-26.044,-22.785,51.831,-27.903,-23.488,-24.869,-91.075,-18.07,6.535,-21.927,-54.282,0
-6.171,0.455,-102.946,-21.853,34.338,-5.781,172.971,62.56,-6.423,-8.883,-12.124,-1.748,-6.924,-22.192,-9.394,27.079,5.748,-4.765,-10.137,-10.979,57.415,-13.018,-11.169,-6.914,-86.374,-3.195,13.701,-4.487,-45.519,0
-14.874,-20.038,-117.188,-46.935,18.934,-22.681,191.753,41.493,-16.15,-22.194,-24.92,-10.455,-17.163,-22.682,-18.094,16.805,-4.504,-18.08,-22.934,-24.288,48.648,-28.887,-26.015,-18.177,-113.44,-19.073,-1.682,-25.999,-52.645,0
-17.933,-31.288,-123.218,-52.011,14.305,-37.515,224.349,9.176,-33.04,-31.394,-30.53,-18.129,-28.929,-25.733,-29.347,11.153,-9.623,-27.284,-31.108,-27.337,52.186,-33.981,-32.136,-26.356,-115.888,-25.714,-4.242,-41.855,-47.47,0
-11.768,-24.085,-118.997,-46.323,18.389,-33.379,228.223,16.339,-29.933,-29.825,-27.426,-13.5,-27.363,-33.392,-27.268,12.167,-8.588,-26.744,-22.88,-19.113,55.72,-27.287,-21.858,-17.621,-111.161,-16.979,2.422,-32.591,-33.59,0
-15.342,-30.208,-131.173,-52.937,18.883,-29.247,195.72,45.524,-26.829,-33.894,-33.034,-16.561,-34.508,-47.703,-24.167,7.544,-18.826,-34.402,-23.37,-24.217,48.492,-29.309,-24.398,-14.017,-127.956,-19.523,-2.703,-34.608,-40.729,0
-20.45,-33.764,-131.042,-48.273,15.79,-29.218,163.249,53.676,-29.364,-32.836,-32.488,-22.18,-40.621,-40.995,-27.217,8.561,-13.684,-26.171,-26.932,-27.267,45.369,-28.255,-25.91,-15.027,-124.242,-20.529,-1.164,-38.159,-52.983,0
-18.38,-26.046,-117.078,-37.979,14.237,-30.214,195.873,28.007,-27.798,-30.241,-26.82,-17.034,-32.384,-25.585,-25.653,12.651,-1.887,-13.849,-22.807,-22.116,45.324,-26.69,-16.15,-16.549,-95.428,-16.41,6.01,-29.412,-51.906,0
-15.288,-31.143,-124.646,-41.527,16.272,-34.794,228.465,3.388,-32.381,-36.359,-31.404,-17.017,-31.839,-32.732,-24.09,6.49,-11.107,-29.204,-28.932,-25.168,40.155,-36.91,-23.307,-26.779,-86.624,-24.59,1.393,-36.043,-54.415,0
-7.076,-34.186,-131.694,-37.387,14.719,-33.222,195.961,22.852,-32.348,-32.224,-32.91,-21.099,-34.369,-35.773,-29.701,6.484,-15.707,-34.298,-35.051,-26.168,40.628,-37.897,-31.48,-36.998,-98.32,-31.225,-1.17,-50.863,-61.021,0
1.128,-26.979,-115.168,-29.153,11.118,-27.041,219.331,48.445,-18.484,-20.409,-24.68,-12.881,-23.064,-22.417,-31.209,14.162,-3.908,-14.796,-25.282,-18.457,47.759,-28.125,-19.153,-33.887,-106.419,-25.559,3.442,-46.714,-54.3,0
-2.971,-29.514,-107.881,-36.808,18.279,-30.601,251.9,34.052,-17.441,-22.437,-25.68,-7.232,-20.479,-24.444,-23.493,14.66,-4.928,-14.781,-17.059,-17.926,51.298,-25.536,-15.548,-21.558,-108.874,-21.947,4.463,-42.057,-42.975,0
-6.042,-29.484,-119.556,-36.259,27.483,-30.57,219.372,26.845,-28.694,-24.976,-29.753,-13.373,-31.217,-34.666,-18.858,14.646,-14.145,-24.5,-17.042,-18.933,52.271,-22.949,-23.217,-14.364,-109.277,-17.827,8.557,-42.015,-44.981,0
-2.45,-21.258,-126.609,-22.903,23.357,-22.342,198.148,43.212,-26.104,-20.341,-23.575,-12.847,-26.063,-32.582,-20.377,17.192,-9.52,-15.254,-13.952,-14.303,53.243,-18.315,-18.071,-13.325,-120.439,-11.661,12.135,-31.726,-52.108,0
-1.935,-24.311,-123.408,-23.905,15.649,-24.369,230.738,35.484,-18.905,-20.32,-17.916,-8.224,-16.303,-28.963,-19.844,18.2,-3.363,-9.604,-11.888,-13.264,51.141,-21.371,-14.467,-12.8,-130.052,-11.65,7.512,-27.596,-42.322,0
1.653,-26.335,-108.94,-25.93,21.781,-25.37,198.232,32.375,-18.374,-17.226,-16.874,-8.215,-15.774,-26.373,-14.189,22.28,-2.335,-15.23,-12.389,-9.152,55.188,-21.349,-17.526,-11.25,-105.844,-13.687,8.529,-33.716,-17.177,0
8.311,-20.674,-98.073,-19.244,30.468,-16.635,165.758,46.687,-18.356,-12.086,-16.857,-6.158,-15.758,-23.272,-16.224,22.258,-1.82,-16.751,-11.864,-5.557,61.793,-20.303,-14.435,-13.8,-76.536,-14.698,10.57,-33.683,-16.135,0
1.131,-26.288,-114.368,-26.397,25.827,-26.352,198.38,30.247,-20.899,-21.295,-22.475,-7.176,-17.28,-26.323,-25.941,14.551,-3.355,-17.759,-18.512,-16.31,56.096,-31.554,-18.519,-22.496,-86.194,-21.856,4.411,-34.161,-45.833,0
-9.629,-28.311,-126.037,-30.469,21.703,-34.523,177.177,27.143,-16.78,-22.811,-20.916,-7.169,-17.262,-20.149,-24.891,17.098,0.746,-13.131,-21.055,-18.855,56.552,-31.01,-22.599,-22.473,-98.403,-23.371,7.481,-36.689,-48.861,0
-2.959,-10.352,-110.03,-7.897,35.513,-8.873,144.725,59.903,0.656,-2.296,-5.526,4.109,-3.413,-4.247,-10.009,28.864,10.992,1.739,-1.566,3.193,74.426,-8.95,-5.157,-8.106,-84.472,-8.49,18.744,-24.869,-24.221,0
8.314,-2.145,-111.456,5.943,45.724,5.481,177.368,60.868,1.68,5.391,2.164,9.228,3.763,-4.755,-2.314,31.909,11.493,6.861,10.73,13.436,78.963,3.355,6.118,0.611,-81.826,2.277,20.262,-11.012,-33.931,0
8.306,-10.34,-129.276,-6.358,36.969,-13.993,209.978,28.532,-12.154,-5.885,-5.523,4.095,-3.925,-13.46,-6.41,29.828,7.383,1.219,2.523,3.176,71.199,0.278,-2.597,-0.926,-102.749,-0.287,19.217,-9.976,-55.414,0
7.785,-9.817,-114.29,-16.598,28.223,-18.077,195.936,29.528,-10.093,-3.83,-3.468,6.141,-2.385,-11.397,-9.478,28.773,11.474,-0.832,0.983,0.611,77.276,0.277,-2.082,0.612,-110.331,-1.824,22.784,-14.577,-35.379,0
9.827,-7.758,-99.318,-22.217,30.244,-11.911,222.892,27.961,-11.107,-1.265,0.634,6.647,0.692,-15.996,-8.956,22.597,7.877,-6.466,1.495,0.099,78.735,-3.821,-1.568,-4.512,-91.777,-4.384,17.638,-24.296,-16.9,0
3.157,-18.509,-119.199,-27.318,34.312,-24.195,255.457,3.855,-25.953,-17.145,-10.125,-3.094,-11.604,-23.665,-8.435,15.914,-0.328,-13.12,-9.265,-9.635,65.336,-14.576,-13.861,-18.34,-73.242,-15.138,11.473,-34.006,-29.179,0
-2.994,-16.441,-121.129,-13.458,38.889,-19.047,222.926,34.077,-15.169,-14.566,-10.627,1.008,-13.13,-10.834,-4.84,20.509,6.844,-4.398,-4.645,-7.064,68.345,-12,-10.261,-16.272,-72.145,-13.586,15.048,-23.213,-28.125,0
4.181,1.506,-97.442,6.535,44.485,4.538,190.428,66.831,8.412,8.502,4.753,15.864,5.839,-1.601,0.8,32.272,15.035,4.316,11.241,3.189,82.621,1.332,2.557,-0.375,-81.294,1.285,20.668,-4.747,-22.461,0
7.251,-0.032,-104.004,-0.131,41.879,1.459,223.025,48.321,3.793,8.494,6.285,12.774,9.931,-12.87,-0.225,32.239,9.896,-1.836,6.107,0.624,79.977,0.818,-2.569,-1.399,-91.971,1.796,19.111,-6.279,-38.32,0
-0.441,-14.377,-117.22,-10.89,31.591,-10.837,206.408,38.027,-3.383,-2.273,-2.943,3.54,-0.837,-13.37,-7.91,21.449,10.399,-2.347,-2.609,-5.012,74.262,-7.892,-7.177,-11.131,-96.49,-9.477,13.456,-16.519,-38.794,0
-0.953,-9.239,-98.148,-5.243,26.949,-5.704,173.926,57.969,4.305,3.364,-3.965,7.122,-0.324,2.525,-8.414,20.915,17.048,5.34,5.591,-0.396,79.823,-2.761,0.002,-4.972,-89.221,-2.807,16.004,-18.039,-16.214,0
7.245,-2.57,-89.34,-9.336,35.119,-11.333,206.54,29.734,-5.433,-0.225,-2.424,8.652,-0.836,2.522,-1.234,24.993,13.958,0.212,8.659,1.141,83.329,4.927,1.539,1.693,-80.935,5.905,21.111,-16.997,-18.759,0
3.652,-10.765,-105.133,-21.11,41.743,-23.105,239.121,-2.572,-19.26,-9.446,-4.983,4.033,-8.52,-9.263,-1.745,17.795,8.82,-6.96,-1.083,-3.983,78.635,-5.837,-5.635,-11.629,-89.563,-4.347,16.479,-18.517,-36.159,0
-9.159,-14.852,-108.614,-12.892,35.554,-13.348,206.607,30.219,-10.019,-2.777,-8.052,4.029,-6.974,-9.766,-7.891,13.167,9.836,2.268,-6.205,-8.59,70.359,-16.589,-13.826,-22.376,-97.671,-12.027,8.266,-22.084,-33.561,0
-10.687,-10.227,-107.48,-5.707,31.932,-7.187,174.125,54.267,-6.423,-3.287,-12.142,1.975,-5.43,-4.121,-6.858,16.74,9.826,7.389,-5.687,-9.606,66.703,-9.913,-14.837,-14.157,-82.204,-6.892,8.77,-23.599,-25.843,0
0.594,-6.118,-109.422,-13.386,43.683,-13.84,206.738,28.597,-12.564,-9.431,-8.544,-0.076,-10.036,-4.117,0.833,14.161,8.28,-3.889,-2.607,-5.498,75.858,-2.218,-4.576,-6.458,-61.117,-1.762,14.909,-14.866,-26.842,0
5.204,-1.501,-95.993,-8.249,52.349,-4.092,174.256,42.401,-3.33,2.362,0.686,7.097,-3.878,-6.674,8.005,12.098,7.247,-7.472,2.006,-1.906,82.954,-1.704,1.576,-7.476,-62.08,2.338,20.529,-7.167,-26.303,0
-4.022,-7.135,-93.847,-6.192,36.927,-2.039,141.806,61.314,-1.79,2.359,-3.925,7.602,-0.288,-11.278,3.898,14.135,4.166,-0.804,-0.045,-6.002,73.65,-2.214,-5.085,-11.055,-80.461,2.335,16.41,-16.893,-29.35,0
-12.728,-21.985,-115.783,-27.703,14.861,-29.189,174.452,28.977,-22.793,-20.185,-18.266,-5.213,-15.657,-16.903,-15.061,5.412,0.063,-2.34,-5.681,-12.656,66.916,-7.847,-9.179,-15.654,-93.189,-8.425,6.66,-30.709,-38.03,0
-8.104,-20.938,-122.327,-31.773,17.92,-37.357,188.11,3.845,-28.405,-22.726,-18.76,-7.77,-22.813,-17.398,-23.755,-3.303,-1.986,-5.924,-5.163,-13.156,71.972,-13.475,-7.12,-14.614,-95.145,-12.003,8.19,-29.654,-39.017,0
1.126,-9.646,-114.008,-15.86,33.272,-16.315,155.647,36.629,-14.545,-7.334,-11.569,0.947,-12.545,-16.868,-10.411,3.36,-3.009,-4.381,-2.596,-10.069,73.437,-9.875,-7.113,-10.501,-96.587,-3.794,14.842,-24.501,-36.416,0
1.124,-11.686,-113.381,-23.529,31.189,-13.225,188.279,41.203,-10.944,-4.765,-8.996,3.508,-7.409,-15.827,-3.229,9.505,3.142,-2.328,-2.081,-4.936,75.413,-5.767,-7.106,-12.028,-92.904,-3.79,10.729,-23.964,-36.38,0
-1.951,-11.674,-104.559,-29.141,31.158,-15.261,220.878,16.059,-5.297,-1.687,-0.79,7.603,-2.278,-6.589,-2.713,12.057,14.409,5.359,7.143,3.266,84.559,0.386,-0.951,-9.454,-75.905,-2.762,12.255,-17.28,-35.319,0
5.736,4.219,-94.208,-2.472,52.131,9.858,188.382,48.831,12.126,15.734,12.531,20.403,11.044,1.102,13.171,24.34,18.494,16.625,19.431,11.972,92.672,11.144,8.784,0.289,-58.41,10.561,26.075,-4.455,-33.234,0
9.829,5.752,-107.946,2.142,51.055,12.409,192.292,60.565,6.479,14.693,7.395,16.284,7.447,-4.535,16.744,21.242,10.278,9.948,12.239,5.812,87.968,8.06,6.726,-4.834,-61.938,9.526,25.024,-5.475,-33.713,0
-5.55,-18.845,-125.257,-30.136,18.728,-19.878,224.887,28.229,-25.803,-17.597,-18.74,-8.323,-18.688,-21.436,-7.863,-5.932,-6.638,-16.702,-13.388,-18.272,70.462,-14.49,-12.236,-25.321,-93.127,-15.075,5.019,-30.06,-44.438,0
-14.766,-25.998,-123.595,-41.889,13.586,-33.179,192.387,15.905,-32.437,-30.387,-26.918,-15.487,-28.404,-33.198,-14.003,-15.147,-17.902,-28.98,-23.621,-27.475,65.268,-23.185,-20.421,-28.37,-117.625,-24.281,-0.621,-40.789,-57.714,0
3.179,-7.017,-112.2,-14.182,33.553,-0.358,159.919,48.677,-4.74,-3.204,-7.423,1.947,-11.469,-23.943,5.991,2.286,-9.175,-12.045,-5.155,-8.493,80.572,-7.28,-4.007,-9.386,-98.552,-5.301,12.187,-20.256,-47.922,0
12.91,-3.936,-104.403,-9.045,28.908,10.913,192.547,51.702,2.949,8.582,-0.244,7.58,-0.187,-11.624,7.522,8.432,3.642,-2.299,4.584,-0.287,84.59,1.436,3.17,-3.229,-76.936,1.364,15.249,-14.088,-31.993,0
1.114,-18.789,-109.934,-25.43,17.096,-3.954,225.142,20.4,-9.349,-5.771,-11.002,-2.161,-6.334,-19.809,-4.269,0.739,-0.973,-14.593,-6.179,-12.582,75.284,-10.348,-10.154,-16.034,-107.085,-11.445,7.037,-36.103,-44.768,0
1.625,-18.77,-119.558,-19.769,22.715,-6,192.642,27.039,-7.291,-5.765,-10.478,-1.647,-10.426,-27.474,-3.752,1.763,-6.095,-12.529,-9.246,-13.594,78.282,-15.973,-14.242,-16.018,-124.909,-12.458,5.493,-37.604,-58.044,0
10.333,-11.579,-108.68,-11.552,21.667,-4.457,225.237,24.451,-5.234,-3.71,-7.394,2.453,-8.367,-17.2,-5.285,2.273,-0.966,1.316,-2.577,-7.433,77.692,-10.322,-7.568,-9.342,-91.996,-5.786,8.049,-24.246,-43.641,0
1.101,-11.055,-96.789,-20.762,18.06,-7.014,192.736,23.914,-11.377,-9.854,-13.022,-2.16,-9.895,-15.646,-11.428,-4.389,-3.014,-3.808,-6.673,-10.499,66.343,-10.824,-8.585,-15.992,-60.141,-9.879,7.529,-27.808,-34.376,0
-5.56,-9.507,-114.622,-17.668,27.263,-3.421,160.268,42.846,-6.754,-6.771,-14.034,-5.231,-12.447,-24.34,-8.342,-4.897,-9.671,-14.051,-11.789,-13.05,63.203,-14.399,-14.212,-20.587,-92.357,-13.967,6.496,-29.317,-45.1,0
-2.481,-19.232,-129.365,-18.675,20.576,-13.151,192.895,19.237,-11.871,-13.936,-20.167,-9.325,-17.045,-25.852,-12.433,-7.966,-11.198,-13.012,-11.778,-17.648,58.017,-20.02,-19.833,-19.542,-115.83,-16.002,1.367,-29.288,-49.153,0
-2.991,-29.459,-103.108,-37.099,13.895,-26.97,191.166,1.287,-24.667,-27.242,-25.783,-11.365,-20.102,-22.24,-19.08,-11.544,-6.064,-8.9,-11.766,-17.63,53.348,-21.025,-17.764,-22.596,-82.927,-17.011,-0.172,-41.042,-40.395,0
6.234,-8.937,-77.389,-20.668,41.546,-3.377,158.699,34.073,-5.687,-3.649,-7.826,4.016,-6.762,-10.435,-0.106,5.886,10.336,4.428,1.566,0.318,67.639,-2.561,-1.864,-10.278,-67.987,-3.162,13.661,-29.73,-33.694,0
12.888,7.978,-96.267,5.48,52.263,18.143,191.328,52.482,12.25,14.286,2.94,13.234,6.052,-2.74,13.727,17.151,15.449,9.547,10.786,5.953,70.646,6.664,2.748,3.564,-100.194,7.088,20.307,-7.671,-39.296,0
-9.154,-15.084,-125.885,-22.702,22.497,-11.077,223.924,20.154,-10.816,-13.393,-19.092,-7.272,-10.86,-24.767,-6.779,-4.383,-8.133,-16.59,-10.229,-15.058,50.595,-17.422,-15.698,-12.833,-115.976,-8.801,2.869,-25.082,-56.163,0
-20.416,-28.389,-124.222,-42.659,20.937,-28.996,191.425,8.351,-24.125,-23.626,-28.294,-14.949,-25.706,-37.037,-17.019,-15.137,-18.371,-29.894,-23.539,-22.215,47.47,-28.163,-23.366,-26.652,-96.392,-19.551,-6.356,-39.914,-58.156,0
-1.44,-9.405,-107.704,-14.952,48.069,1.771,158.958,41.13,-2.584,2.525,-7.774,2.996,-8.262,-13.434,0.929,5.37,3.164,-5.273,-6.609,-8.36,59.206,-9.691,-13.609,-13.306,-92.197,-6.723,5.946,-19.381,-39.142,0
3.172,-9.395,-107.084,-16.986,42.898,10.991,191.587,44.163,1.004,3.035,-4.692,2.481,-0.569,-10.859,1.953,8.951,5.723,2.417,-4.041,-5.79,55.048,-11.731,-13.083,-12.78,-82.371,-6.204,7.477,-22.948,-36.03,0
-7.59,-31.927,-119.272,-45.146,19.289,-18.734,224.183,11.843,-18.977,-20.534,-22.618,-13.403,-20.036,-33.902,-14.955,-6.94,-13.238,-18.59,-19.407,-17.055,47.309,-28.113,-22.292,-30.698,-69.993,-21.055,-5.338,-53.664,-55.973,0
-8.094,-32.408,-120.69,-36.904,23.368,-25.375,239.328,1.073,-21.519,-20.514,-24.645,-9.803,-23.09,-25.159,-13.916,-4.884,-9.127,-16.522,-15.801,-19.088,45.725,-22.962,-23.294,-33.229,-85.805,-21.034,-6.358,-49.512,-63.09,0
-9.111,-15.469,-107.762,-17.912,40.25,-4.345,206.813,26.175,-5.616,-2.562,-9.763,-0.06,-5.136,-3.104,-3.143,9.466,6.252,-0.624,-5.027,-9.847,44.142,-12.18,-17.123,-24.487,-89.305,-8.718,2.87,-23.847,-48.17,0
-6.028,-8.794,-101.506,-19.431,48.407,5.393,174.331,40.493,2.074,3.588,-2.069,-1.597,1.017,-12.323,-0.579,12.018,3.172,-5.234,-7.071,-5.739,47.684,-11.144,-11.471,-19.339,-71.285,-4.098,7.478,-21.261,-37.363,0
4.224,-11.859,-113.188,-20.949,47.846,3.338,187.477,41.478,-2.539,-1.027,-5.653,-3.644,-4.619,-26.655,-0.066,6.371,-4.516,-13.426,-11.675,-10.856,47.636,-15.743,-10.947,-16.246,-85.559,-7.68,5.934,-30.462,-45.01,0
-3.977,-19.019,-123.321,-25.026,37.552,-4.862,202.146,30.165,-11.758,-8.71,-13.844,-7.227,-11.787,-23.555,-6.726,1.754,-7.073,-14.437,-14.737,-15.456,37.342,-20.851,-17.084,-18.279,-117.748,-13.82,-0.22,-38.628,-57.261,0
-14.731,-24.123,-118.074,-35.759,26.244,-18.177,234.732,11.692,-16.357,-16.898,-17.929,-11.318,-17.923,-22.506,-13.379,1.752,-7.578,-19.546,-17.284,-13.391,32.182,-19.293,-19.628,-17.748,-118.143,-14.831,-3.806,-42.688,-57.716,0
-2.934,-14.878,-111.808,-30.601,29.804,-13.548,202.222,27.05,-6.606,-12.783,-12.276,-4.647,-12.27,-25.558,-4.656,7.898,-3.985,-17.477,-11.631,-8.255,37.785,-13.638,-12.436,-9.021,-103.68,-7.644,3.883,-29.837,-48.949,0
3.729,-1.543,-109.647,-12.127,36.947,9.007,169.744,59.81,7.232,4.136,-2.017,2.53,1.575,-21.946,3.545,13.525,0.63,-5.164,-2.398,-1.586,39.797,-10.551,-4.227,-4.914,-93.33,-0.976,11.051,-11.877,-48.9,0
-5.496,-4.103,-104.927,-9.041,30.762,11.047,202.362,49.504,4.664,5.669,-0.99,-0.034,3.11,-11.678,-1.069,15.049,2.679,-1.573,1.703,0.977,36.683,-4.905,-4.735,-8.495,-73.769,-0.975,7.966,-13.402,-57.56,0
-6.515,-16.906,-104.822,-28.5,22.022,-9.968,234.948,17.179,-10.71,-10.218,-10.723,-4.645,-5.09,-6.031,-4.142,12.984,4.725,-5.157,-1.372,-5.684,31.011,-6.949,-10.366,-15.146,-57.302,-5.073,1.811,-28.245,-54.941,0
-2.922,-19.963,-109.84,-39.23,26.611,-16.106,202.437,20.236,-14.798,-14.819,-14.299,-5.664,-9.183,-14.222,-2.089,10.41,1.134,-6.177,-6.494,-10.802,24.832,-17.701,-11.38,-17.181,-65.441,-6.605,1.296,-34.365,-39.517,0
-5.481,-8.16,-108.194,-21.26,42.978,1.841,169.959,53.004,-2.488,-3.021,-4.038,-4.634,-6.1,-25.991,5.598,12.961,-2.965,-10.782,-6.488,-7.205,25.832,-13.584,-6.758,-7.942,-81.77,0.062,6.418,-22.035,-36.916,0
-8.549,-4.054,-106.036,-9.455,48.57,8.499,176.962,61.147,-0.436,-1.993,-3.01,-5.142,-7.631,-26.477,11.228,14.997,-2.45,-14.869,-5.969,-7.198,26.318,-7.423,-7.263,-2.811,-85.274,2.623,6.924,-13.816,-52.248,0
-12.639,-24.542,-114.639,-41.721,20.857,-20.199,209.572,28.811,-24.514,-25.558,-27.085,-15.383,-22.993,-26.451,-11.837,3.711,-10.132,-18.953,-17.234,-20.51,12.46,-25.346,-19.551,-19.202,-94.41,-16.335,-5.378,-34.295,-58.344,0
-14.676,-40.399,-123.234,-71.393,-7.341,-47.331,242.151,-3.493,-40.883,-43.975,-40.378,-25.101,-34.24,-37.183,-39.49,-9.1,-21.905,-29.18,-28.487,-31.761,1.689,-38.129,-27.729,-28.917,-116.858,-32.712,-15.107,-52.191,-47.527,0
-4.415,-19.866,-114.914,-39.047,10.085,-21.156,209.633,29.298,-16.764,-21.902,-17.284,-13.293,-15.763,-34.072,-22.544,1.668,-12.149,-25.052,-17.188,-18.921,9.884,-20.16,-16.43,-10.445,-106.495,-14.236,-2.796,-33.184,-42.356,0
8.909,3.207,-97.38,-6.22,38.252,11.653,177.148,62.056,11.942,10.908,4.25,5.163,9.868,-12.521,3.094,22.671,4.257,-4.535,0.76,1.59,22.682,-2.721,-2.581,1.861,-73.6,7.295,13.088,-15.22,-47.949,0
4.802,-8.579,-97.795,-26.706,32.066,-5.777,209.759,29.719,-1.902,-0.886,-6.512,-0.477,2.174,-10.459,-5.106,20.086,0.666,-2.994,-4.876,-3.535,23.172,-13.989,-10.776,-15.047,-74.551,-3.983,4.878,-26.475,-56.611,0
-2.887,-22.915,-115.628,-48.196,25.886,-33.948,242.336,-2.586,-20.856,-23.939,-18.289,-13.285,-15.247,-24.281,-9.2,7.259,-9.068,-20.409,-17.679,-17.876,14.439,-27.295,-23.573,-27.839,-106.752,-18.324,-6.91,-31.059,-61.677,0
2.751,-3.424,-107.828,-19.459,41.742,-4.2,209.819,30.204,-0.343,-3.423,-4.951,-4.05,-4.473,-18.621,10.789,15.448,-6.498,-20.389,-6.39,-6.075,16.986,-12.411,-12.791,-9.368,-111.256,-2.936,4.88,-14.122,-48.808,0
4.797,16.559,-75.445,0.028,45.286,26.542,177.334,62.962,18.101,19.634,10.936,8.25,11.413,-9.381,21.537,30.29,0.169,-10.122,10.522,8.788,27.728,8.094,2.079,10.109,-78.357,15.51,18.195,-4.374,-29.804,0
-2.892,2.71,-78.443,-26.099,31.921,-0.637,209.944,30.623,-3.947,-0.365,-0.346,-2.005,-1.919,-23.204,10.245,22.575,-4.954,-17.284,-1.272,-4.028,20.015,-4.21,-7.657,-5.783,-76.23,3.199,8.956,-15.128,-38.995,0
-1.865,-15.735,-108.591,-42.979,21.131,-32.399,242.522,-1.683,-25.46,-21.882,-21.35,-14.81,-16.774,-36.501,-5.647,7.695,-17.245,-29.562,-19.201,-18.369,5.651,-25.21,-20.969,-29.856,-94.596,-15.76,-1.3,-25.359,-55.35,0
4.797,-4.449,-105.921,-20.395,27.257,-11.362,210.004,31.107,-5.454,-6.491,-11.595,-6.599,-3.949,-28.779,-5.129,13.835,-12.617,-21.336,-7.911,-7.08,13.33,-12.89,-10.19,-21.629,-76.059,-5.498,7.923,-16.112,-47.61,0
9.403,12.974,-89.933,2.167,50.796,21.437,177.518,63.863,25.802,20.668,15.057,9.802,15.522,-14.406,14.344,33.801,7.888,-3.896,13.614,9.834,27.149,6.591,4.677,-3.677,-60.101,13.463,19.186,-4.826,-42.439,0
14.005,5.789,-100.09,-10.643,60.479,18.342,210.129,65.336,21.678,22.697,12.992,12.866,14.995,-6.707,23.039,34.28,14.028,-1.331,11.039,8.799,21.486,-1.1,-0.45,-8.796,-77.46,7.302,15.068,-19.165,-50.082,0
5.281,-14.197,-109.211,-42.907,37.365,-13.952,242.706,32.996,-7.545,-3.454,-9.562,2.094,2.172,-10.799,7.134,16.315,4.792,-8.502,-6.903,-5.554,5.583,-20.055,-15.819,-22.107,-94.288,-11.148,2.758,-41.688,-52.081,0
-12.655,-22.38,-109.614,-52.598,21.446,-34.43,275.251,0.687,-19.321,-20.357,-17.237,-8.154,-8.589,-21.034,-5.681,9.126,2.226,-9.005,-15.606,-15.283,-5.693,-27.207,-21.951,-30.282,-91.632,-17.285,-4.417,-39.084,-63.299,0
-7.007,-17.747,-119.238,-32.566,26.035,-17.49,242.7,33.474,-8.543,-10.602,-12.097,-4.047,-9.605,-22.038,-1.064,14.24,0.687,-8.996,-13.028,-11.681,-7.224,-24.106,-17.318,-33.838,-80.782,-15.218,-2.363,-25.213,-68.359,0
10.419,-8.507,-111.434,-19.213,28.571,3.02,210.182,66.228,1.199,1.191,-5.937,3.642,-4.984,-18.942,6.109,17.812,-5.974,-18.209,-7.38,-5.522,-2.606,-17.422,-10.641,-22.533,-86.849,-9.056,5.324,-24.676,-39.602,0
11.433,-1.327,-88.269,-21.756,28.03,6.603,242.76,60.527,2.735,1.702,-3.37,0.564,-3.955,-23.021,3.029,19.844,-5.968,-21.777,-5.323,-4.492,-3.628,-12.794,-6.02,-7.654,-111.865,-0.337,9.417,-26.188,-28.291,0
