Cz,Fz,Fp1,F3,C1,C3,T7,C5,CP5,CP3,CP1,P1,P3,O1,CPz,Pz,Oz,O2,P4,P2,CP2,CP4,CP6,C6,T8,C4,C2,F4,Fp2,Label
-15.878,-17.135,-108.527,18.363,-28.704,-18.786,336.3,-4.528,-18.381,-25.982,-32.33,-32.588,-32.784,-18.622,-26.472,-16.902,-16.602,-18.225,-40.965,-36.695,77.781,-37.25,-33.708,-42.973,-36.936,-42.466,-37.411,-42.004,-119.868,3
-22.01,-20.192,-106.882,12.709,-36.36,-23.378,303.689,-11.184,-19.899,-25.444,-32.81,-36.141,-30.702,-36.534,-37.204,-14.323,-27.856,-31.527,-38.875,-36.659,75.654,-32.601,-30.088,-36.782,-69.174,-39.862,-39.423,-33.765,-121.285,3
-16.848,-19.647,-123.567,-0.632,-32.2,-23.339,303.626,4.189,-18.845,-26.423,-29.168,-30.955,-27.579,-22.633,-27.92,-8.155,-13.979,-13.036,-32.66,-31.474,78.056,-28.448,-19.285,-19.822,-69.035,-31.599,-35.252,-34.733,-101.066,3
-21.93,-20.62,-110.513,10.132,-10.617,-19.695,303.499,-10.65,-16.749,-25.849,-26.027,-25.763,-26.488,-33.338,-22.73,-5.06,-15.992,-17.61,-29.001,-27.304,83.027,-26.333,-21.796,-22.848,-76.551,-28.454,-33.638,-37.211,-116.235,3
-32.132,-25.2,-130.269,-3.726,-41.844,-20.181,303.437,-2.969,-16.722,-22.734,-30.08,-31.353,-25.932,-18.425,-31.405,1.088,-8.285,-11.436,-28.439,-30.329,71.592,-27.825,-16.641,-25.878,-71.308,-33.014,-34.602,-34.077,-126.24,3
-24.895,-28.213,-106.962,1.925,-29.462,-23.718,303.31,-11.653,-18.735,-30.364,-33.088,-31.8,-29.973,-31.19,-28.26,-4.031,-16.973,-17.047,-31.452,-32.315,70.938,-32.885,-26.843,-24.292,-75.744,-33.456,-37.601,-40.655,-102.943,3
-23.313,-21.502,-133.89,9.598,-26.335,-15.99,300.658,-2.416,-9.479,-19.55,-22.779,-28.66,-20.693,-23.445,-25.646,3.658,-14.377,-28.785,-24.73,-26.616,75.918,-18.994,-12.453,-22.702,-55.133,-26.732,-30.357,-22.146,-132.948,3
-25.851,-23.53,-121.461,9.588,-28.87,-11.875,268.082,5.271,-6.908,-15.432,-18.658,-22.996,-15.55,-24.959,-24.083,9.29,-12.313,-15.436,-23.68,-24.028,74.818,-18.463,-12.441,-15.507,-66.349,-26.193,-29.814,-33.395,-104.638,3
-16.091,-20.945,-97.261,7.017,-28.329,-9.814,283.183,6.803,-6.389,-13.88,-19.152,-24.51,-15.022,-20.323,-20.985,13.891,-7.69,-4.15,-24.169,-21.955,72.182,-17.42,-12.428,-14.979,-60.135,-26.167,-28.76,-42.07,-81.992,3
-12.489,-18.875,-106.385,5.473,-24.714,-14.415,315.688,-5.499,-8.431,-17.964,-22.206,-28.071,-18.593,-12.618,-24.55,10.291,-9.219,-14.904,-24.657,-24.494,71.597,-15.865,-13.441,-13.94,-72.37,-21.53,-27.194,-34.344,-110.087,3
-29.382,-31.664,-138.554,0.345,-37.497,-34.893,342.012,-30.597,-23.792,-33.828,-35.504,-39.314,-31.382,-27.462,-40.92,-2.014,-24.067,-36.919,-36.928,-39.327,60.767,-29.682,-24.698,-24.172,-94.327,-28.68,-37.413,-32.26,-140.715,3
-31.915,-38.804,-137.904,-11.951,-47.706,-42.031,309.395,-34.152,-29.916,-38.917,-42.641,-40.812,-33.912,-35.119,-47.026,-3.037,-20.969,-28.685,-39.965,-39.287,57.12,-36.312,-28.772,-36.955,-78.863,-39.923,-40.962,-40.937,-127.767,3
-12.927,-19.81,-104.978,-9.89,-26.141,-11.762,276.81,-1.331,-4.783,-12.751,-20.569,-18.229,-9.8,-4.858,-22.389,16.434,5.179,2.594,-13.797,-17.219,76.018,-14.247,-11.837,-26.16,-45.997,-24.513,-24.015,-28.089,-101.511,3
-14.451,-8.007,-101.287,3.952,-7.672,7.205,267.312,21.725,11.615,3.656,-4.667,-12.576,3.53,6.417,-6.997,26.151,8.76,1.055,-2,-11.566,81.578,-5.523,-2.091,-13.326,-50.049,-6.558,-17.843,-8.593,-109.094,3
-26.732,-18.246,-124.239,8.047,-22.521,-11.758,299.832,-8.523,-3.253,-14.279,-19.007,-28.957,-12.355,-15.618,-24.408,13.83,-3.544,-15.852,-17.368,-22.825,64.078,-17.813,-10.798,-20.485,-77.151,-15.773,-29.096,-14.732,-127.941,3
-14.922,-13.616,-114.894,12.649,-30.183,-15.844,332.32,-17.736,-6.836,-15.289,-20.012,-24.317,-15.416,-6.893,-27.458,11.254,6.194,-1.492,-15.301,-19.216,64.526,-14.209,-10.275,-16.878,-65.804,-18.831,-24.968,-17.791,-107.833,3
-0.563,0.229,-97.36,19.297,-9.661,3.639,299.712,10.971,7.515,3.682,-3.599,-13.022,-3.106,14.118,-8.475,21.489,14.384,7.731,-5.552,-11,76.757,-6.51,-3.093,-4.054,-49.856,-8.566,-13.16,-11.625,-74.937,3
-5.173,-6.943,-111.095,10.056,-1.454,3.635,274.822,9.423,4.946,-2.47,-8.206,-22.231,-6.689,-2.29,-12.053,17.882,1.562,-12.769,-16.305,-16.625,68.483,-15.725,-9.237,-13.784,-70.299,-15.218,-19.295,-22.885,-87.158,3
-10.291,-13.596,-121.743,4.411,-16.31,-11.737,307.335,-14.665,-9.403,-18.861,-21.005,-26.819,-16.928,-15.608,-24.848,8.13,-3.562,-16.342,-21.411,-22.756,60.218,-17.759,-12.302,-25.041,-75.351,-21.35,-26.96,-26.96,-119.346,3
-12.33,-1.799,-107.276,14.14,-22.441,-12.75,339.815,-15.163,-7.857,-14.744,-16.886,-20.645,-12.3,-5.346,-18.163,11.196,1.564,-5.055,-11.144,-21.196,64.768,-9.032,-5.629,-16.306,-50.685,-10.57,-21.81,-8.49,-118.202,3
-14.879,2.301,-97.435,18.737,-15.246,-0.954,307.2,3.295,2.91,-4.995,-10.209,-21.649,-5.116,-7.39,-14.047,15.795,-0.999,-13.759,-11.133,-17.076,64.191,-8.51,-6.136,-13.216,-51.147,-9.023,-17.177,-5.92,-91.956,3
-7.692,-0.775,-98.362,19.742,-14.206,9.805,274.617,22.248,10.591,1.67,-7.637,-18.553,-1.525,-12.505,-19.156,16.804,-2.535,-18.356,-13.171,-13.473,64.127,-9.527,-8.179,-17.814,-68.514,-11.063,-17.16,-14.111,-84.179,3
3.586,4.861,-95.19,22.797,-17.778,9.795,307.13,23.762,9.556,2.693,-7.117,-14.436,0.526,-0.71,-15.038,18.836,6.689,-3.481,-4.448,-11.923,69.186,-3.882,0.026,-9.599,-66.909,-1.83,-15.606,-5.388,-98.44,3
-1.028,2.807,-94.07,15.601,-17.761,-0.973,339.611,0.685,-0.7,-7.044,-11.721,-19.033,-5.11,2.877,-13.486,17.281,8.22,-0.916,-3.419,-12.423,66.043,-3.365,0.538,-6.003,-62.743,-2.853,-16.615,-4.358,-106.538,3
-12.81,-6.93,-98.075,11.487,-18.255,-7.12,306.996,-10.075,-7.871,-9.598,-14.271,-20.038,-11.765,-5.323,-22.182,13.165,-0.498,-12.186,-13.662,-14.46,62.391,-10.534,-13.295,-20.854,-60.119,-16.683,-20.697,-18.698,-95.161,3
-12.797,-3.849,-97.464,22.747,-17.212,0.572,274.413,4.28,-3.253,-1.904,-8.621,-15.92,-6.63,-5.83,-17.037,12.127,-3.571,-12.174,-13.648,-13.421,66.427,-10.524,-15.843,-26.981,-46.739,-16.154,-19.652,-17.655,-83.283,3
-4.075,2.302,-95.83,26.822,-11.56,8.256,306.927,9.911,3.923,1.684,-1.44,-11.805,3.111,-2.238,-0.626,16.726,2.58,-2.428,2.759,-2.649,66.873,5.88,0.054,-8.511,-42.081,-2.817,-11.435,-6.366,-86.786,3
-2.534,0.763,-99.833,17.062,-6.425,6.198,339.407,3.241,4.944,6.293,2.66,-6.67,6.694,-0.699,0.912,25.418,6.164,3.21,16.076,6.575,69.367,19.707,12.35,10.453,-47.675,5.382,-6.813,0.812,-97.97,3
-5.605,1.787,-95.122,9.36,-2.833,8.754,331.896,5.8,6.476,13.459,5.219,-3.077,9.249,4.425,-3.188,29.491,6.67,2.695,16.06,5.032,75.446,18.15,13.874,8.393,-47.627,10.5,-5.269,7.984,-92.749,3
0.548,10.494,-83.756,12.937,4.855,19.503,303.899,10.917,13.129,15.495,8.287,-0.513,14.875,7.495,5.525,27.413,9.737,3.204,13.995,6.564,73.321,17.108,12.324,4.799,-57.826,15.613,-0.653,9.513,-71.139,3
3.109,10.484,-93.406,23.682,5.875,18.972,285.152,12.443,13.116,15.48,9.304,0,13.835,0.827,8.593,26.873,7.166,0.127,11.419,7.582,68.637,17.603,7.188,6.843,-70.576,12.523,0.372,1.306,-70.555,3
-5.603,-2.334,-117.903,22.122,-0.791,5.633,266.424,11.918,3.369,11.366,3.659,-7.685,2.551,-8.907,-3.711,21.211,-5.137,-11.144,0.65,-4.209,66.007,5.802,0.521,-5.971,-55.136,0.727,-10.387,-9.966,-98.662,3
-5.598,-8.48,-119.323,9.804,0.747,5.115,278.453,8.832,3.366,5.719,-0.443,-10.239,-1.55,-6.849,-5.244,15.042,-7.181,-14.206,-3.45,-7.791,63.379,1.185,0.52,-14.162,-37.15,-1.322,-14.475,-13.03,-105.736,3
2.605,3.312,-98.199,10.819,6.381,16.893,310.962,8.824,14.121,16.984,8.779,2.067,12.283,4.941,10.13,25.273,7.171,-0.36,12.435,8.611,67.414,16.554,8.717,3.27,-41.211,11.999,-2.165,-1.233,-85.65,3
-2.521,12.018,-92.465,14.394,1.252,19.437,324.484,13.938,18.205,29.775,19.016,8.725,24.567,11.596,15.243,36.518,16.897,10.399,25.743,15.774,71.958,25.759,18.442,14.538,-38.608,20.184,6.034,14.137,-83.003,3
-5.08,10.469,-102.106,7.72,-0.799,15.832,291.884,15.461,16.138,24.109,16.948,4.106,20.956,11.072,12.666,31.871,15.856,8.852,21.106,9.099,65.738,20.097,17.911,5.302,-27.299,19.139,2.442,13.611,-90.604,3
1.585,7.385,-110.201,10.274,7.399,15.304,262.903,12.371,14.072,15.888,9.246,0.003,10.689,9.011,13.166,23.642,11.229,2.183,10.327,3.967,61.574,12.393,7.135,-1.876,-34.956,14.509,-3.708,1.302,-82.317,3
-8.15,-2.869,-116.751,12.313,4.83,7.604,290.817,6.211,4.837,6.651,-2.034,-9.731,2.481,-0.731,3.931,13.372,-0.565,-10.115,-0.954,-5.771,56.901,1.622,-2.606,-9.046,-57.975,0.662,-11.389,-10.483,-84.796,3
-20.438,-11.575,-111.511,-3.581,-4.909,-0.088,258.25,9.791,-2.853,-0.016,-7.667,-16.381,-1.108,-13.026,-4.269,6.187,-8.249,-15.74,-6.076,-13.962,47.623,-6.064,-5.165,-13.648,-75.336,-8.048,-15.989,-16.62,-95.982,3
-6.585,4.318,-97.567,-2.553,2.781,13.744,225.717,32.835,9.445,14.841,4.636,-5.606,8.115,-8.915,8.542,16.427,2.005,-4.453,5.2,-3.19,53.723,4.188,1.5,-1.339,-63.99,5.28,-7.776,-2.771,-87.177,3
5.717,18.146,-100.031,18.454,11.487,27.05,258.279,38.438,20.194,25.073,14.365,0.547,15.792,0.828,16.219,22.558,10.713,5.797,15.441,6.547,62.378,12.381,8.671,6.347,-31.138,15.521,-0.596,13.113,-84.016,3
-5.047,5.32,-103.517,14.85,0.205,8.068,290.808,6.124,-0.318,3.018,1.031,-11.237,0.407,-2.246,-1.216,9.215,5.066,-0.356,5.18,-3.706,51.558,4.684,3.027,-6.467,-29.058,4.747,-6.23,1.317,-92.129,3
-9.653,-5.444,-90.094,-1.559,-6.967,-13.457,323.305,-24.62,-21.835,-11.329,-9.216,-17.373,-13.938,-5.318,-9.924,4.083,1.988,-8.041,-0.973,-10.362,45.871,1.093,-4.661,-10.047,-57.718,-0.381,-11.859,-17.127,-81.79,3
-4.52,-4.414,-99.738,-5.144,0.212,-5.247,290.706,-6.665,-11.567,0.977,-4.084,-13.257,-5.728,-2.239,-1.717,11.251,5.059,-3.934,3.639,-4.204,52.485,3.653,-2.095,-6.963,-48.438,4.231,-12.36,-17.623,-76.585,3
-11.176,-11.069,-125.766,-15.385,-1.325,1.931,258.14,13.322,-0.284,-0.561,-7.666,-14.781,-3.16,-3.774,-4.277,5.092,1.981,-2.393,-3.025,-8.298,44.235,-4.035,-5.679,-17.714,-22.775,-2.946,-17.983,-20.167,-94.44,3
-21.923,-20.792,-115.394,-27.152,-14.644,-11.391,288.621,2.038,-12.579,-13.88,-19.441,-21.938,-16.477,-10.43,-16.056,-6.183,-4.169,-13.149,-13.268,-21.61,31.383,-13.253,-16.431,-25.381,-47.855,-14.726,-24.625,-32.442,-101.005,3
-20.876,-22.308,-97.86,-18.416,-24.875,-12.917,305.75,-3.088,-19.227,-11.305,-19.422,-26.527,-18.51,-12.469,-22.7,-6.69,-5.702,-19.284,-13.255,-24.15,30.84,-14.776,-16.415,-19.208,-80.082,-13.174,-25.113,-31.897,-95.269,3
-15.22,-18.187,-111.594,-6.102,-23.314,1.953,273.169,18.432,-7.425,-1.559,-12.23,-22.915,-10.807,-10.407,-22.165,-5.146,-6.209,-11.068,-13.754,-18.49,33.883,-11.175,-10.763,-18.164,-66.17,-8.038,-20.477,-19.57,-92.612,3
-11.619,-12.534,-118.143,-3.534,-18.167,4.513,280.581,23.025,-5.368,-3.095,-12.218,-17.256,-11.821,-7.835,-17.532,-2.067,-4.665,-9.52,-10.154,-14.373,34.874,-6.041,-11.265,-22.245,-46.124,-7.006,-13.796,-15.452,-82.785,3
-8.021,-11.497,-107.778,-5.58,-22.248,-6.25,313.088,-5.687,-18.17,-11.801,-15.28,-19.801,-15.395,-7.827,-18.539,3.058,-3.636,-13.609,-0.41,-13.334,35.863,-3.986,-9.717,-19.661,-50.176,-4.437,-12.758,-23.121,-82.703,3
-1.865,-11.485,-105.621,-11.722,-22.225,-6.244,324.045,-16.953,-20.201,-11.277,-12.191,-17.732,-11.793,-9.356,-19.033,3.055,0.466,-3.349,2.152,-9.735,35.315,-0.908,-4.071,-16.567,-53.2,0.178,-13.77,-22.585,-93.378,3
5.821,1.846,-91.171,-4.538,-4.785,12.205,291.446,13.291,-4.812,6.665,-0.395,-3.882,0.514,-6.273,-5.694,10.224,6.613,5.876,6.248,0.009,40.403,9.851,2.08,-10.403,-53.147,7.35,-3.51,-2.071,-82.014,3
3.766,12.603,-73.149,19.032,6.491,30.636,258.879,38.38,5.951,19.466,9.851,2.27,10.759,-0.631,5.583,19.948,5.582,-2.839,15.976,5.132,44.973,17.014,6.689,-1.684,-57.704,15.028,5.203,10.739,-60.415,3
-3.922,2.856,-90.495,18.501,-3.762,20.359,291.408,21.948,-3.788,6.127,1.644,-9.003,2.552,-1.655,-3.132,10.194,-1.596,-11.033,9.3,-1.533,35.707,10.337,2.072,-7.83,-50.987,9.89,-5.048,-6.178,-63.941,3
-3.406,-9.442,-112.433,-8.157,-15.541,-8.863,323.904,-10.349,-21.203,-14.884,-16.288,-20.265,-13.332,-8.314,-14.912,-4.673,-4.668,-11.022,-7.103,-11.778,25.425,-2.994,-7.664,-23.703,-42.226,-4.977,-18.876,-20.516,-79.246,3
-1.353,-9.945,-103.099,-18.395,-13.476,-20.637,326.654,-25.708,-26.817,-18.968,-19.345,-20.757,-17.417,-12.404,-17.971,-4.156,-5.176,-14.597,-8.633,-17.402,25.399,-9.138,-8.169,-23.68,-50.893,-6.509,-18.857,-14.348,-80.704,3
-3.913,-6.349,-89.676,-8.643,-5.266,-9.345,294.052,-10.825,-20.643,-11.776,-11.129,-16.125,-11.765,-10.342,-16.416,-1.078,-4.658,-14.583,-2.989,-13.798,25.374,-3.494,-5.087,-15.971,-52.379,0.157,-13.715,-11.772,-67.816,3
-3.91,0.318,-92.148,0.587,-1.162,2.959,261.483,13.264,-12.425,-5.104,-7.532,-15.085,-6.118,-5.721,-9.227,-1.077,-1.067,-6.883,-0.937,-8.149,21.763,2.145,-6.619,-18.517,-37.47,-2.404,-11.652,-16.883,-57.502,3
-7.492,7.49,-95.13,9.296,-2.186,3.981,291.447,12.226,-13.437,-4.075,-7.524,-16.606,-5.599,-3.666,-5.12,1.486,0.983,-4.827,3.163,-9.165,20.716,0.606,-5.075,-18.498,-42.556,-0.865,-9.591,-8.157,-60.518,3
-13.12,7.482,-85.813,11.848,-3.208,1.928,323.944,-2.643,-19.059,-7.145,-6.492,-15.565,-7.643,-5.199,-8.701,2.509,-1.067,-4.823,6.746,-8.644,21.72,4.704,0.565,-9.771,-61.981,8.357,-7.02,5.683,-66.605,3
-6.447,5.938,-77.53,1.078,-2.693,7.561,291.344,9.142,-15.454,-4.576,-4.437,-12.476,-5.586,-8.268,-7.155,2.506,-2.603,-6.355,5.714,-4.024,21.698,9.31,-0.46,-11.81,-56.284,6.812,-6.501,5.678,-73.199,3
3.294,4.907,-84.113,-6.096,-0.641,11.14,267.999,24.503,-7.754,1.064,-1.871,-11.951,-4.556,-9.284,-3.049,4.553,-4.138,-13.008,4.684,-3.508,20.652,4.178,-3.533,-22.557,-44.444,-0.879,-6.494,-3.55,-77.736,3
1.754,5.927,-91.713,0.57,3.458,6.518,300.519,9.109,-7.746,2.088,0.181,-8.353,-4.551,-3.64,-4.071,7.11,-3.109,-8.897,6.728,-1.968,22.681,3.661,-1.993,-18.436,-57.72,0.658,-5.463,-8.669,-62.289,3
-0.81,10.532,-91.109,8.254,6.017,7.024,322.248,-5.757,-10.812,2.086,0.693,-5.271,0.577,-1.075,0.032,9.152,-0.544,-0.691,6.722,0.084,22.146,4.682,-2.503,-11.245,-73.544,3.219,-6.994,-11.734,-47.37,3
-4.907,7.447,-95.117,0.561,2.424,11.627,289.65,7.569,-9.777,2.083,-1.87,-8.852,-0.449,-11.32,-0.481,7.094,-7.204,-11.961,-0.457,-7.601,12.39,-4.544,-9.161,-20.455,-73.47,-3.444,-14.672,-14.796,-64.741,3
-14.124,-0.245,-94.509,-6.611,-1.676,7.517,258.622,19.856,-7.718,1.057,-5.966,-11.404,-5.571,-13.358,-10.214,2.988,-13.344,-20.658,-4.555,-11.692,4.693,-8.126,-11.201,-29.656,-60.077,-8.564,-19.78,-14.269,-82.095,3
-13.598,5.391,-73.41,4.154,-2.699,4.436,291.151,11.127,-7.71,2.08,-3.911,-9.344,-1.467,2.025,-6.618,5.035,-2.572,-8.342,1.085,-5.02,6.225,-0.945,-5.042,-23.991,-47.721,-3.944,-15.15,-8.62,-68.18,3
-2.826,15.632,-41.061,16.445,-3.721,8.53,323.647,-1.179,-9.239,4.127,1.216,-6.773,2.633,8.683,3.123,10.665,8.189,-3.723,5.694,-1.941,9.292,4.691,-0.426,-13.721,-53.821,3.744,-6.938,2.66,-39.423,3
4.35,26.375,-8.233,24.625,5.504,18.768,310.004,7.531,-0.521,13.345,9.924,-0.618,6.729,5.088,6.193,16.29,7.668,-4.744,9.787,3.184,15.431,14.932,5.21,-1.412,-59.915,12.45,1.778,22.637,-6.596,3
10.493,52.476,24.563,54.315,25.478,37.704,277.418,37.75,17.923,30.75,24.259,9.116,20.554,11.231,15.921,24.983,9.71,6.531,18.487,14.451,23.612,23.627,11.864,10.885,-43.973,22.684,10.998,46.693,26.198,3
12.532,69.33,57.326,87.048,33.138,47.4,270.481,48.983,20.466,35.842,28.333,10.644,25.657,10.707,23.59,26.494,6.114,4.988,18.468,13.924,19.49,18.48,10.316,13.435,-39.319,27.272,14.573,60.991,50.763,3
8.933,63.113,61.88,83.887,23.883,40.181,270.723,33.565,9.687,25.048,20.62,3.973,12.823,-7.747,19.468,17.759,-7.212,-11.923,13.327,8.275,12.298,17.437,6.719,11.373,-54.649,25.707,13.534,65.028,40.466,3
7.387,66.123,79.749,75.606,22.322,40.653,245.349,39.166,14.288,26.56,23.673,4.994,10.761,-12.862,20.985,18.253,-2.594,-7.3,18.436,12.878,16.897,27.153,11.836,14.435,-47.934,29.78,17.107,64.963,58.869,3
9.941,72.717,100.674,87.826,27.423,47.784,271.744,52.447,20.422,34.73,28.773,10.624,20.997,0.471,23.013,26.432,9.704,2.953,21.492,14.402,15.855,26.102,13.873,14.933,-37.64,31.287,19.139,57.726,84.425,3
11.468,56.251,85.716,83.64,20.223,36.466,304.26,27.804,5.032,22.912,16.448,6.003,13.291,3.544,13.257,21.282,0.473,-9.858,11.224,5.678,3.032,14.805,5.662,9.283,-57.582,20.498,9.386,47.422,71.021,3
11.969,42.362,57.453,59.478,8.932,21.06,271.68,7.796,-6.244,6.496,4.137,-4.761,-1.579,-6.705,7.096,8.966,-10.286,-19.069,3.016,-2.525,-6.193,5.568,-2.028,1.077,-65.722,10.231,-3.431,44.301,47.896,3
6.322,48.467,45.613,54.807,7.386,25.138,239.133,29.818,1.447,10.075,5.669,-5.781,4.058,-6.699,1.965,7.42,-1.567,-10.341,1.988,-7.133,-6.699,-1.097,-5.1,-5.584,-51.311,6.122,-5.477,46.818,40.163,3
-0.345,46.882,33.272,63.462,4.305,30.748,271.681,41.571,7.593,20.311,7.201,-2.189,14.3,4.579,-9.307,12.536,7.144,-6.745,4.548,-3.54,-6.18,-0.071,-1.509,-1.993,-59.969,5.091,-0.861,44.21,24.754,3
0.68,31.978,9.673,54.689,0.202,26.106,304.197,25.648,6.561,19.267,4.632,-1.163,10.699,7.136,-8.273,11.498,9.186,-3.152,7.617,3.124,-8.223,6.076,2.591,7.231,-72.205,10.209,-2.909,28.284,-6.009,3
-0.345,21.7,-10.829,36.191,3.788,18.396,271.618,17.938,4.505,9.513,2.578,-4.235,4.029,-1.581,-1.093,7.901,7.128,1.462,4.536,-3.027,-13.85,2.996,-0.997,3.125,-50.103,10.199,-8.029,9.3,-29.569,3
-7.517,17.068,-31.823,25.397,1.223,9.156,251.366,16.895,-0.622,2.332,-2.548,-9.354,0.951,-6.702,-10.313,5.844,-3.638,-10.322,-3.154,-11.221,-20.496,-2.13,-6.12,-6.612,-45.955,-0.057,-6.997,3.656,-39.274,3
-4.436,12.44,-53.821,13.588,-12.611,1.974,277.243,12.267,-4.72,-0.745,-8.693,-13.443,-3.661,-4.646,-21.574,2.252,-10.807,-24.144,-6.737,-10.697,-26.111,-2.128,-8.163,-6.605,-78.184,-3.643,-8.014,2.627,-50.505,3
1.717,6.28,-70.161,-1.282,-16.697,-0.077,267.744,13.28,-2.666,-1.768,-10.221,-12.405,-7.243,-6.691,-18.478,-3.898,-10.284,-23.095,-9.291,-13.76,-28.134,-7.249,-13.278,-8.648,-81.18,-3.64,-15.179,-10.183,-67.361,3
-2.384,4.224,-88.534,-2.818,-14.118,3.509,278.747,13.266,-2.663,-2.279,-9.186,-12.393,-7.748,-15.906,-21.534,-5.944,-13.347,-25.122,-10.819,-19.894,-27.594,-12.364,-15.313,-18.885,-50.872,-13.37,-16.7,-13.759,-80.613,3
-2.894,13.954,-104.327,4.357,-15.129,9.141,292.813,10.692,-6.247,0.285,-7.64,-12.893,-8.765,-21.013,-27.66,-0.815,-12.821,-30.732,-5.685,-14.751,-28.591,-6.717,-8.638,-15.28,-57.481,-12.332,-11.561,6.235,-92.828,3
4.282,22.649,-99.612,5.89,-7.429,11.181,260.245,13.755,-3.679,3.358,-3.022,-6.732,-5.17,-11.77,-12.775,3.285,-5.636,-21.48,0.981,-6.027,-25.488,1.487,-1.97,1.129,-78.941,3.562,-5.914,15.962,-96.834,3
2.74,12.38,-100.024,0.249,1.8,5.535,244.615,9.643,-4.7,0.281,-1.994,-3.139,-2.604,-1.512,-2.516,2.257,-1.02,-8.138,0.467,-7.046,-22.389,3.535,-2.992,4.714,-64.517,6.12,-3.346,-7.62,-92.126,3
-3.922,-3.001,-124.515,-13.584,-6.399,-5.742,273.572,-4.199,-16.991,-8.941,-10.701,-11.845,-10.798,-6.634,-16.346,-0.307,-1.531,-11.204,-5.169,-14.723,-28.514,-2.616,-7.088,-8.611,-50.108,-5.157,-9.491,-31.178,-106.891,3
-0.844,-3.511,-135.661,-25.866,-7.929,-10.347,283.545,-9.318,-20.048,-10.469,-13.764,-13.37,-15.91,-8.676,-18.379,0.718,-1.53,-15.291,-4.139,-12.66,-30.023,-5.688,-7.081,-13.725,-48.521,-5.664,-13.579,-26.536,-126.764,3
4.792,9.813,-122.206,-14.057,11.034,2.984,316.049,-2.137,-1.584,4.911,1.106,0.988,-2.574,6.701,1.107,11.476,4.62,-1.443,9.698,1.698,-17.697,6.613,1.636,1.145,-39.251,5.612,-0.758,-6.53,-111.78,3
-2.898,18.512,-125.157,3.376,17.683,17.838,323.417,5.038,7.126,15.665,12.376,4.061,9.211,9.769,5.204,20.686,9.738,3.169,15.323,6.819,-16.655,17.878,3.683,9.341,-53.044,11.755,7.952,-6.011,-99.886,3
-15.702,6.198,-150.135,-5.849,5.882,9.111,290.818,7.082,-7.225,2.841,1.093,-10.288,-2.069,-12.27,-5.047,8.37,-2.567,-17.839,-2.11,-6.508,-32.52,3.515,-9.64,-10.136,-78.607,-2.09,-2.815,-27.522,-126.426,3
-11.588,-9.689,-164.842,-17.114,-0.784,-3.706,258.252,5.538,-13.366,-9.969,-9.667,-14.376,-12.825,-19.43,-5.554,-1.885,-11.274,-23.457,-10.305,-14.186,-37.61,-9.808,-15.778,-23.958,-58.548,-17.457,-12.033,-37.228,-139.107,3
4.817,-1.483,-155.968,-10.437,0.242,0.908,290.782,0.409,-5.155,-0.738,2.126,-1.042,-0.005,1.081,-3.499,11.437,7.693,-0.892,8.148,-1.876,-27.327,5.571,1.144,-7.028,-37.485,-6.681,-6.386,-23.359,-121.549,3
9.423,10.302,-145.053,-14.525,-2.32,3.981,323.279,-13.423,-3.101,7.972,11.858,6.131,13.315,12.351,-4.521,23.721,21.517,10.38,20.435,9.909,-22.176,21.447,13.95,7.324,-54.353,7.671,0.28,-17.188,-124.502,3
1.217,-0.467,-154.642,-27.831,-2.318,-2.683,290.68,-20.07,-3.098,2.841,3.137,1.514,6.642,5.679,-2.979,16.525,15.348,6.784,12.73,5.288,-26.765,13.228,3.69,0.656,-54.299,2.54,-0.744,-29.466,-138.722,3
-5.957,-11.737,-173.443,-24.217,1.271,-2.168,258.114,-5.705,-1.558,-1.26,-3.526,-2.073,-2.074,2.599,-6.562,6.775,12.771,5.24,4.521,-5.476,-34.423,3.481,-3.998,-6.004,-48.097,-3.098,-9.453,-41.219,-133.46,3
-9.025,-9.676,-177.368,-18.557,2.806,-1.653,231.216,4.034,-10.778,-5.357,-2.498,-3.608,-5.146,5.67,-13.728,2.669,9.685,-0.913,3.492,-9.569,-37.974,6.039,0.104,-4.461,-80.324,-2.583,-14.054,-40.154,-136.4,3
-7.991,-8.13,-167.969,-21.612,5.365,-5.238,202.295,-1.093,-14.866,-6.889,-3.52,-5.654,-9.751,3.615,-9.104,2.667,4.552,1.137,7.587,-4.948,-33.326,11.156,-0.921,-1.895,-91.002,-3.605,-7.38,-28.843,-148.047,3
-3.372,-5.048,-155.506,-18.005,10.483,1.427,227.196,0.445,-4.092,-0.734,1.094,-3.086,-6.155,2.075,4.738,9.324,12.744,15.48,13.727,0.18,-26.632,14.219,1.13,-0.869,-58.124,0.497,-1.737,-26.765,-132.53,3
-5.93,-3.506,-153.813,-20.548,8.935,3.475,259.757,-9.289,-3.576,-1.758,4.679,1.015,-1.026,1.561,4.221,10.852,15.805,11.367,9.614,-2.894,-28.655,12.155,7.276,-5.479,-44.746,-1.552,-6.346,-47.23,-118.565,3
-10.535,-10.162,-170.566,-30.261,0.73,-8.311,289.211,-30.797,-15.355,-10.466,-3.523,-2.06,-7.173,-1.515,-7.566,4.693,4.519,-4.526,3.457,-8.527,-34.262,5.996,1.121,-11.621,-58.021,-13.334,-11.463,-56.917,-134.84,3
-4.377,-8.103,-180.641,-22.546,-2.857,-7.278,256.646,-15.909,-14.315,-6.357,-3.519,-4.619,-8.19,1.561,-7.559,5.713,4.002,-1.96,6.528,-4.932,-31.666,6.502,-3.491,-8.023,-44.643,-9.734,-9.915,-38.417,-148.025,3
-1.299,0.102,-171.751,-13.815,-0.805,4,224.626,9.722,-3.543,2.871,3.144,-1.028,3.089,4.12,1.158,10.83,8.609,4.702,7.546,0.196,-26.511,8.545,3.685,-1.868,-39.475,0.521,-5.806,-25.571,-146.34,3
-10.007,-0.41,-170.043,-22.51,5.343,5.02,257.189,1.516,1.072,4.405,2.629,2.046,5.647,-1.007,4.743,11.844,5.526,0.086,6.513,1.22,-26.485,7.511,5.731,1.208,-65.051,-2.041,-1.19,-28.619,-149.268,3
-9.484,-1.947,-173.459,-26.074,13.023,4.503,238.489,-3.097,-0.979,4.401,4.163,2.044,0.006,-6.641,4.738,13.369,3.472,-7.086,11.118,0.707,-29.532,10.066,5.725,3.256,-79.843,-3.575,0.348,-31.152,-148.606,3
-1.278,-5.019,-170.211,-30.146,1.226,-1.137,225.955,-4.118,-12.248,-5.337,2.11,-4.618,-7.678,-12.27,-2.951,7.208,-4.729,-19.374,5.984,-5.954,-31.552,9.543,5.207,-1.87,-74.128,-4.597,-5.8,-42.391,-141.798,3
-2.301,-13.211,-172.603,-39.338,-17.218,-14.968,258.517,-29.217,-24.019,-19.677,-10.7,-12.298,-18.429,-19.43,-16.268,-2.533,-12.409,-25.503,-6.318,-13.633,-33.569,0.312,-3.508,-9.553,-64.832,-11.764,-10.917,-55.157,-142.168,3
-7.422,-5,-172.942,-23.929,-1.319,-8.293,225.983,-23.04,-13.749,-8.386,-4.542,-6.65,-12.775,-13.775,-9.08,4.642,-2.662,-10.108,0.348,-7.471,-30.462,2.361,-3.504,-5.957,-49.91,-8.166,-3.734,-43.831,-145.1,3
-3.316,13.96,-162.523,0.686,24.298,15.794,203.728,9.771,3.683,12.114,14.931,6.677,7.73,0.583,9.372,18.47,10.66,3.222,16.742,5.344,-21.722,16.703,10.844,3.27,-42.688,3.625,6.004,-26.368,-141.881,3
4.884,12.921,-157.238,-6.487,16.076,18.339,236.312,4.125,5.216,12.102,14.916,9.744,11.308,8.78,7.826,18.963,14.236,3.731,18.262,9.949,-17.09,20.273,14.932,7.878,-51.867,7.72,7.022,-25.317,-137.128,3
2.83,-0.924,-162.204,-27.998,2.74,5.001,236.076,-15.859,-4.01,2.869,6.192,1.025,0.538,6.209,-1.915,12.797,13.709,2.19,12.096,5.329,-20.659,13.592,6.72,4.796,-63.598,4.126,2.405,-35.026,-138.016,3
-8.444,-12.194,-177.411,-39.753,1.201,-4.226,203.564,-13.281,-15.277,-8.917,-0.475,-10.247,-9.708,-12.752,-9.598,2.538,1.912,-11.132,1.838,-8.509,-30.372,2.82,-2.508,-7.504,-76.855,-10.223,-5.795,-53.434,-154.784,3
-6.386,-15.255,-195.676,-40.225,-11.096,-11.394,236.148,-21.977,-23.971,-19.667,-9.183,-14.335,-17.896,-28.621,-21.372,-5.662,-10.385,-24.441,-8.41,-14.136,-34.952,-6.916,-7.629,-11.595,-88.561,-20.971,-10.912,-64.139,-170.511,3
5.403,-4.994,-188.308,-29.939,-13.134,-3.698,219.006,-19.906,-17.799,-9.913,-2.514,-6.124,-12.242,-13.223,-20.326,2.029,-0.128,-12.121,-1.229,-1.314,-28.257,-0.249,-1.474,1.224,-77.201,-8.142,-4.753,-47.169,-154.971,3
1.812,0.134,-168.652,-27.347,3.273,10.138,186.512,-4.517,-12.659,1.88,6.71,-0.482,-2.496,2.159,-10.059,7.662,10.118,-3.912,10.043,4.323,-23.106,10.509,4.675,2.248,-55.607,0.575,-0.138,-37.388,-131.25,3
-5.362,-12.674,-177.705,-41.665,-3.903,-2.679,219.113,-24.492,-22.892,-9.905,-5.08,-7.654,-11.715,-16.798,-17.734,-4.129,-0.138,-20.814,1.836,-7.977,-29.743,1.79,-2.502,-12.612,-56.064,-13.258,-9.359,-56.818,-142.389,3
-0.234,-20.346,-191.872,-46.234,-22.342,-18.046,227.603,-39.325,-24.406,-17.58,-13.272,-13.794,-20.413,-32.151,-26.425,-11.809,-6.286,-26.941,-8.925,-13.092,-32.787,-7.434,-6.085,-16.185,-71.377,-20.417,-16.01,-65.983,-169.399,3
-1.771,-17.764,-187.582,-37.991,-14.123,-5.733,195.1,-10.084,-16.185,-9.878,-5.062,-8.145,-12.708,-18.799,-18.202,-7.187,0.38,-16.155,-6.866,-7.956,-25.582,-2.303,-1.981,-8.484,-76.429,-13.737,-10.359,-55.671,-169.742,3
-1.769,-13.135,-186.882,-31.293,4.847,6.569,213.86,-0.34,-16.169,-5.257,2.628,0.06,-8.597,-5.972,-8.962,-3.593,7.552,-12.041,-0.712,-1.8,-20.433,5.384,-1.466,-0.279,-66.619,-7.063,-1.127,-50.492,-149.08,3
13.09,2.247,-181.572,-24.089,12.014,6.05,246.434,-13.147,-15.64,-2.178,7.236,1.597,-7.051,-8.015,-2.806,-0.004,13.18,-9.98,4.412,1.788,-17.851,14.6,1.097,12.529,-54.769,1.653,3.998,-44.806,-135.611,3
10.515,8.393,-167.558,-28.163,5.855,3.482,213.912,-6.474,-15.624,-4.225,3.643,-5.065,-7.044,-12.106,-5.877,-3.077,8.556,-13.556,-1.74,-5.387,-21.42,10.487,-0.441,8.418,-63.423,-0.397,-0.617,-41.687,-137.012,3
-11.524,-6.473,-178.149,-44.017,-4.397,-4.206,185.009,-10.566,-27.392,-14.979,-10.705,-13.257,-19.845,-16.192,-23.289,-16.907,-3.748,-26.862,-17.108,-15.627,-32.157,-10.528,-13.249,-14.644,-83.34,-17.303,-10.35,-55.99,-141.998,3
-10.488,-9.54,-190.779,-40.899,-2.344,-7.276,217.612,-23.876,-30.438,-17.014,-11.207,-14.268,-23.923,-18.225,-22.754,-19.964,-3.744,-30.934,-17.603,-14.075,-31.612,-12.055,-13.748,-19.24,-82.744,-21.384,-10.852,-61.057,-147.492,3
4.379,0.716,-171.12,-25.489,7.392,-1.121,234.813,-14.63,-19.649,-8.287,0.587,-9.131,-11.604,-17.695,-7.362,-10.21,1.895,-28.341,-7.851,-9.45,-21.335,4.351,-2.975,-1.803,-72.415,-8.555,-6.743,-46.652,-142.734,3
0.789,-3.384,-164.801,-31.099,6.873,-3.169,267.365,-17.689,-15.531,-6.23,-0.95,-6.048,-11.592,-16.652,-13.502,-9.687,-1.181,-31.387,-10.405,-12.514,-24.387,-0.264,-4.509,5.372,-72.343,-7.522,-9.81,-48.654,-124.148,3
-8.434,-13.114,-192.813,-49.511,0.718,-9.313,292.201,-30.992,-18.077,-9.297,-8.634,-8.603,-18.241,-20.734,-24.759,-18.899,-5.278,-33.917,-16.542,-16.088,-34.096,-13.584,-12.19,-5.905,-73.295,-19.81,-15.436,-66.024,-128.634,3
-10.475,-14.638,-206.965,-52.535,-1.332,-7.767,259.634,-19.178,-22.67,-13.387,-8.113,-13.205,-16.686,-33.521,-18.074,-22.466,-8.346,-40.031,-17.55,-17.096,-33.55,-12.545,-14.739,-19.219,-78.345,-25.426,-16.957,-66.983,-160.781,3
-9.439,-9.5,-186.266,-42.236,3.793,-3.149,227.099,-11.986,-26.234,-12.861,-2.982,-9.094,-16.669,-36.049,-12.933,-18.345,-5.264,-40.503,-13.434,-11.444,-27.881,-6.385,-12.163,-13.564,-82.365,-15.666,-8.743,-56.67,-153.96,3
-1.745,2.292,-164.05,-34.51,17.109,4.027,259.659,-17.097,-19.035,-0.553,4.706,1.674,-10.505,-21.156,-8.822,-10.643,9.598,-18.946,-2.15,0.351,-22.73,2.843,0.145,3.868,-68.451,-2.331,1.512,-52.514,-121.019,3
4.404,0.241,-170.546,-38.573,19.141,6.584,256.838,-15.031,-19.016,2.522,6.75,1.672,-5.883,-13.963,-2.665,-11.656,15.224,-8.168,0.413,3.424,-20.146,7.963,3.731,1.815,-66.845,-2.841,-0.539,-57.585,-120.898,3
-5.334,-16.665,-197.528,-45.195,7.851,-6.23,224.306,-24.75,-37.44,-14.899,-2.478,-9.088,-23.296,-21.633,-10.86,-21.891,2.913,-26.091,-13.419,-5.801,-25.761,-3.316,-10.617,-9.458,-89.832,-11.547,-7.711,-62.651,-153.052,3
-15.063,-12.038,-206.552,-43.613,8.356,-12.371,231.254,-28.824,-37.403,-20.007,-7.086,-12.665,-28.908,-24.686,-16.996,-26.992,-1.188,-35.286,-15.455,-11.431,-29.322,-6.899,-11.631,-5.35,-88.205,-11.023,-4.629,-57.977,-153.924,3
-11.974,0.269,-188.415,-40.495,11.933,-2.625,240.756,-12.401,-19.947,-9.741,-4.518,-7.529,-12.485,-25.685,-11.344,-23.379,1.887,-29.616,-8.78,-10.394,-27.755,-1.769,-3.935,-7.394,-64.551,-12.037,-6.162,-57.919,-133.278,3
-9.4,-11.002,-170.808,-44.553,1.675,-5.696,273.303,-27.758,-25.562,-14.855,-8.099,-7.009,-16.059,-31.807,-15.431,-24.893,-1.701,-35.221,-13.894,-10.896,-30.801,-8.427,-12.128,-21.219,-64.486,-19.197,-14.865,-72.206,-124.947,3
-9.391,-16.626,-171.662,-45.533,3.211,-12.863,295.059,-46.685,-32.197,-15.864,-5.017,-5.978,-23.727,-32.288,-15.416,-25.892,0.862,-36.723,-11.318,-8.836,-29.234,-5.857,-10.579,-15.562,-77.742,-13.03,-9.215,-75.207,-120.212,3
-3.746,-1.752,-183.273,-38.316,17.04,2.519,262.489,-13.851,-16.795,3.107,9.332,3.25,-8.334,-26.108,-0.031,-16.133,5.984,-24.903,3.037,-0.631,-15.884,11.055,6.85,1.36,-77.664,2.352,5.139,-62.325,-126.751,3
-1.181,-0.726,-189.238,-39.302,12.924,8.152,235.074,-0.005,-15.241,3.616,7.274,5.808,-8.326,-28.643,0.481,-14.579,1.88,-26.928,1.497,0.395,-13.819,9.507,6.331,2.383,-74,2.862,3.597,-61.75,-136.871,3
-2.204,-9.947,-179.314,-48.484,2.153,-9.275,267.627,-32.28,-27.009,-12.269,-5.029,-1.37,-22.662,-35.787,-10.278,-26.348,1.366,-39.196,-6.189,-6.778,-24.052,-0.236,-3.409,-3.767,-72.389,-6.362,-6.14,-74.496,-124.951,3
-1.69,-5.326,-171.451,-46.386,8.811,-5.679,285.29,-31.736,-20.322,-3.035,1.124,-1.369,-13.418,-35.751,-6.169,-23.248,8.537,-38.132,-1.059,-6.259,-23.003,5.399,2.229,-3.763,-71.292,-5.844,-4.597,-78.008,-108.432,3
-7.836,-4.296,-184.087,-40.192,12.9,6.11,252.729,-5.064,-16.204,2.091,5.733,1.707,-8.794,-33.666,-8.212,-19.638,5.454,-37.582,-3.62,-5.228,-22.98,2.32,1.203,-7.346,-71.221,-6.862,-2.543,-74.856,-117.545,3
-18.586,-16.075,-202.346,-48.861,-1.97,-13.877,252.989,-28.113,-36.167,-23.527,-11.178,-9.566,-31.839,-41.83,-23.573,-39.086,-7.359,-55.475,-23.084,-18.543,-39.863,-16.638,-17.754,-21.683,-81.396,-24.274,-13.812,-85.027,-132.797,3
-16.006,-20.157,-197.02,-51.886,-8.628,-26.67,254.273,-39.868,-44.328,-30.163,-17.315,-18.266,-40.004,-49.472,-25.086,-48.269,-10.938,-63.104,-30.233,-24.672,-44.434,-21.232,-22.859,-26.272,-107.955,-32.447,-19.945,-102.36,-123.443,3
-3.183,-3.743,-173.257,-35.441,7.775,-0.004,221.743,-7.04,-22.255,-3.493,2.682,-3.39,-18.447,-43.787,-11.741,-29.265,2.393,-44.598,-11.248,-6.204,-24.922,-0.206,-1.32,-7.29,-109.896,-9.873,-3.532,-95.086,-100.265,3
0.919,10.605,-166.424,-34.893,14.427,12.292,254.309,-2.422,-9.425,2.658,11.389,6.859,-9.207,-37.084,-6.606,-21.039,11.612,-32.258,4.133,4.048,-18.237,16.188,12.002,2.963,-76.998,8.068,9.792,-71.424,-101.19,3
-7.791,-4.263,-188.799,-58.424,-9.154,-19.484,286.842,-34.695,-35.543,-27.058,-11.676,-13.128,-33.789,-48.317,-23.506,-40.486,-3.256,-46.57,-13.29,-16.448,-35.637,1.827,-4.916,-14.458,-76.921,-8.334,-4.05,-79.038,-125.167,3
-15.468,-23.726,-203.467,-65.026,-27.587,-40.981,254.28,-50.542,-59.073,-47.011,-31.132,-30.533,-56.809,-65.175,-42.438,-57.351,-16.061,-61.381,-34.281,-32.826,-47.897,-17.13,-19.768,-21.616,-109.12,-26.769,-17.878,-105.086,-131.702,3
-7.768,-9.87,-189.431,-46.518,-13.728,-16.862,221.75,-17.704,-38.01,-27.496,-15.732,-16.158,-40.358,-59.475,-31.125,-47.048,-1.188,-52.098,-18.365,-15.374,-35.554,-6.354,-5.916,-7.25,-98.252,-14.446,-5.565,-95.247,-111.078,3
8.634,7.046,-170.799,-38.274,2.68,7.234,254.316,0.245,-12.869,-3.903,5.288,0.764,-15.215,-41.997,-9.577,-29.07,12.646,-41.287,1.633,2.06,-22.198,7.997,4.336,-8.267,-65.366,-3.161,5.711,-78.758,-89.45,3
6.064,-7.818,-172.677,-54.117,-6.032,-8.655,286.85,-23.834,-23.102,-15.682,-4.963,-8.458,-26.47,-47.59,-18.789,-35.701,-2.224,-58.152,-13.738,-10.238,-30.373,-5.331,-11.038,-23.628,-88.355,-21.089,-7.102,-106.856,-89.36,3
-13.922,-27.79,-195.558,-73.019,-18.834,-27.602,254.287,-37.642,-35.887,-33.597,-23.401,-21.769,-44.887,-67.01,-37.213,-52.059,-18.103,-81.66,-31.142,-26.109,-43.15,-22.232,-21.785,-27.191,-120.542,-37.462,-20.415,-136.976,-114.374,3
-16.982,-26.738,-212.781,-74.483,-17.278,-17.84,221.758,-21.723,-29.703,-24.342,-19.279,-16.112,-37.67,-68.992,-36.663,-50.982,-13.474,-78.505,-25.988,-20.448,-38.496,-17.599,-15.103,-24.09,-109.663,-30.252,-16.809,-126.593,-132.703,3
-1.084,-19.026,-199.249,-63.65,-13.162,-9.626,254.324,-18.115,-29.673,-15.608,-11.063,-6.362,-29.947,-60.214,-30.991,-44.784,-5.776,-67.668,-18.79,-13.255,-30.773,-8.872,-7.916,-18.943,-84.962,-21.512,-12.181,-118.269,-112.59,3
1.479,-15.934,-179.069,-61.537,-10.587,-14.739,269.951,-30.393,-32.205,-20.716,-10.027,-7.893,-34.528,-58.105,-27.374,-44.227,-4.746,-71.698,-18.771,-13.242,-32.279,-7.839,-5.859,-8.165,-99.222,-17.905,-10.632,-127.885,-86.862,3
-9.793,-18.479,-187.087,-71.209,-6.478,-17.798,243.041,-32.924,-28.074,-23.257,-11.042,-11.471,-34.494,-60.608,-25.81,-45.207,-5.253,-76.75,-20.802,-11.179,-33.272,-8.343,-9.951,-9.182,-93.487,-15.838,-9.084,-129.294,-94.46,3
-12.345,-27.17,-200.22,-79.847,-13.644,-26.49,257.655,-38.014,-34.706,-30.406,-19.74,-14.534,-39.07,-71.818,-32.444,-51.31,-10.371,-81.284,-27.441,-15.267,-36.825,-11.921,-18.138,-26.591,-72.389,-24.531,-16.248,-132.751,-113.321,3
-8.747,-31.753,-200.02,-79.767,-23.877,-31.074,250.225,-46.173,-44.406,-37.548,-26.38,-18.617,-49.789,-85.067,-34.461,-57.918,-17.533,-95.035,-30.999,-25.497,-40.374,-18.057,-20.17,-32.2,-95.883,-35.265,-21.867,-145.426,-114.232,3
-9.25,-25.062,-201.869,-74.564,-13.607,-19.772,220.773,-40.491,-38.213,-30.85,-19.182,-19.111,-50.252,-88.055,-30.328,-57.86,-16.491,-99.038,-28.407,-25.472,-37.772,-18.039,-19.125,-21.409,-124.476,-29.082,-14.673,-144.256,-101.822,3
-13.852,-20.938,-202.18,-72.441,-3.859,-20.777,245.143,-39.939,-36.126,-31.332,-20.7,-20.629,-49.177,-81.82,-35.421,-59.852,-9.302,-87.156,-26.329,-21.348,-39.271,-13.41,-19.618,-20.363,-106.934,-23.417,-14.146,-140.013,-90.962,3
-17.936,-26.553,-192.244,-75.442,-14.614,-31.002,237.726,-46.559,-44.799,-41.034,-30.413,-24.707,-52.714,-75.078,-40.508,-61.329,-6.731,-88.094,-24.254,-23.376,-45.892,-10.323,-17.037,-27.003,-89.408,-28.005,-20.279,-149.094,-92.408,3
-15.357,-26.014,-190.514,-75.879,-15.111,-21.75,205.213,-33.704,-41.168,-33.821,-22.698,-18.534,-49.075,-78.589,-36.369,-58.194,-13.897,-104.399,-26.279,-23.352,-43.797,-11.849,-13.946,-22.877,-103.151,-26.952,-17.697,-151.507,-95.902,3
-11.243,-20.352,-191.348,-75.291,0.273,-15.58,214.741,-28.035,-34.979,-26.615,-15.503,-13.393,-47.489,-93.879,-36.333,-58.135,-19.006,-109.418,-33.425,-24.354,-39.654,-19.01,-20.592,-20.293,-113.806,-24.876,-15.63,-148.281,-83.51,3
-14.818,-22.894,-179.886,-76.24,-0.752,-23.762,247.314,-50.549,-42.629,-32.736,-22.659,-17.99,-51.54,-93.786,-35.272,-59.614,-11.302,-101.112,-33.904,-25.866,-42.689,-20.015,-24.67,-26.42,-102.934,-32.536,-21.762,-160.429,-72.156,3
-20.439,-29.018,-182.268,-79.238,-11.51,-22.713,238.87,-58.183,-42.586,-34.752,-23.661,-18.997,-50.464,-75.761,-28.577,-58.53,-2.07,-96.912,-27.722,-21.23,-42.646,-14.872,-19.01,-25.882,-101.807,-37.114,-21.741,-176.15,-80.281,3
-27.59,-37.699,-209.238,-96.064,-16.109,-32.424,206.356,-58.125,-43.568,-43.427,-27.224,-21.027,-58.098,-80.808,-36.233,-67.181,-9.24,-106.549,-32.305,-25.819,-46.189,-24.079,-24.626,-26.88,-133.468,-37.589,-24.28,-186.22,-93.008,3
-35.76,-45.345,-220.3,-115.436,-24.29,-55.958,237.4,-77.534,-63.505,-63.363,-40.517,-32.789,-75.458,-103.269,-49.517,-78.384,-21.014,-119.762,-41.494,-39.113,-56.389,-33.789,-34.848,-37.612,-160.487,-41.65,-32.965,-191.669,-100.088,3
-22.404,-28.394,-199.587,-95.853,-21.704,-39.508,238.187,-69.26,-57.806,-51.517,-29.718,-25.072,-66.161,-100.604,-40.246,-67.035,-13.308,-114.52,-30.694,-27.804,-45.575,-15.824,-20.468,-30.914,-131.637,-33.412,-22.174,-176.62,-92.815,3
-0.865,0.324,-179.407,-62.969,0.347,-6.681,207.211,-36.403,-24.96,-18.678,-1.511,-0.456,-36.894,-81.036,-20.225,-47.5,5.148,-99.548,-10.171,-4.21,-25.549,4.172,1.069,-8.854,-98.718,-13.91,-0.635,-155.439,-63.521,3
-8.548,-3.775,-179.74,-69.566,5.47,-7.187,235.693,-38.928,-25.96,-18.147,-2.022,-1.992,-35.832,-81.98,-20.717,-49.502,1.557,-111.232,-13.235,-9.328,-29.11,-4.542,-4.567,-11.919,-119.111,-14.409,-2.684,-170.14,-48.6,3
-21.86,-23.751,-187.757,-98.698,-13.491,-38.943,250.826,-71.164,-58.209,-47.33,-25.074,-20.946,-59.363,-102.39,-34.529,-65.334,-19.449,-138.785,-33.202,-30.324,-40.351,-18.369,-21.469,-30.35,-142.046,-31.301,-18.05,-198.66,-65.458,3
-15.178,-21.678,-191.156,-97.063,-26.285,-43.514,218.3,-75.704,-56.102,-53.943,-30.172,-20.925,-65.451,-116.632,-40.642,-68.343,-25.577,-145.306,-37.267,-30.806,-38.262,-18.351,-21.96,-30.32,-116.801,-35.368,-20.081,-195.899,-70.516,3
-15.163,-11.923,-189.428,-82.109,-23.185,-27.077,185.806,-50.013,-36.578,-38.007,-16.822,-12.195,-54.115,-114.466,-40.089,-62.127,-16.843,-138.501,-25.447,-20.016,-35.662,-13.722,-14.253,-23.117,-105.926,-27.135,-13.401,-184.433,-57.125,3
-20.271,-16.009,-188.214,-84.076,-19.064,-24.488,213.285,-45.864,-40.64,-34.383,-13.219,-12.695,-50.474,-106.667,-40.561,-63.601,-13.752,-136.313,-23.884,-18.972,-40.749,-11.147,-15.263,-26.68,-129.386,-27.621,-13.388,-195.519,-56.556,3
-13.078,-20.092,-187.513,-94.75,-22.631,-34.198,245.859,-67.848,-48.796,-45.619,-21.915,-17.293,-60.158,-104.511,-42.57,-70.198,-13.738,-139.251,-32.57,-25.613,-44.295,-15.234,-19.859,-25.117,-143.089,-35.79,-19.01,-208.131,-51.376,3
-16.651,-19.559,-187.326,-99.266,-27.219,-41.336,278.401,-83.662,-49.772,-54.795,-28.553,-22.911,-71.368,-109.018,-43.552,-76.275,-15.774,-149.87,-35.611,-31.735,-45.275,-21.879,-20.351,-14.333,-150.63,-37.803,-20.528,-207.923,-34.419,3
-26.881,-16.978,-182.528,-95.581,-17.458,-41.295,245.848,-74.869,-51.772,-55.253,-27.499,-23.913,-74.883,-117.618,-40.435,-78.761,-24.979,-162.528,-31.989,-29.654,-43.693,-15.197,-16.745,-12.782,-154.066,-30.593,-16.409,-203.104,-36.946,3
-17.632,-11.838,-178.759,-92.412,-7.706,-30.495,213.326,-57.375,-45.572,-49.05,-23.886,-18.766,-69.685,-124.16,-35.784,-75.608,-24.954,-163.39,-28.883,-22.964,-39.038,-7.497,-13.654,-22.503,-126.759,-27.489,-14.343,-197.266,-51.253,3
-11.467,-12.339,-184.728,-95.393,-15.896,-22.267,245.901,-61.929,-41.94,-45.415,-19.763,-20.284,-64.492,-119.938,-39.334,-71.946,-15.708,-161.69,-29.879,-23.454,-37.975,-11.076,-15.178,-25.554,-101.53,-33.097,-15.866,-202.704,-46.079,3
-21.189,-16.937,-186.592,-97.347,-24.077,-29.93,278.442,-79.285,-49.583,-49.468,-19.744,-21.8,-66.477,-115.719,-44.418,-74.948,-17.229,-169.213,-30.361,-24.455,-39.986,-10.04,-17.212,-15.795,-116.797,-34.6,-15.337,-220.432,-29.639,3
-19.631,-17.945,-176.16,-99.811,-20.466,-36.048,245.889,-79.206,-53.12,-51.467,-22.798,-16.656,-69.997,-124.825,-39.25,-75.898,-23.36,-174.679,-27.257,-19.307,-38.409,-1.321,-15.145,-6.558,-145.37,-26.881,-13.785,-224.31,-26.536,3
-9.878,-19.976,-184.693,-112.007,-18.909,-32.938,213.367,-73.491,-55.628,-53.978,-22.775,-18.688,-73.001,-133.922,-35.112,-75.31,-21.287,-177.578,-29.792,-19.288,-34.784,-3.881,-15.13,-8.6,-157.52,-25.317,-13.771,-215.889,-43.415,3
-9.868,-23.03,-208.074,-117.018,-18.89,-35.979,245.942,-81.615,-61.208,-60.584,-23.265,-22.256,-77.539,-132.763,-37.127,-80.357,-23.315,-185.597,-34.373,-21.318,-32.7,-9,-18.701,-14.227,-147.628,-30.928,-12.221,-217.722,-55.155,3
-9.858,-14.81,-197.108,-101.019,-11.699,-32.869,278.483,-84.095,-53.462,-54.375,-20.68,-13.012,-70.289,-132.118,-33.503,-75.154,-22.267,-185.924,-28.703,-14.124,-28.569,-1.307,-14.072,-9.09,-123.915,-27.31,-10.159,-224.164,-29.997,3
-6.774,-8.135,-173.344,-93.233,-13.736,-20.028,275.643,-76.326,-41.626,-43.562,-13.487,-9.925,-59.46,-137.621,-33.47,-69.443,-15.585,-181.64,-24.576,-12.573,-29.053,0.744,-8.422,-3.958,-127.889,-21.135,-11.174,-229.063,-5.888,3
-12.915,-20.423,-193.151,-114.145,-27.555,-30.254,268.195,-84.959,-52.342,-56.327,-23.207,-27.333,-73.745,-143.119,-46.756,-85.768,-23.254,-192.729,-40.433,-28.954,-40.807,-17.7,-23.271,-21.372,-156.45,-35.971,-20.896,-244.716,-30.473,3
-23.661,-31.161,-214.987,-129.4,-24.966,-50.716,258.706,-102.292,-66.122,-73.176,-39.578,-37.552,-90.577,-144.513,-53.882,-99.514,-29.891,-201.245,-52.688,-37.635,-47.939,-28.441,-35.03,-33.646,-155.782,-52.329,-28.048,-255.742,-50.423,3
-16.977,-18.322,-188.132,-116.463,-3.936,-37.858,244.102,-95.018,-53.761,-61.32,-26.218,-24.195,-77.167,-140.27,-38.459,-85.07,-15.004,-189.773,-38.29,-24.277,-35.083,-10.481,-15.015,-9.022,-135.646,-35.883,-15.212,-238.068,-25.269,3
-1.079,-1.397,-169.501,-100.465,0.678,-17.84,238.735,-77.504,-41.412,-46.914,-8.261,-12.9,-68.893,-141.154,-24.076,-76.788,-10.378,-188.559,-26.981,-15.031,-24.289,5.923,-0.656,10.455,-141.658,-16.379,-1.365,-219.387,-7.825,3
-7.738,-3.957,-191.361,-98.827,-15.204,-27.044,219.029,-84.599,-53.153,-57.113,-20.548,-20.059,-85.73,-150.747,-33.273,-89.519,-26.249,-206.301,-35.151,-22.701,-30.925,-5.866,-15.512,-5.949,-153.299,-28.658,-10.585,-232.487,-9.867,3
-27.198,-13.687,-198.342,-100.778,-23.386,-36.238,210.101,-96.298,-60.785,-65.253,-29.749,-25.162,-88.206,-148.547,-44.511,-93.016,-25.198,-209.681,-38.19,-24.215,-37.554,-13.033,-19.083,-11.579,-149.56,-38.364,-21.333,-252.747,-3.197,3
-21.023,-14.698,-178.676,-104.775,-21.313,-32.104,240.117,-95.689,-54.064,-60.577,-19.986,-20.014,-77.359,-143.788,-38.318,-87.8,-15.951,-205.885,-29.955,-17.531,-37.517,-1.236,-6.768,3.29,-146.336,-27.567,-16.188,-252.494,-3.706,3
-8.706,-15.708,-171.837,-109.794,-21.804,-34.633,258.32,-105.327,-57.596,-61.029,-20.478,-22.043,-83.43,-161.062,-37.768,-91.298,-29.768,-218.487,-34.536,-19.05,-36.454,-1.235,-10.86,-2.861,-146.19,-31.125,-17.709,-251.729,-3.702,3
-17.919,-18.254,-177.3,-101.999,-15.122,-34.086,251.914,-113.931,-61.125,-60.968,-23.019,-25.095,-85.908,-172.172,-46.439,-94.281,-37.423,-227.49,-40.136,-21.593,-33.344,-8.406,-18.021,-12.592,-150.142,-41.853,-24.351,-257.625,9.621,3
-18.926,-8.502,-178.148,-88.577,-3.324,-20.732,250.637,-98.96,-46.207,-51.685,-14.799,-15.848,-74.039,-157.655,-38.708,-91.112,-23.041,-220.602,-30.875,-16.96,-28.188,0.311,-7.245,3.302,-152.554,-32.589,-15.105,-249.171,10.636,3
-7.124,0.728,-183.093,-92.075,-6.907,-17.637,236.042,-89.64,-42.574,-52.146,-14.784,-14.296,-75.502,-156.985,-34.059,-95.632,-23.018,-223.968,-33.918,-17.456,-28.16,1.336,-5.701,6.885,-140.106,-29.995,-9.967,-242.774,4.99,3
-19.412,-10.031,-190.594,-105.303,-19.708,-27.866,210.703,-98.772,-55.852,-63.365,-23.479,-26.064,-86.697,-172.198,-46.832,-109.881,-36.827,-238.601,-51.815,-28.709,-31.718,-15.572,-22.089,-12.077,-142.527,-49.945,-23.277,-261.999,9.596,3
-37.323,-19.755,-189.379,-106.222,-17.126,-30.912,211.004,-99.185,-55.796,-64.326,-24.992,-28.087,-87.635,-168.951,-47.298,-115.919,-34.229,-242.461,-54.324,-33.291,-34.76,-21.704,-28.727,-17.701,-174.66,-59.117,-27.352,-279.155,8.05,3
-27.04,-11.538,-182.017,-97.919,-8.4,-24.221,220.527,-98.574,-50.105,-58.626,-20.356,-20.375,-84.986,-165.709,-38.029,-110.168,-28.559,-239.144,-45.048,-25.061,-34.213,-13.998,-22.55,-13.072,-184.219,-52.91,-18.616,-270.167,4.455,3
-13.181,-4.867,-176.712,-99.358,-13.515,-22.148,198.277,-107.184,-56.202,-60.617,-18.287,-22.404,-87.974,-177.326,-41.577,-111.082,-32.117,-243.516,-45.516,-20.425,-29.055,-9.885,-19.966,-18.695,-151.247,-49.783,-17.06,-260.675,4.963,3
-17.266,-11.522,-181.659,-112.579,-21.698,-27.761,176.562,-110.151,-62.806,-67.729,-20.83,-24.43,-91.473,-181.247,-45.122,-115.069,-32.597,-247.883,-47.007,-24.503,-27.489,-6.289,-19.946,-19.188,-134.19,-48.709,-18.068,-269.124,-1.702,3
-19.81,-16.121,-189.674,-117.077,-14.504,-30.295,209.173,-116.188,-64.792,-72.272,-22.859,-22.357,-94.455,-181.066,-39.953,-108.807,-31.539,-246.098,-41.837,-22.942,-30.536,-2.697,-15.828,-10.46,-159.159,-46.611,-14.464,-278.589,2.911,3
-17.741,-12.519,-192.046,-108.763,-8.854,-27.703,241.752,-126.831,-68.314,-72.199,-21.811,-25.408,-95.897,-189.082,-41.45,-102.038,-32.533,-249.951,-38.721,-20.87,-31.018,-3.206,-14.275,-9.937,-173.857,-46.564,-15.474,-274.724,12.129,3
-24.896,-15.068,-192.878,-110.191,-25.751,-35.872,209.235,-127.729,-69.27,-78.275,-28.449,-33.068,-101.437,-195.04,-50.118,-107.059,-32.5,-261.484,-41.244,-29.046,-34.573,-7.814,-16.822,-14.026,-175.22,-51.128,-21.606,-270.863,2.896,3
-36.142,-25.811,-193.198,-126.475,-44.681,-49.156,176.75,-131.699,-76.373,-96.127,-41.741,-39.182,-114.655,-197.407,-60.827,-113.612,-37.591,-267.882,-51.961,-37.213,-41.71,-14.466,-20.392,-14.524,-184.778,-61.836,-26.707,-285.449,8.528,3
-32.007,-25.273,-186.857,-131.471,-37.464,-45.521,183.746,-136.691,-83.469,-96.031,-38.113,-37.094,-114.541,-196.697,-59.741,-108.887,-35.504,-262.492,-53.959,-32.053,-38.595,-14.964,-20.371,-16.046,-173.323,-64.848,-26.681,-294.897,26.963,3
-15.581,-11.415,-182.571,-123.143,-19.496,-31.643,216.35,-125.796,-70.066,-72.369,-20.144,-26.298,-98.032,-188.816,-39.701,-95.459,-20.611,-256.594,-42.634,-23.824,-29.335,-8.801,-16.765,-21.153,-140.362,-54.024,-18.969,-272.061,12.079,3
-13.004,-11.916,-188.024,-125.069,-20.501,-32.636,248.921,-131.305,-64.36,-70.247,-18.075,-24.223,-97.422,-186.578,-38.125,-89.215,-21.615,-265.046,-46.177,-25.85,-28.793,-12.379,-19.31,-26.255,-146.881,-53.97,-15.877,-260.518,3.87,3
-24.774,-21.638,-189.373,-127.505,-31.751,-40.288,273.775,-152.691,-81.202,-85.546,-29.84,-30.858,-110.132,-196.125,-60.628,-96.811,-34.914,-276.564,-61.5,-32.996,-32.35,-20.563,-29.536,-28.278,-179.01,-67.236,-21.496,-285.361,32.043,3
-23.725,-9.834,-180.475,-108.423,-24.547,-28.977,241.226,-134.095,-74.973,-75.727,-23.662,-26.217,-102.338,-200.027,-55.957,-94.152,-28.731,-274.239,-51.705,-28.865,-26.683,-12.346,-27.458,-19.541,-191.639,-62.046,-16.864,-285.588,37.646,3
-18.066,7.082,-174.659,-93.457,-8.129,-12.554,208.709,-101.685,-51.332,-59.257,-8.269,-16.969,-87.891,-192.143,-33.872,-77.152,-19.481,-268.841,-35.26,-17.053,-18.971,2.011,-13.598,-7.738,-167.881,-45.078,-5.576,-254.564,17.116,3
-25.22,-1.634,-176.533,-111.807,-14.268,-20.738,241.288,-119.515,-62.551,-72.518,-15.433,-22.587,-98.561,-192.463,-42.547,-75.026,-25.097,-274.208,-41.372,-19.597,-22.026,2.009,-11.535,-12.853,-141.073,-46.57,-10.694,-259.944,17.612,3
-24.17,-13.415,-177.894,-134.749,-32.185,-38.136,258.465,-147.572,-82.469,-88.839,-27.201,-29.737,-110.758,-205.59,-55.824,-81.611,-28.658,-278.032,-42.355,-26.75,-25.078,-0.042,-15.11,-23.087,-121.464,-55.745,-16.831,-289.398,28.352,3
-11.338,-5.717,-177.716,-135.639,-27.542,-37.073,239.764,-144.351,-77.776,-83.628,-17.952,-23.56,-102.963,-206.922,-42.961,-71.795,-25.043,-277.242,-28.993,-18.014,-17.881,8.155,-5.873,-16.404,-136.2,-52.103,-8.617,-293.207,30.373,3
-12.351,-4.175,-183.686,-130.892,-13.17,-33.45,272.312,-146.768,-79.747,-79.958,-12.811,-22.512,-103.372,-197.493,-39.844,-67.625,-25.53,-285.674,-34.599,-14.922,-17.35,7.122,-4.33,-9.215,-168.339,-50.514,-8.096,-299.062,26.244,3
-22.073,-15.441,-189.65,-131.786,-18.28,-36.491,239.764,-153.281,-89.913,-89.612,-25.094,-31.198,-117.101,-205.493,-52.612,-79.34,-32.677,-300.245,-53.52,-26.69,-25.53,-6.205,-19.183,-18.427,-169.195,-60.197,-17.822,-313.62,14.947,3
-18.977,-10.303,-188.435,-133.704,-31.069,-28.769,207.249,-134.685,-83.164,-91.059,-27.63,-32.192,-113.91,-224.755,-54.096,-78.749,-39.304,-300.969,-57.565,-28.2,-24.992,-11.834,-25.824,-27.63,-136.751,-64.748,-17.804,-298.961,12.883,3
-14.859,-0.559,-189.784,-139.205,-33.6,-24.13,239.829,-130.964,-77.957,-84.82,-19.406,-29.086,-107.648,-226.067,-50.968,-69.961,-38.753,-295.545,-53.409,-23.561,-21.381,-8.236,-21.699,-22.992,-156.082,-59.048,-14.2,-284.83,22.604,3
-19.455,-7.73,-191.643,-143.164,-26.906,-34.864,272.377,-155.424,-85.052,-88.834,-20.923,-32.13,-118.299,-222.255,-52.454,-72.965,-35.128,-301.91,-53.356,-25.587,-23.409,-7.716,-22.19,-19.383,-188.201,-57.964,-17.26,-304.525,22.582,3
-18.924,-11.309,-184.279,-139.947,-17.145,-34.317,239.829,-156.293,-84.967,-94.38,-22.439,-32.098,-123.304,-226.131,-45.742,-73.404,-37.142,-308.268,-49.204,-21.975,-20.312,-8.22,-19.606,-22.437,-157.274,-63.541,-18.267,-313.442,18.973,3
-12.245,-4.125,-182.558,-139.295,-14.567,-26.086,221.659,-144.353,-84.369,-89.675,-16.781,-27.455,-117.545,-227.442,-39.548,-64.621,-38.642,-307.96,-46.081,-17.855,-14.656,-5.138,-11.39,-26.001,-124.329,-63.478,-14.663,-300.834,19.979,3
-16.331,-6.17,-193.646,-138.131,-22.237,-32.72,254.225,-155.992,-88.896,-84.975,-15.74,-28.453,-117.428,-227.214,-45.657,-61.483,-37.066,-312.775,-49.621,-20.911,-15.666,-3.084,-10.354,-23.926,-142.648,-58.804,-12.086,-298.996,16.372,3
-26.561,-7.701,-191.404,-129.796,-20.165,-31.662,229.892,-153.275,-82.659,-82.328,-15.212,-26.887,-112.7,-226.475,-46.123,-59.885,-33.955,-310.925,-48.034,-18.841,-16.163,1.53,-9.831,-15.193,-174.781,-55.159,-9.513,-296.648,15.844,3
-24.997,-4.619,-178.917,-136.326,-13.485,-22.921,197.387,-137.24,-78.99,-80.709,-13.66,-24.299,-107.464,-222.662,-39.417,-56.751,-29.823,-301.905,-49.011,-17.797,-20.757,-1.545,-9.821,-12.104,-165.897,-57.665,-13.602,-297.888,24.025,3
-24.46,-18.447,-194.107,-158.732,-25.767,-37.755,224.854,-158.107,-96.33,-95.485,-24.405,-35.545,-122.726,-230.637,-54.235,-64.891,-39.527,-314.923,-66.893,-32.636,-34.569,-21.011,-25.181,-31.559,-164.706,-74.001,-25.883,-323.718,21.439,3
-31.095,-30.724,-221.065,-162.671,-38.549,-53.087,235.388,-184.589,-110.578,-110.247,-35.651,-46.268,-138.484,-247.824,-74.673,-76.609,-57.418,-338.174,-80.658,-42.85,-39.657,-34.31,-37.451,-50.995,-180.935,-90.321,-29.444,-335.177,5.536,3
-30.04,-20.447,-218.795,-149.189,-26.727,-42.275,202.877,-170.572,-104.832,-105.013,-29.468,-39.05,-132.711,-249.626,-66.401,-72.946,-52.238,-331.176,-74.43,-36.659,-35.007,-24.03,-27.68,-41.723,-168.459,-84.595,-22.754,-311.276,-1.129,3
-26.424,-15.304,-207.818,-148.527,-12.356,-34.036,185.768,-156.057,-98.58,-98.761,-24.315,-30.814,-127.967,-237.593,-51.478,-65.701,-39.89,-315.988,-66.158,-30.987,-33.947,-12.223,-18.943,-24.263,-154.458,-70.166,-21.195,-301.743,6.044,3
-33.057,-22.461,-210.171,-161.699,-19.003,-40.662,217.345,-163.073,-100.018,-103.273,-29.414,-34.881,-132.962,-233.257,-58.086,-66.66,-49.072,-323.356,-68.141,-33.518,-35.45,-13.235,-21.998,-24.238,-172.235,-69.584,-24.76,-315.273,7.575,3
-38.147,-25.512,-208.937,-173.832,-35.891,-44.208,223.276,-168.033,-102.479,-106.243,-33.995,-40.482,-134.366,-247.368,-70.836,-71.204,-58.244,-334.816,-75.245,-40.144,-40.538,-21.931,-26.074,-33.436,-191.018,-80.785,-28.833,-322.13,-3.703,3
-41.183,-36.245,-216.412,-184.417,-46.101,-52.873,199.486,-177.599,-113.135,-113.822,-43.695,-46.077,-141.404,-268.126,-75.888,-80.355,-60.747,-344.728,-88.49,-50.35,-52.793,-35.742,-37.319,-47.747,-199.536,-97.61,-38.538,-331.542,-10.872,3
-46.265,-50.041,-238.225,-191.917,-43.493,-63.578,226.439,-191.766,-122.244,-124.466,-51.336,-51.154,-149.972,-272.981,-75.812,-87.446,-69.908,-353.604,-97.111,-55.423,-56.838,-43.903,-48.552,-59.482,-199.849,-107.759,-46.697,-342.481,-4.201,3
-41.608,-43.843,-236.962,-190.701,-33.204,-56.342,255.926,-185.939,-114.437,-118.706,-42.575,-45.979,-145.211,-260.412,-71.638,-77.625,-65.228,-346.078,-87.792,-47.171,-50.121,-34.125,-38.257,-50.713,-183.255,-98.429,-39.478,-338.04,3.488,3
-35.931,-35.603,-219.819,-178.727,-27.535,-47.577,223.395,-171.921,-106.638,-110.391,-33.824,-39.273,-139.943,-254.516,-67.98,-68.838,-51.842,-338.048,-78.483,-39.951,-49.047,-23.845,-27.461,-38.367,-177.436,-90.646,-33.291,-332.067,-0.614,3
-43.067,-40.69,-223.186,-178.036,-31.094,-56.238,218.049,-178.409,-113.191,-117.965,-41.987,-44.357,-143.389,-258.36,-70.986,-76.966,-57.938,-350.005,-84.552,-47.596,-54.633,-30.481,-35.63,-46.526,-191.603,-98.753,-41.454,-331.223,-12.909,3
-51.733,-45.772,-235.258,-195.789,-42.333,-65.404,250.618,-194.112,-121.275,-128.093,-52.191,-51.998,-145.807,-262.201,-79.624,-83.549,-67.614,-360.926,-94.714,-56.77,-60.726,-43.77,-46.353,-60.824,-194.998,-107.875,-50.634,-334.478,-25.191,3
-55.78,-49.313,-243.219,-203.277,-50.488,-65.851,218.092,-194.942,-125.252,-131.039,-57.262,-53.482,-151.297,-263.988,-89.278,-85.003,-66.522,-360.053,-99.23,-57.738,-65.276,-47.825,-47.331,-62.812,-195.315,-111.866,-50.071,-345.414,-29.265,3
-51.113,-47.727,-245.538,-193.34,-44.29,-63.223,185.599,-183.477,-125.127,-128.859,-55.667,-50.355,-152.682,-259.113,-87.14,-84.918,-65.943,-358.668,-96.057,-55.119,-61.625,-40.093,-40.624,-56.602,-195.632,-108.68,-46.435,-341.995,-14.379,3
-35.693,-35.896,-226.337,-194.172,-41.684,-58.549,218.201,-177.145,-118.854,-124.631,-46.39,-43.132,-143.308,-254.243,-78.856,-77.148,-61.266,-351.649,-86.739,-47.891,-56.952,-29.294,-32.899,-46.811,-179.555,-97.813,-41.266,-324.746,6.128,3
-39.244,-39.446,-219.451,-205.248,-53.938,-62.589,250.77,-187.214,-123.346,-131.167,-49.418,-48.212,-145.214,-266.796,-87.999,-78.096,-62.742,-350.785,-91.263,-51.942,-63.555,-34.388,-40.55,-52.4,-181.937,-103.863,-43.274,-331.594,-1.563,3
-59.184,-57.85,-248.433,-205.555,-55.421,-73.797,218.244,-199.835,-136.03,-144.356,-64.225,-62.509,-161.463,-286.51,-101.231,-94.411,-82.147,-367.853,-109.103,-69.82,-73.738,-51.26,-54.342,-69.254,-214.031,-121.178,-53.476,-347.144,-31.275,3
-56.051,-51.644,-251.77,-198.69,-44.094,-70.65,207.78,-193.487,-131.796,-138.576,-61.599,-59.885,-160.277,-286.223,-91.395,-93.292,-86.676,-373.633,-112.58,-71.8,-73.152,-50.696,-48.652,-65.086,-214.841,-116.446,-50.861,-336.551,-36.879,3
-46.774,-39.297,-225.903,-193.368,-47.636,-61.87,237.798,-185.097,-125.004,-128.191,-52.829,-53.165,-149.87,-272.105,-85.156,-80.391,-73.781,-365.062,-105.807,-63.019,-70.005,-44.498,-46.042,-57.336,-191.06,-111.206,-45.687,-329.554,-18.399,3
-55.436,-50.529,-231.313,-192.15,-56.298,-67.956,222.191,-193.621,-132.564,-136.772,-59.948,-60.796,-154.843,-270.808,-97.879,-86.459,-76.781,-370.333,-108.775,-68.591,-74.033,-51.625,-56.755,-72.648,-196.505,-123.39,-54.863,-342.545,-14.282,3
-49.745,-52.015,-240.303,-197.081,-45.996,-67.888,191.743,-188.304,-130.382,-137.148,-57.327,-58.686,-155.201,-276.172,-94.195,-86.372,-80.291,-372.011,-102.519,-62.887,-72.422,-44.914,-49.526,-73.088,-207.579,-116.607,-54.296,-340.153,-19.903,3
-32.277,-38.643,-223.669,-200.47,-37.753,-55.012,179.768,-169.673,-121.542,-123.178,-43.949,-45.82,-144.287,-273.847,-79.244,-70.404,-71.501,-359.344,-88.584,-44.381,-63.641,-28.987,-35.644,-53.547,-192.002,-99.584,-40.922,-323.931,-24.494,3
-38.905,-47.826,-232.667,-202.319,-48.986,-61.105,212.376,-187.946,-134.228,-130.74,-51.078,-51.922,-148.754,-272.036,-87.874,-74.945,-77.577,-365.645,-97.205,-50.997,-67.163,-38.18,-46.879,-63.227,-179.515,-110.243,-44.467,-324.12,-39.327,3
-45.014,-57,-250.365,-207.239,-54.572,-76.413,244.951,-220.034,-145.365,-144.441,-61.273,-60.067,-157.314,-276.375,-97.52,-86.653,-85.184,-376.55,-106.329,-60.68,-75.293,-46.339,-52.98,-75.459,-192.143,-118.33,-52.62,-330.455,-39.8,3
-31.136,-39.524,-231.671,-199.348,-47.345,-61.48,231.899,-202.908,-129.338,-127.391,-46.355,-49.248,-142.3,-273.025,-84.102,-72.222,-71.267,-356.706,-89.316,-45.762,-68.045,-29.386,-33.459,-51.306,-202.197,-100.281,-42.321,-322.953,-10.558,3
-29.568,-31.8,-217.607,-183.267,-44.224,-40.926,199.391,-169.917,-118.45,-111.382,-36.574,-44.588,-131.912,-266.604,-81.457,-64.977,-66.072,-344.566,-83.592,-41.618,-62.854,-22.697,-27.79,-43.057,-192.773,-92.496,-35.106,-319.044,-4.4,3
-39.273,-43.551,-229.173,-192.817,-42.643,-54.205,184.335,-179.993,-131.14,-127.152,-48.321,-53.253,-147.661,-271.46,-93.158,-78.232,-79.839,-364.714,-97.853,-54.896,-71.501,-37.019,-43.132,-71.191,-185.408,-107.26,-44.805,-333.581,-33.597,3
-36.159,-46.069,-233.554,-211.068,-33.891,-67.471,199.008,-196.207,-139.718,-136.759,-52.883,-51.663,-152.637,-278.874,-87.942,-77.642,-84.37,-372.033,-97.243,-54.841,-72.966,-40.056,-45.65,-76.243,-187.784,-112.788,-50.908,-337.346,-45.859,3
-30.488,-37.314,-237.419,-197.024,-30.783,-53.571,199.833,-181.154,-129.844,-126.376,-44.121,-42.902,-137.115,-273.472,-77.096,-68.342,-77.625,-358.341,-87.412,-47.102,-66.745,-29.769,-35.358,-54.65,-184.522,-100.38,-43.685,-316.004,-33.005,3
-36.605,-32.153,-238.719,-180.433,-39.462,-48.907,232.421,-184.047,-126.64,-125.737,-42.028,-43.884,-133.904,-263.464,-84.703,-70.323,-75.498,-353.372,-87.836,-46.03,-69.753,-27.178,-31.737,-45.886,-185.363,-93.107,-38.005,-300.831,-19.14,3
-44.253,-31.097,-219.525,-189.987,-46.082,-59.104,264.976,-203.33,-135.735,-132.784,-45.06,-47.938,-140.43,-266.275,-93.328,-70.765,-77.472,-356.605,-89.285,-45.984,-76.343,-29.712,-33.242,-49.426,-185.689,-95.576,-40.017,-305.654,-10.924,3
-43.697,-29.016,-208.547,-189.797,-42.45,-54.434,232.436,-187.246,-134.063,-125.991,-42.965,-46.353,-136.703,-280.353,-95.284,-68.133,-82.005,-357.785,-89.196,-49.012,-77.803,-27.121,-32.184,-51.938,-161.938,-94.456,-40.489,-305.348,-17.061,3
-37.505,-28.475,-214.998,-176.799,-36.26,-43.621,199.928,-164.004,-121.633,-116.131,-39.336,-45.795,-133.493,-286.733,-106.459,-72.163,-87.047,-361.526,-91.156,-52.549,-78.238,-25.045,-31.64,-52.399,-158.702,-91.287,-37.375,-300.432,-32.413,3
-34.906,-32.033,-210.172,-184.307,-30.588,-46.651,232.516,-177.673,-123.561,-118.064,-40.834,-46.773,-136.433,-278.249,-116.599,-74.653,-87.472,-362.702,-89.016,-48.911,-79.184,-28.094,-30.583,-47.736,-190.819,-93.758,-38.362,-301.668,-35.454,3
-38.97,-34.562,-210.987,-196.418,-29.021,-52.24,265.071,-190.303,-133.683,-124.606,-46.428,-48.264,-138.858,-272.848,-116.994,-75.09,-87.897,-359.265,-90.464,-50.911,-81.667,-32.676,-31.577,-47.688,-185.505,-96.225,-42.422,-305.465,-29.783,3
-45.591,-36.065,-230.756,-191.099,-38.213,-57.311,232.531,-184.477,-136.111,-133.703,-53.554,-54.363,-144.867,-281.284,-121.488,-81.163,-94.469,-364.029,-102.156,-61.106,-89.782,-42.377,-40.255,-63.009,-155.605,-103.814,-48.015,-315.406,-29.241,3
-53.742,-43.713,-234.624,-192.444,-45.347,-65.45,217.441,-186.342,-138.537,-142.278,-60.673,-59.944,-151.894,-291.761,-127.514,-87.742,-100.522,-374.423,-108.714,-63.607,-95.84,-50.02,-49.436,-72.168,-183.114,-115.493,-53.09,-322.775,-32.798,3
-53.176,-43.157,-215.946,-199.424,-39.667,-64.36,250.011,-189.742,-140.96,-139.062,-58.051,-53.736,-148.669,-290.445,-117.653,-85.605,-95.811,-365.852,-100.409,-55.858,-92.158,-42.285,-41.702,-59.288,-197.276,-106.668,-47.914,-309.645,-35.839,3
-39.291,-26.72,-203.434,-190.003,-35.528,-53.538,275.377,-182.38,-130.573,-127.14,-45.185,-42.412,-139.811,-275.298,-106.265,-75.273,-84.956,-345.506,-88.525,-47.605,-85.918,-28.41,-28.341,-46.421,-164.291,-85.557,-35.058,-289.867,-34.267,3
-33.104,-19.521,-202.719,-175.981,-36.005,-47.849,242.826,-175.025,-120.708,-121.89,-38.992,-41.857,-133.011,-266.313,-108.208,-67.513,-85.384,-347.722,-84.85,-43.459,-84.807,-27.357,-28.825,-46.375,-159.516,-84.447,-33.486,-284.967,-30.646,3
-42.292,-29.748,-206.614,-180.416,-32.895,-52.924,218.505,-174.85,-130.834,-128.94,-48.175,-47.963,-135.952,-277.83,-116.296,-75.13,-98.106,-364.28,-94.499,-50.076,-90.87,-39.625,-40.066,-52.476,-191.632,-98.707,-43.187,-289.805,-34.714,3
-49.934,-45.6,-214.605,-204.314,-40.547,-67.216,251.074,-193.118,-149.146,-143.668,-61.447,-56.112,-150.673,-291.897,-122.84,-88.887,-109.279,-366.478,-110.799,-63.346,-103.587,-54.443,-52.322,-67.28,-198.1,-112.441,-54.414,-307.446,-46.462,3
-54.495,-63.485,-232.321,-222.553,-57.413,-80.981,249.798,-210.856,-151.046,-151.209,-65.996,-62.716,-156.67,-288.531,-125.791,-94.434,-110.706,-364.574,-116.836,-67.381,-111.68,-61.561,-59.442,-83.607,-174.336,-124.624,-62.044,-328.143,-61.273,3
-59.564,-65.983,-245.921,-211.572,-57.868,-74.24,217.273,-185.542,-139.112,-140.812,-59.27,-57.018,-143.193,-275.435,-126.69,-89.729,-99.837,-361.136,-109.034,-62.703,-106.446,-55.864,-57.333,-81.987,-178.772,-122.962,-58.908,-325.253,-72.995,3
-56.943,-54.646,-239.015,-197.015,-50.125,-62.382,220.13,-164.352,-138.46,-136.573,-56.649,-49.276,-136.902,-268.499,-128.612,-84.004,-88.467,-344.381,-105.339,-62.128,-106.339,-51.709,-53.69,-74.22,-191.401,-115.667,-53.214,-309.046,-72.922,3
-50.738,-58.69,-234.165,-211.163,-58.272,-79.226,252.697,-196.463,-159.326,-155.391,-67.351,-58.448,-151.11,-276.428,-129.508,-90.58,-96.575,-341.987,-113.431,-68.726,-119.553,-61.904,-58.247,-79.781,-191.722,-123.236,-59.309,-305.663,-70.287,3
-50.175,-66.316,-245.714,-222.223,-62.824,-95.541,249.883,-223.931,-174.024,-163.433,-70.357,-66.587,-159.668,-288.959,-130.916,-102.784,-113.385,-362.138,-118.953,-73.268,-123.532,-68.502,-60.75,-85.337,-180.772,-129.773,-63.348,-304.333,-70.217,3
-52.686,-55.491,-236.759,-208.168,-54.052,-75.465,217.358,-190.919,-160.018,-146.876,-59.529,-58.323,-151.311,-286.621,-135.908,-100.632,-115.833,-366.386,-114.223,-71.145,-115.211,-62.286,-57.615,-77.054,-171.37,-119.909,-56.624,-294.807,-62.974,3
-54.171,-48.263,-212.444,-203.861,-53.486,-55.922,201.259,-163.064,-143.464,-136.995,-56.907,-54.167,-143.476,-275.576,-134.235,-92.335,-112.643,-356.286,-107.961,-65.951,-114.072,-56.076,-54.484,-68.268,-184.518,-112.104,-56.568,-283.754,-62.399,3
-54.629,-53.338,-217.355,-209.805,-60.605,-63.551,233.845,-171.61,-145.882,-141.981,-64.023,-57.699,-144.357,-272.226,-128.978,-96.341,-114.067,-353.881,-105.291,-63.324,-117.031,-54.995,-50.843,-67.688,-190.481,-115.066,-60.61,-279.884,-72.583,3
-50.988,-53.797,-228.408,-204.985,-61.569,-69.635,266.399,-176.049,-150.347,-142.864,-65.496,-57.641,-144.212,-274.515,-133.972,-101.368,-113.953,-353.014,-105.698,-64.285,-116.402,-55.452,-51.305,-68.132,-170.311,-117.513,-56.963,-285.752,-69.949,3
-48.888,-54.768,-219.983,-204.78,-64.069,-69.053,298.92,-181.508,-150.197,-142.721,-66.455,-60.657,-144.58,-277.315,-138.961,-99.217,-117.425,-351.124,-111.74,-67.294,-119.359,-60.52,-57.913,-69.601,-172.702,-119.957,-55.881,-286.491,-67.317,3
-51.913,-60.861,-224.886,-214.309,-66.054,-76.156,283.252,-192.598,-161.829,-150.263,-70.999,-65.719,-150.584,-278.574,-131.65,-104.753,-123.456,-352.822,-120.338,-74.399,-122.826,-68.144,-61.442,-75.679,-195.071,-124.96,-62.486,-275.958,-83.644,3
-53.398,-62.849,-237.469,-216.144,-60.353,-78.642,250.694,-185.745,-173.963,-153.699,-71.441,-66.166,-155.044,-279.32,-129.981,-111.821,-128.455,-351.445,-120.218,-77.399,-121.679,-69.101,-59.331,-80.214,-180.531,-124.835,-64.472,-273.633,-88.683,3
-50.27,-56.639,-225.96,-206.706,-60.804,-68.317,242.246,-168.141,-164.055,-143.299,-66.246,-62.514,-147.716,-285.701,-137.536,-104.024,-135.499,-345.458,-111.388,-70.661,-117.971,-62.371,-53.636,-77.06,-148.588,-118.05,-56.211,-274.896,-80.398,3
-47.146,-47.873,-216.001,-198.815,-64.842,-60.052,274.791,-166.436,-149.034,-132.397,-59.52,-58.353,-138.347,-286.44,-132.787,-98.285,-135.364,-340.502,-107.178,-64.955,-113.755,-57.186,-52.046,-72.372,-161.759,-114.346,-49.495,-265.912,-85.44,3
-46.587,-47.825,-223.469,-202.714,-60.679,-64.09,256.586,-177.54,-155.033,-139.949,-62.534,-58.294,-142.307,-270.272,-124.97,-105.871,-127.544,-341.186,-110.657,-68.477,-116.202,-61.227,-60.703,-70.763,-193.873,-117.818,-55.593,-260.011,-85.355,3
-48.077,-51.875,-224.27,-207.635,-58.569,-69.661,224.054,-178.9,-165.124,-149.543,-70.156,-63.871,-151.386,-261.805,-126.894,-109.352,-133.564,-346.993,-114.133,-73.019,-122.234,-66.801,-62.691,-68.131,-196.24,-118.724,-62.197,-263.337,-75.536,3
-48.029,-46.7,-222.509,-200.767,-60.56,-67.542,256.618,-167.45,-159.836,-145.807,-69.061,-63.808,-149.698,-273.326,-128.817,-107.705,-143.676,-348.695,-113.506,-70.897,-119.55,-64.173,-52.895,-68.063,-163.256,-113.995,-58.549,-266.66,-79.046,3
-45.932,-49.728,-235.607,-201.591,-61.524,-70.549,289.149,-172.918,-158.139,-149.76,-69.505,-63.231,-145.962,-277.151,-129.2,-111.696,-137.385,-342.711,-113.905,-68.777,-116.869,-63.597,-52.842,-75.167,-143.625,-115.93,-59.003,-275.102,-87.164,3
-48.447,-65.047,-248.179,-217.783,-65.048,-83.798,271.953,-192.213,-166.178,-163.443,-77.632,-69.316,-151.452,-271.239,-130.096,-115.171,-133.662,-339.294,-115.328,-71.782,-123.412,-66.607,-59.962,-75.604,-175.757,-120.425,-66.116,-280.463,-95.786,3
-57.62,-66.007,-245.369,-227.812,-68.057,-88.325,239.406,-192.533,-167.549,-163.791,-76.018,-70.784,-154.374,-275.578,-125.867,-114.543,-141.213,-339.98,-115.213,-75.296,-124.826,-66.028,-56.828,-68.356,-189.414,-118.768,-65.538,-269.424,-112.084,3
-65.76,-62.355,-238.464,-231.682,-73.112,-87.212,220.724,-186.705,-167.893,-167.214,-76.966,-71.225,-153.707,-283.5,-131.889,-120.576,-144.657,-340.664,-120.733,-80.344,-125.213,-73.647,-60.869,-74.948,-157.974,-124.284,-68.034,-265.568,-116.583,3
-64.157,-74.075,-243.348,-233.5,-84.822,-97.371,224.089,-195.74,-177.972,-181.904,-91.746,-78.838,-161.751,-280.655,-145.077,-128.14,-144.001,-340.836,-126.76,-85.386,-131.748,-85.356,-72.592,-86.143,-177.283,-135.943,-79.236,-283.233,-107.757,3
-58.458,-75.026,-250.789,-226.606,-78.59,-97.274,214.643,-194.519,-178.818,-177.111,-88.068,-77.223,-163.638,-269.615,-137.247,-122.377,-138.733,-331.786,-118.949,-81.715,-128.542,-79.635,-66.884,-78.885,-191.963,-133.758,-79.157,-292.172,-105.6,3
-55.838,-63.68,-248.489,-223.306,-52.383,-80.783,195.986,-178.955,-164.295,-159.515,-69.025,-64.85,-148.618,-259.1,-119.692,-111.496,-129.373,-317.109,-108.583,-73.436,-116.118,-67.772,-56.571,-71.122,-158.983,-121.329,-66.783,-277.535,-108.568,3
-53.733,-60.03,-246.192,-222.57,-45.159,-77.116,218.331,-173.653,-155.421,-156.794,-67.419,-60.687,-140.272,-255.767,-118.035,-107.286,-129.244,-310.645,-104.889,-69.777,-113.953,-61.557,-55.489,-70.538,-149.603,-114.547,-59.031,-257.79,-115.632,3
-51.63,-55.359,-246.97,-208.515,-54.335,-77.551,250.901,-169.894,-152.192,-155.101,-69.401,-61.651,-141.156,-255.511,-118.429,-105.129,-132.188,-309.822,-99.661,-66.121,-115.376,-54.835,-51.335,-63.808,-176.605,-111.359,-56.923,-248.823,-123.713,3
-57.213,-51.206,-235.965,-200.622,-49.67,-68.252,237.842,-160.502,-147.429,-147.261,-63.183,-60.564,-135.892,-251.669,-114.725,-104,-131.032,-311.049,-97,-65.03,-112.187,-56.318,-49.747,-61.695,-169.769,-113.297,-57.891,-253.697,-115.905,3
-65.865,-59.351,-231.118,-206.569,-47.571,-71.77,208.915,-163.416,-148.306,-150.7,-67.219,-62.553,-134.219,-252.442,-120.245,-109.019,-138.585,-318.935,-104.587,-74.187,-115.661,-65.483,-58.919,-66.244,-171.136,-119.844,-62.443,-261.64,-106.055,3
-63.238,-64.415,-244.719,-207.387,-62.38,-84.506,240.981,-177.084,-156.355,-156.697,-74.836,-66.077,-144.331,-258.338,-125.248,-110.959,-144.082,-317.079,-108.069,-78.211,-119.131,-66.442,-60.909,-65.153,-190.945,-121.773,-63.918,-257.28,-115.683,3
-51.392,-61.277,-251.647,-204.618,-69.49,-82.884,272.503,-183.055,-162.858,-156.028,-70.663,-64.986,-145.212,-256.03,-121.537,-104.7,-136.253,-300.88,-103.35,-69.423,-112.352,-61.252,-52.651,-63.038,-170.262,-118.065,-60.268,-242.166,-124.789,3
-48.266,-57.117,-243.198,-201.34,-59.175,-73.067,239.956,-173.65,-157.572,-153.31,-62.395,-60.823,-134.308,-248.602,-116.292,-99.473,-135.605,-296.481,-98.123,-65.256,-104.555,-56.068,-49.013,-60.926,-144.988,-112.824,-56.621,-232.702,-115.955,3
-54.878,-54.498,-241.418,-194.991,-51.943,-71.97,227.42,-166.304,-147.681,-149.058,-62.845,-58.713,-132.124,-246.304,-113.102,-99.885,-143.666,-305.406,-98.025,-71.338,-107.012,-53.963,-53.574,-59.841,-159.7,-113.223,-58.614,-238.105,-110.716,3
-62.508,-64.178,-241.689,-202.481,-63.162,-78.045,259.98,-170.749,-152.144,-150.959,-74.053,-66.851,-140.701,-243.496,-117.6,-106.445,-143.522,-303.563,-107.149,-78.439,-114.077,-65.692,-63.255,-71.564,-176.959,-127.967,-67.777,-248.113,-122.901,3
-67.568,-73.335,-231.713,-204.327,-75.906,-79.504,243.839,-165.455,-156.603,-156.443,-78.59,-71.395,-142.098,-238.129,-126.191,-109.925,-141.842,-295.575,-111.14,-77.848,-113.963,-72.798,-65.241,-79.689,-166.536,-136.036,-69.758,-245.303,-134.048,3
-63.915,-61.479,-229.433,-183.631,-64.56,-71.228,211.32,-152.482,-145.688,-148.09,-66.728,-60.052,-132.222,-237.379,-120.43,-101.106,-141.188,-294.255,-99.246,-69.573,-104.115,-60.943,-56.466,-69.876,-151,-124.629,-59.955,-234.812,-131.865,3
-51.043,-60.905,-247.134,-184.472,-48.614,-69.62,243.896,-163.088,-141.444,-141.794,-63.075,-54.357,-127.479,-240.215,-111.088,-97.931,-139.51,-293.961,-95.561,-68.479,-101.45,-57.808,-57.434,-64.683,-175.952,-120.406,-61.944,-234.065,-135.319,3
-46.894,-73.139,-255.084,-199.656,-54.713,-73.649,248.775,-168.048,-144.376,-148.312,-70.185,-61.475,-130.425,-237.414,-115.587,-105.518,-139.37,-292.642,-101.613,-74.046,-107.496,-64.41,-60.963,-63.081,-208.052,-124.896,-68.03,-228.195,-141.332,3
-53.507,-57.697,-235.873,-179.989,-60.806,-63.329,216.251,-141.24,-134.498,-143.553,-62.43,-60.389,-124.659,-231.029,-117.521,-99.777,-133.083,-286.714,-94.851,-69.874,-105.339,-57.173,-50.656,-53.284,-175.056,-114.525,-55.154,-205.425,-130.432,3
-58.064,-46.881,-221.805,-167.001,-56.646,-60.704,248.823,-141.099,-133.851,-138.286,-58.781,-58.279,-121.461,-234.384,-115.867,-93.529,-132.438,-281.817,-95.269,-67.755,-102.16,-56.604,-50.605,-60.915,-142.093,-113.899,-51.513,-198.048,-126.203,3
-62.617,-65.789,-226.194,-187.839,-63.762,-73.963,278.8,-165.548,-146.012,-149.931,-73.067,-67.443,-136.196,-243.371,-124.46,-107.268,-147.162,-288.707,-113.616,-82.544,-109.743,-73.453,-66.436,-79.81,-159.369,-131.203,-68.88,-215.268,-140.422,3
-63.579,-67.773,-221.869,-185.09,-68.309,-67.742,246.246,-150.014,-140.231,-149.269,-71.969,-67.375,-137.085,-245.689,-122.799,-109.21,-149.577,-294.054,-111.966,-84.51,-109.121,-72.868,-63.296,-71.533,-188.924,-130.047,-67.274,-218.639,-136.183,3
-55.83,-56.434,-212.938,-168.511,-58.507,-58.965,238.827,-131.42,-131.382,-136.824,-61.651,-59.623,-119.529,-244.419,-113.454,-92.707,-138.156,-285.563,-96.485,-70.594,-97.741,-60.499,-49.913,-56.092,-179.513,-118.647,-53.887,-204.076,-128.874,3
-51.676,-64.575,-226.045,-183.199,-65.621,-77.349,271.376,-153.831,-140.472,-145.909,-69.786,-62.637,-122.483,-243.662,-118.976,-94.151,-139.555,-278.617,-99.974,-70.523,-99.18,-65.05,-57.035,-62.184,-199.826,-122.114,-57.931,-195.675,-153.336,3
-49.063,-61.436,-240.676,-186.602,-76.314,-79.321,243.44,-153.164,-140.844,-149.861,-71.254,-65.649,-130.558,-236.758,-122.443,-101.229,-137.878,-275.777,-99.874,-73.014,-104.204,-64.985,-61.589,-63.146,-228.828,-118.406,-57.873,-185.233,-161.38,3
-43.891,-44.469,-230.702,-165.411,-58.819,-58.237,210.921,-127.396,-129.432,-133.83,-58.375,-60.972,-116.595,-227.812,-111.562,-89.857,-124.421,-265.768,-83.893,-62.182,-96.927,-49.55,-48.719,-53.349,-206.57,-103.943,-46.545,-169.678,-130.992,3
-48.97,-51.084,-213.565,-164.221,-50.563,-63.302,243.498,-141.101,-130.327,-134.721,-61.39,-60.399,-111.868,-224.511,-111.451,-83.62,-124.809,-258.842,-83.809,-60.071,-94.269,-48.476,-44.572,-58.419,-173.576,-106.4,-52.134,-175.144,-124.713,3
-55.581,-63.841,-210.79,-170.204,-69.468,-77.583,276.042,-160.94,-134.295,-145.345,-70.55,-63.925,-120.465,-223.774,-118.512,-89.172,-131.856,-260.632,-92.434,-68.72,-98.785,-61.235,-53.237,-68.607,-161.619,-117.565,-60.791,-190.851,-147.13,3
-47.329,-60.703,-220.825,-162.349,-68.374,-66.747,243.491,-137.725,-130.575,-137.515,-63.82,-61.811,-116.758,-225.087,-112.758,-88.57,-128.65,-261.909,-91.317,-68.139,-95.613,-62.199,-56.258,-68.026,-171.191,-118.472,-54.582,-182.975,-159.279,3
-43.183,-56.032,-224.19,-162.187,-44.227,-56.434,210.972,-117.095,-126.346,-128.156,-57.096,-58.163,-111.006,-228.96,-104.96,-85.408,-129.034,-257.548,-95.325,-66.534,-91.931,-62.137,-58.25,-67.958,-192.537,-116.816,-54.528,-168.448,-164.242,3
-49.287,-58.025,-214.232,-165.611,-41.109,-59.964,243.549,-126.712,-125.195,-130.589,-60.113,-57.081,-111.408,-231.293,-105.88,-84.298,-131.466,-251.143,-100.352,-69.541,-96.962,-68.734,-61.266,-70.964,-190.808,-116.7,-59.084,-175.964,-159.467,3
-50.775,-63.602,-209.92,-164.421,-58.486,-67.076,276.093,-137.856,-128.144,-136.606,-65.176,-59.585,-111.808,-233.623,-108.848,-84.726,-130.823,-250.379,-93.592,-71.009,-100.964,-66.616,-60.18,-64.745,-185.494,-112.484,-55.951,-180.911,-143.426,3
-55.335,-68.149,-212.784,-167.843,-67.137,-77.767,243.541,-140.792,-133.651,-144.666,-69.721,-67.21,-116.82,-226.73,-112.325,-88.739,-131.716,-251.154,-89.912,-74.012,-103.424,-60.402,-56.534,-58.02,-204.776,-110.323,-57.432,-161.774,-152.504,3
-63.989,-63.983,-205.911,-168.187,-62.459,-80.251,267.376,-141.675,-131.98,-143.497,-70.164,-68.68,-119.777,-210.621,-113.75,-90.188,-125.949,-242.193,-90.847,-74.962,-102.808,-61.366,-54.94,-62.061,-188.69,-113.286,-64.034,-143.682,-171.82,3
-56.752,-59.308,-204.168,-159.31,-59.835,-71.462,288.113,-134.874,-126.725,-134.644,-65.483,-60.414,-109.411,-209.898,-111.587,-84.462,-121.213,-236.828,-87.682,-71.301,-97.582,-61.305,-54.885,-66.61,-155.713,-112.148,-61.921,-144.563,-162.939,3
-46.45,-59.761,-214.21,-146.343,-55.677,-64.218,255.55,-124.493,-125.061,-130.924,-59.27,-58.305,-103.666,-219.935,-108.402,-80.791,-126.215,-243.764,-85.545,-69.181,-94.411,-58.682,-53.294,-61.932,-162.73,-106.913,-56.736,-144.418,-164.825,3
-47.428,-53.554,-204.774,-133.901,-42.301,-55.957,239.925,-115.659,-119.813,-124.645,-51.526,-58.246,-104.075,-211.518,-103.682,-77.125,-121.478,-238.397,-81.361,-64.501,-92.78,-57.087,-48.63,-58.796,-186.645,-102.708,-53.606,-132.491,-183.103,3
-49.43,-51.963,-189.2,-140.939,-44.82,-53.852,272.473,-115.031,-117.132,-120.422,-53.011,-55.114,-103.458,-205.159,-104.091,-73.461,-113.671,-226.375,-77.694,-63.412,-92.175,-56.517,-49.606,-62.324,-178.774,-103.117,-53.552,-131.334,-168.063,3
-54.503,-66.256,-200.282,-161.291,-70.391,-72.753,269.639,-126.699,-129.823,-133.109,-68.84,-62.231,-111.039,-222.884,-118.844,-81.585,-125.853,-236.907,-90.936,-78.205,-101.304,-66.707,-62.876,-67.385,-194.477,-110.699,-63.745,-145.035,-151.501,3
-64.183,-70.288,-211.352,-156.519,-76.981,-81.39,255.537,-131.696,-132.767,-141.685,-74.406,-73.952,-118.613,-227.784,-130.508,-91.749,-134.437,-248.453,-102.628,-85.811,-108.887,-77.911,-68.961,-71.928,-226.558,-117.248,-68.292,-143.865,-178.502,3
-63.094,-52.287,-200.382,-131.771,-59.997,-61.84,269.114,-111.072,-112.142,-130.273,-63.573,-68.243,-111.322,-207.064,-121.668,-84.485,-120.982,-237.959,-93.304,-75.48,-99.557,-69.636,-59.158,-74.418,-215.573,-112.008,-59.002,-120.667,-188.57,3
-51.248,-40.452,-189.936,-119.344,-51.74,-47.434,270.382,-90.98,-98.197,-117.847,-55.825,-56.904,-100.965,-195.586,-106.177,-75.692,-112.664,-227.987,-82.452,-71.306,-92.285,-58.808,-51.414,-67.683,-182.57,-102.162,-54.844,-106.202,-157.643,3
-48.122,-43.997,-177.451,-119.737,-47.078,-47.899,261.402,-88.328,-100.148,-113.631,-53.208,-54.798,-93.179,-200.002,-99.924,-76.64,-114.601,-231.345,-80.833,-71.747,-98.853,-60.286,-51.363,-59.931,-149.599,-97.449,-56.326,-109.682,-146.726,3
-55.759,-46.515,-167.539,-131.913,-42.42,-49.9,269.337,-90.801,-103.634,-117.103,-55.204,-57.817,-89.5,-200.826,-103.41,-75.027,-112.949,-234.188,-80.752,-68.089,-101.315,-59.713,-48.75,-59.359,-175.065,-97.864,-55.245,-108.548,-168.097,3
-62.875,-51.079,-186.327,-145.101,-58.772,-62.146,286.487,-103.518,-113.777,-132.868,-69.493,-67.493,-103.243,-195.502,-112.528,-77.001,-114.373,-235.49,-84.257,-74.168,-102.239,-62.728,-50.238,-60.836,-207.165,-102.377,-62.362,-102.804,-183.298,3
-62.3,-61.786,-206.121,-138.296,-77.156,-77.965,303.619,-121.858,-123.397,-145.03,-79.158,-76.135,-115.435,-191.721,-119.075,-85.633,-118.357,-237.304,-87.247,-80.754,-111.358,-70.862,-56.336,-60.775,-202.348,-106.885,-68.448,-108.336,-183.115,3
-62.238,-63.774,-195.156,-130.473,-73.493,-73.789,291.02,-111.49,-113.027,-136.688,-71.394,-69.911,-105.585,-192.554,-115.883,-83.498,-118.239,-232.968,-84.086,-76.575,-112.784,-69.254,-56.791,-62.251,-192.411,-105.754,-60.182,-113.351,-177.808,3
-64.225,-61.661,-189.326,-139.564,-67.271,-64.493,258.453,-85.25,-101.131,-126.306,-66.712,-66.767,-100.357,-196.459,-114.742,-78.804,-121.707,-228.637,-88.613,-77.523,-108.572,-68.672,-58.272,-69.874,-207.076,-105.136,-58.073,-109.139,-179.68,3
-56.988,-63.648,-196.309,-137.887,-65.667,-66.478,255.633,-84.141,-103.079,-125.155,-66.645,-73.36,-106.404,-196.263,-113.603,-81.799,-128.245,-231.995,-95.696,-81.544,-111.025,-75.264,-62.312,-78.001,-194.573,-106.567,-63.65,-101.858,-187.697,3
-46.685,-53.339,-178.694,-119.306,-50.745,-58.727,283.554,-88.667,-100.927,-115.808,-56.332,-66.115,-96.564,-186.845,-100.681,-75.057,-120.945,-227.664,-85.867,-73.265,-107.84,-68.529,-56.614,-72.8,-161.591,-99.801,-56.414,-88.948,-182.386,3
-51.762,-38.941,-158.023,-108.429,-39.935,-44.324,291.98,-76.283,-94.166,-104.934,-48.591,-54.778,-83.66,-172.314,-95.97,-63.712,-109.041,-215.141,-72.973,-64.995,-98.511,-56.677,-50.41,-58.382,-161.942,-91.504,-48.673,-72.465,-176.568,3
-60.931,-48.123,-169.136,-111.394,-56.289,-54.013,324.476,-81.842,-101.756,-115.075,-59.813,-62.92,-92.797,-174.703,-111.755,-70.82,-114.055,-215.438,-76.999,-69.541,-103.536,-63.28,-57.019,-61.91,-193.031,-97.56,-56.822,-73.418,-195.347,3
-61.895,-68.055,-189.971,-126.652,-75.701,-77.525,356.939,-109.425,-115.999,-133.403,-74.611,-75.152,-106.025,-193.996,-120.865,-82.532,-123.674,-223.42,-86.656,-78.693,-116.752,-74.488,-64.135,-78.242,-204.108,-108.733,-66.499,-90.25,-205.398,3
-64.907,-76.696,-197.466,-142.919,-77.674,-86.157,324.307,-118.025,-122.031,-138.393,-79.147,-76.614,-107.968,-193.802,-118.183,-80.913,-123.038,-222.172,-87.594,-83.225,-115.098,-72.364,-59.46,-74.065,-210.052,-109.137,-66.944,-93.234,-188.287,3
-64.33,-72.009,-191.121,-135.092,-69.4,-79.923,291.707,-104.074,-116.273,-133.643,-73.432,-72.951,-104.274,-173.116,-116.015,-75.197,-116.768,-215.802,-80.846,-75.457,-104.225,-64.095,-51.716,-58.11,-210.867,-101.343,-63.291,-74.698,-187.586,3
-48.384,-58.617,-170.949,-113.44,-54.986,-66.523,309.858,-87.064,-99.251,-119.165,-60.039,-62.12,-90.849,-162.697,-106.166,-65.9,-105.38,-200.729,-67.957,-60.525,-94.387,-53.784,-45.004,-57.027,-177.868,-92.02,-55.031,-58.229,-198.157,3
-40.139,-49.337,-155.922,-105.642,-43.66,-53.649,336.701,-73.145,-88.393,-104.701,-51.269,-54.886,-76.926,-153.825,-93.252,-54.563,-91.442,-179.011,-55.082,-55.341,-88.657,-45.021,-37.787,-61.069,-144.902,-85.268,-49.341,-56.122,-188.225,3
-48.296,-49.287,-161.401,-106.56,-48.739,-54.62,337.389,-74.609,-95.99,-108.183,-55.829,-60.466,-80.436,-141.375,-97.257,-55.533,-90.326,-173.709,-55.027,-58.36,-92.155,-46.513,-38.261,-56.909,-162.176,-85.183,-51.853,-55.553,-190.086,3
-51.321,-47.701,-166.363,-99.282,-52.789,-57.127,339.613,-79.145,-100.504,-111.148,-57.31,-61.942,-88.552,-144.82,-103.307,-61.626,-94.335,-179.683,-60.095,-57.789,-95.136,-51.59,-42.834,-55.827,-194.289,-84.073,-53.338,-42.69,-209.363,3
-42.048,-43.555,-160.049,-89.961,-44.027,-46.824,322.367,-65.233,-88.108,-96.693,-47.519,-52.659,-80.267,-147.237,-94.495,-55.416,-89.629,-170.794,-53.375,-53.633,-87.869,-46.928,-40.229,-55.259,-187.435,-76.817,-47.649,-29.327,-197.883,3
-36.371,-41.462,-154.766,-90.383,-39.884,-41.141,300.528,-53.385,-79.823,-89.424,-43.885,-47.483,-69.428,-136.331,-85.691,-46.139,-84.417,-159.353,-41.026,-47.944,-81.121,-38.684,-33.529,-49.056,-178.026,-71.617,-39.917,-24.175,-177.705,3
-39.408,-40.396,-155.635,-99.514,-40.357,-47.248,307.912,-59.992,-82.305,-92.408,-47.427,-48.46,-67.309,-134.146,-88.679,-44.556,-84.332,-161.755,-42.009,-45.334,-85.138,-40.182,-34.52,-49.007,-194.242,-72.058,-40.389,-24.151,-191.36,3
-43.98,-44.966,-161.115,-103.513,-35.706,-50.275,340.392,-62.493,-82.223,-92.828,-48.405,-51.486,-67.242,-139.135,-94.738,-47.585,-86.297,-162.106,-52.214,-52.461,-89.152,-45.777,-41.146,-56.643,-191.998,-74.035,-49.571,-26.688,-204.489,3
-47.009,-49.532,-168.639,-100.336,-38.744,-53.81,372.839,-64.992,-83.678,-97.858,-53.479,-54.508,-70.761,-137.459,-96.693,-51.124,-88.26,-155.796,-54.723,-58.044,-89.062,-46.756,-42.641,-57.099,-181.048,-77.035,-51.058,-27.686,-205.309,3
-53.622,-45.897,-170.007,-103.822,-48.439,-60.417,349.925,-73.636,-90.766,-105.445,-60.086,-57.015,-76.325,-132.198,-96.596,-52.098,-85.61,-152.054,-50.057,-55.937,-88.461,-44.66,-37.988,-51.918,-182.916,-76.958,-47.421,-15.875,-217.399,3
-57.155,-40.728,-162.665,-109.353,-49.928,-59.844,317.299,-65.366,-93.237,-104.827,-56.952,-59.52,-76.249,-125.918,-94.963,-49.996,-81.939,-151.389,-49.495,-55.881,-85.811,-40.005,-32.827,-46.743,-160.192,-69.708,-48.398,-0.49,-215.132,3
-56.579,-41.463,-162.703,-110.195,-51.117,-59.894,320.907,-66.44,-93.397,-104.929,-57.401,-59.798,-76.639,-125.278,-95.806,-49.991,-81.645,-150.69,-49.888,-56.33,-85.574,-41.082,-32.937,-45.998,-163.475,-70.27,-49.076,-1.287,-216.987,3
-56.004,-42.199,-162.742,-111.037,-52.307,-59.944,324.515,-67.514,-93.558,-105.032,-57.85,-60.076,-77.029,-124.638,-96.649,-49.985,-81.351,-149.99,-50.281,-56.779,-85.337,-42.159,-33.047,-45.253,-166.759,-70.831,-49.753,-2.084,-218.841,3
-55.428,-42.934,-162.781,-111.878,-53.497,-59.995,328.123,-68.589,-93.718,-105.134,-58.299,-60.354,-77.419,-123.998,-97.492,-49.98,-81.057,-149.29,-50.674,-57.229,-85.099,-43.236,-33.158,-44.508,-170.043,-71.393,-50.431,-2.881,-220.696,3
-54.853,-43.67,-162.82,-112.72,-54.687,-60.045,331.731,-69.663,-93.879,-105.236,-58.748,-60.632,-77.809,-123.358,-98.336,-49.974,-80.764,-148.59,-51.067,-57.678,-84.862,-44.313,-33.268,-43.763,-173.326,-71.954,-51.109,-3.678,-222.55,3
-54.277,-44.405,-162.859,-113.562,-55.877,-60.095,335.338,-70.737,-94.039,-105.338,-59.197,-60.91,-78.199,-122.717,-99.179,-49.968,-80.47,-147.89,-51.46,-58.127,-84.625,-45.39,-33.378,-43.017,-176.61,-72.516,-51.786,-4.474,-224.405,3
-53.702,-45.14,-162.898,-114.403,-57.067,-60.146,338.946,-71.812,-94.199,-105.44,-59.646,-61.188,-78.589,-122.077,-100.022,-49.963,-80.176,-147.19,-51.853,-58.576,-84.388,-46.467,-33.488,-42.272,-179.894,-73.077,-52.464,-5.271,-226.26,3
-53.126,-45.876,-162.937,-115.245,-58.256,-60.196,342.554,-72.886,-94.36,-105.543,-60.095,-61.466,-78.979,-121.437,-100.866,-49.957,-79.883,-146.49,-52.246,-59.025,-84.15,-47.544,-33.598,-41.527,-183.178,-73.639,-53.142,-6.068,-228.114,3
-52.55,-46.611,-162.975,-116.087,-59.446,-60.246,346.162,-73.96,-94.52,-105.645,-60.544,-61.744,-79.369,-120.797,-101.709,-49.952,-79.589,-145.79,-52.639,-59.474,-83.913,-48.621,-33.709,-40.782,-186.461,-74.2,-53.819,-6.865,-229.969,3
-51.975,-47.347,-163.014,-116.929,-60.636,-60.296,349.77,-75.034,-94.681,-105.747,-60.993,-62.022,-79.759,-120.157,-102.552,-49.946,-79.295,-145.09,-53.032,-59.924,-83.676,-49.698,-33.819,-40.037,-189.745,-74.762,-54.497,-7.662,-231.823,3
-56.534,-55.496,-175.147,-115.787,-69.797,-66.384,382.208,-80.595,-98.172,-116.4,-63.494,-65.546,-86.851,-112.352,-111.671,-50.409,-77.167,-143.408,-56.053,-60.376,-83.08,-51.186,-33.273,-44.095,-174.186,-76.224,-58.541,-5.605,-251.571,3
-62.112,-53.904,-176.508,-109.524,-68.19,-68.879,359.284,-71.805,-94.488,-116.283,-63.43,-64.456,-82.666,-110.19,-105.924,-50.358,-78.626,-146.339,-52.41,-59.803,-85.558,-44.474,-31.702,-45.076,-170.426,-74.098,-55.409,-0.476,-250.808,3
-66.661,-54.875,-176.332,-113.512,-67.61,-69.835,326.649,-65.073,-96.955,-118.216,-70.539,-68.49,-85.145,-115.716,-103.257,-52.357,-82.134,-148.242,-53.383,-64.354,-87.522,-51.09,-33.72,-43.494,-186.137,-76.586,-62.526,-7.648,-250.557,3
-70.181,-60.968,-181.279,-118.522,-75.227,-75.913,295.584,-67.057,-104.542,-128.344,-76.617,-75.081,-94.794,-118.674,-114.424,-57.428,-81.539,-145.532,-59.989,-68.901,-87.947,-58.724,-37.272,-45.499,-176.217,-79.583,-66.562,-8.153,-250.306,3
-66.012,-58.857,-176.487,-113.28,-69.004,-73.787,328.076,-64.941,-98.29,-123.093,-70.905,-69.883,-86.502,-110.871,-113.797,-57.37,-73.773,-143.849,-59.929,-66.783,-86.322,-57.128,-38.772,-51.089,-157.085,-77.967,-59.835,5.688,-247.494,3
-60.311,-61.872,-175.798,-114.704,-63.299,-74.738,360.536,-71.024,-96.143,-118.871,-70.834,-66.227,-81.292,-109.735,-110.097,-54.751,-72.163,-147.804,-59.357,-66.203,-87.773,-59.12,-43.344,-59.235,-160.514,-80.45,-63.874,8.243,-268.764,3
-59.226,-70.52,-182.794,-121.249,-79.63,-85.422,362.225,-85.297,-106.805,-129.511,-78.447,-72.308,-91.457,-119.871,-122.283,-58.283,-80.8,-149.705,-61.859,-71.26,-88.71,-59.573,-43.813,-59.176,-173.674,-83.444,-70.47,1.063,-287.963,3
-57.629,-56.105,-168.267,-107.808,-75.452,-71.504,329.587,-66.769,-92.866,-115.549,-66.074,-65.064,-79.07,-105.919,-117.037,-50.028,-72.01,-135.211,-49.502,-62.992,-77.35,-45.169,-30.962,-41.186,-165.816,-67.991,-58.616,10.796,-254.887,3
-53.473,-31.458,-153.754,-82.085,-42.589,-42.743,314.4,-33.914,-65.621,-85.207,-45.003,-46.043,-54.401,-74.563,-90.793,-31.534,-51.445,-114.071,-34.083,-44.998,-66.514,-34.365,-21.709,-28.849,-141.571,-49.48,-45.238,32.814,-221.844,3
-51.883,-35.525,-169.994,-80.978,-46.645,-48.336,346.874,-41.053,-72.727,-90.245,-49.569,-47.022,-61.006,-76.025,-93.263,-35.601,-54.468,-107.81,-39.172,-47.003,-70.034,-43.04,-29.884,-37.53,-147.578,-56.09,-49.803,42.515,-250.312,3
-50.806,-47.785,-177.509,-98.828,-73.238,-64.169,344.478,-59.967,-86.487,-106.036,-61.302,-56.709,-72.728,-92.343,-108.539,-45.3,-65.172,-112.825,-45.793,-56.177,-72.013,-47.096,-32.416,-38.517,-178.168,-64.231,-54.876,37.35,-278.751,3
-44.096,-34.929,-153.253,-91.045,-57.795,-49.248,311.858,-41.976,-71.031,-89.537,-48.433,-47.431,-57.286,-82.517,-92.549,-30.91,-55.373,-109.126,-31.403,-44.338,-61.183,-30.655,-18.551,-24.134,-165.695,-48.285,-46.112,39.874,-252.857,3
-37.392,-20.55,-143.878,-67.387,-32.122,-35.367,344.334,-27.59,-60.714,-74.59,-35.577,-36.112,-44.421,-67.065,-71.964,-19.096,-47.12,-96.721,-19.588,-33.023,-51.9,-22.427,-11.36,-20.523,-132.741,-36.454,-37.869,58.789,-239.284,3
-37.354,-25.652,-156.542,-68.857,-43.361,-41.991,376.777,-37.296,-68.338,-81.688,-43.738,-40.687,-48.475,-67.51,-78.04,-27.786,-52.709,-93.038,-22.13,-39.65,-53.385,-28.04,-14.423,-24.089,-119.801,-41.028,-40.393,67.952,-254.926,3
-41.415,-33.311,-153.311,-83.133,-63.298,-46.56,344.125,-35.21,-68.27,-84.168,-49.842,-45.257,-52.013,-76.664,-89.745,-31.857,-57.267,-96.532,-23.645,-43.709,-57.43,-25.963,-14.921,-19.454,-144.784,-40.475,-44.451,60.712,-251.597,3
-42.398,-36.864,-145.986,-82.025,-66.82,-49.075,311.505,-32.101,-69.738,-83.571,-47.231,-44.7,-56.572,-87.346,-95.291,-31.825,-60.283,-95.923,-25.158,-43.665,-58.397,-25.937,-16.955,-22.509,-160.521,-40.435,-44.919,61.163,-253.907,3
-36.721,-33.753,-155.061,-69.135,-59.581,-48.001,338.858,-35.655,-72.742,-87.074,-48.721,-46.704,-58.565,-77.012,-94.683,-34.354,-57.149,-88.655,-29.231,-49.769,-56.29,-33.083,-22.061,-30.683,-155.237,-46.542,-45.899,68.274,-271.584,3
-33.098,-26.035,-155.931,-59.845,-48.763,-40.781,327.761,-23.324,-62.936,-82.888,-48.672,-44.096,-51.334,-56.443,-86.392,-28.685,-47.87,-79.857,-27.153,-48.695,-53.159,-32.538,-21.014,-29.115,-147.398,-47.52,-46.365,70.255,-262.603,3
-44.336,-37.792,-158.336,-72.592,-56.399,-53.036,334.093,-31.497,-69.021,-90.49,-53.746,-46.613,-57.942,-69.194,-91.941,-31.218,-56.02,-84.9,-32.249,-49.67,-56.692,-37.628,-26.629,-36.771,-156.472,-54.645,-52.466,61.476,-261.828,3
-59.148,-64.906,-182.257,-98.647,-77.347,-78.086,366.547,-63.741,-93.03,-111.404,-69.574,-58.35,-75.303,-87.056,-111.829,-47.068,-68.259,-98.135,-45.537,-63.965,-66.37,-53.472,-40.434,-54.665,-171.684,-70.984,-67.783,38.361,-292.305,3
-53.454,-58.181,-181.05,-92.401,-69.585,-69.298,343.639,-52.919,-81.154,-101.047,-64.894,-53.681,-63.957,-60.841,-102.495,-41.898,-52.309,-83.692,-33.708,-57.241,-61.692,-44.71,-30.66,-47.95,-160.242,-64.253,-66.691,35.761,-286.89,3
-40.08,-25.336,-148.081,-59.521,-43.388,-36.441,311.02,-20.078,-48.285,-68.158,-38.189,-32.622,-34.179,-34.14,-72.167,-20.851,-30.228,-51.845,-8.571,-30.544,-41.138,-20.074,-6.039,-21.775,-138.053,-37.549,-44.595,68.513,-256.889,3
-43.626,-18.138,-139.224,-48.191,-39.759,-30.77,322.492,-17.497,-51.311,-63.991,-33.54,-31.565,-31.071,-42.815,-71.582,-19.293,-36.345,-52.306,-9.587,-32.563,-35.462,-21.591,-9.107,-14.58,-137.402,-30.339,-39.939,92.01,-272.001,3
-47.681,-32.977,-158.04,-59.413,-47.403,-47.133,304.751,-37.971,-66.116,-79.296,-45.802,-44.853,-45.384,-50.457,-86.368,-28.496,-49.629,-71.209,-23.922,-50.973,-47.209,-36.426,-24.467,-27.886,-136.24,-44.141,-53.732,73.988,-289.66,3
-40.461,-34.993,-152.759,-56.792,-42.233,-46.061,272.171,-21.027,-57.341,-76.656,-45.756,-43.272,-44.827,-49.894,-80.646,-28.467,-47.53,-68.064,-26.46,-47.849,-45.625,-38.439,-21.881,-37.592,-130.981,-49.732,-55.215,69.303,-264.267,3
-45.544,-30.347,-142.872,-51.1,-40.654,-39.867,304.686,-16.396,-52.673,-69.919,-45.198,-42.204,-40.683,-53.943,-78.004,-28.439,-45.945,-63.385,-27.97,-45.239,-38.92,-38.401,-22.371,-33.456,-152.879,-47.121,-52.598,81.017,-252.732,3
-59.33,-34.928,-150.414,-52.586,-50.859,-51.098,337.169,-44.044,-62.866,-77.021,-53.35,-52.408,-47.303,-49.278,-90.733,-34.558,-52.047,-72.543,-29.479,-54.928,-46.053,-43.998,-31.57,-31.373,-173.219,-49.123,-59.206,76.837,-274.509,3
-56.71,-40.016,-151.8,-48.947,-55.419,-59.756,304.557,-49.123,-64.34,-82.067,-57.395,-54.917,-51.354,-42.057,-92.18,-38.11,-53.02,-71.446,-27.401,-54.873,-48.569,-47.54,-33.588,-40.563,-159.213,-53.685,-62.733,73.686,-283.968,3
-52.554,-43.05,-149.599,-52.484,-51.265,-56.623,274.538,-35.241,-59.665,-79.936,-58.874,-49.227,-50.278,-48.675,-83.89,-37.047,-51.43,-64.202,-35.058,-53.281,-41.86,-49.541,-37.653,-45.133,-142.148,-55.68,-63.694,75.15,-274.975,3
-58.65,-43.519,-145.864,-61.654,-45.066,-58.103,307.051,-35.206,-60.118,-78.832,-55.229,-49.69,-49.203,-49.138,-79.708,-32.911,-50.866,-62.089,-33.998,-56.302,-38.232,-46.93,-37.103,-36.379,-131.247,-52.038,-65.168,74.562,-268.04,3
-48.857,-32.205,-134.447,-48.784,-35.287,-48.311,286.252,-25.949,-51.349,-65.945,-41.342,-43.492,-36.346,-30.646,-68.358,-24.169,-40.057,-51.781,-11.423,-42.925,-28.46,-33.051,-17.086,-24.047,-117.796,-37.642,-55.369,89.345,-269.821,3
-33.439,-22.951,-137.899,-27.731,-33.715,-26.233,253.69,-1.333,-36.44,-48.461,-33.616,-33.203,-22.99,-19.345,-61.117,-15.948,-29.258,-41.483,-1.677,-30.587,-16.648,-21.235,-9.896,-17.876,-124.338,-24.796,-46.092,102.063,-278.773,3
-41.602,-29.076,-151.593,-29.752,-47.002,-31.843,286.224,-2.868,-39.99,-55.072,-41.779,-38.293,-31.164,-25.473,-73.351,-17.981,-34.864,-44.515,-13.459,-40.803,-20.73,-28.898,-24.231,-21.444,-140.608,-30.919,-52.706,89.153,-283.105,3
-55.393,-33.145,-141.195,-37.919,-51.053,-50.766,318.726,-24.895,-51.733,-66.288,-47.373,-44.402,-38.817,-24.423,-78.401,-21.55,-38.416,-41.909,-11.396,-44.86,-25.32,-33.993,-21.133,-22.447,-142.004,-37.036,-55.727,91.113,-278.211,3
-48.165,-23.89,-125.173,-28.148,-39.731,-39.445,304.575,-19.747,-45.021,-55.463,-39.128,-34.111,-24.946,-13.128,-62.441,-13.843,-28.131,-28.035,5.522,-32.008,-14.536,-16.028,-1.644,-4.494,-140.837,-22.654,-48.499,113.051,-273.834,3
-38.896,-19.768,-125.56,-15.824,-35.081,-25.573,276.093,2.815,-31.656,-46.186,-31.405,-29.467,-16.212,-12.09,-53.157,-5.633,-22.98,-25.445,9.102,-29.414,-6.837,-6.278,0.407,7.294,-120.716,-13.41,-46.401,109.864,-266.9,3
-44.492,-28.97,-125.946,-22.468,-35.558,-37.843,308.605,-2.311,-34.699,-54.337,-36.496,-36.097,-24.905,-18.738,-58.227,-11.262,-31.666,-35.666,-3.202,-36.557,-11.441,-24.715,-13.938,-11.669,-87.808,-29.278,-50.453,95.41,-267.658,3
-50.595,-34.576,-132.481,-34.741,-35.522,-44.977,298.05,-15.629,-42.348,-58.381,-44.657,-39.647,-28.466,-17.182,-68.415,-18.936,-37.782,-44.852,-11.396,-39.594,-13.479,-38.522,-24.683,-30.613,-102.577,-40.007,-57.575,97.364,-286.858,3
-47.471,-30.443,-146.693,-30.096,-45.221,-35.711,265.477,0.781,-37.695,-51.663,-42.563,-40.12,-23.315,-12.042,-76.543,-17.892,-33.134,-44.295,-5.749,-43.141,-10.904,-31.311,-24.146,-19.824,-134.75,-30.746,-62.128,101.365,-291.694,3
-44.862,-26.826,-143.472,-13.672,-46.2,-31.064,267.773,16.149,-28.436,-47.512,-37.909,-38.543,-20.217,-6.907,-71.344,-15.313,-24.903,-32.467,0.404,-41.561,-9.868,-27.694,-17.462,-6.996,-123.344,-25.08,-54.381,106.387,-275.521,3
-48.403,-28.849,-130.521,-8.535,-34.883,-33.595,300.293,0.764,-27.895,-49.514,-39.921,-33.381,-17.636,0.785,-62.051,-15.297,-19.243,-18.603,-2.67,-34.859,-6.272,-30.228,-14.37,-11.6,-90.433,-28.641,-47.667,112.94,-273.196,3
-46.818,-32.919,-125.78,-14.674,-45.094,-41.758,332.78,-16.143,-38.114,-56.125,-45.004,-37.958,-20.18,-0.241,-70.698,-18.356,-20.761,-17.559,-8.815,-39.947,-5.242,-32.247,-19.991,-17.736,-104.688,-33.223,-52.742,105.143,-281.12,3
-40.623,-38.009,-126.678,-18.246,-67.591,-49.401,300.172,-13.053,-46.272,-62.729,-50.082,-46.117,-29.893,-12.536,-82.923,-24.485,-27.912,-23.689,-11.88,-49.641,-8.823,-38.362,-25.607,-21.817,-136.858,-40.874,-56.276,94.791,-281.351,3
-41.607,-34.385,-129.626,-10.543,-55.228,-41.154,267.596,0.792,-39.054,-57.543,-45.421,-37.874,-26.277,-9.449,-72.081,-22.412,-26.348,-20.08,-5.721,-40.37,-1.129,-32.689,-19.434,-21.283,-123.914,-39.297,-50.584,102.381,-288.755,3
-38.492,-16.932,-122.324,5.862,-22.385,-21.646,296.53,19.234,-20.059,-36.481,-25.396,-23.492,-4.222,13.614,-49.468,-4.458,-8.903,-5.203,14.265,-20.35,17.827,-10.114,-3.02,-3.33,-91.002,-17.74,-39.775,121.234,-293.589,3
-26.158,-14.353,-115.029,5.343,-19.801,-17.525,329.022,21.777,-13.379,-25.173,-17.686,-21.931,5.004,23.334,-43.783,1.694,-2.746,-0.074,21.936,-17.256,19.859,-6.006,0.569,7.944,-82.202,-11.063,-36.149,126.236,-281,3
-31.767,-41.491,-140.017,-23.351,-51.032,-39.537,336.377,-3.348,-30.272,-46.665,-39.697,-35.742,-13.956,11.528,-64.231,-18.8,-21.699,-11.345,2.446,-34.657,4.47,-29.566,-17.875,-16.143,-105.173,-36.667,-51.995,98.445,-278.67,3
-44.031,-53.233,-155.246,-35.111,-64.813,-55.891,315.036,-16.665,-43.05,-60.451,-51.441,-41.854,-24.189,12.028,-77.999,-26.978,-25.263,-11.334,-2.68,-41.794,3.953,-34.659,-21.955,-29.959,-119.413,-47.901,-63.726,79.391,-284.539,3
-27.593,-25.515,-122.303,-5.874,-40.158,-35.343,307.037,5.381,-23.539,-34.775,-27.311,-22.857,-4.184,30.459,-54.355,-5.434,-2.184,11.732,23.451,-19.723,23.929,-10.034,2.657,-0.215,-110.072,-21.213,-43.682,112.1,-274.008,3
-12.709,-11.145,-109.886,8.989,-26.285,-16.353,295.459,19.208,-9.171,-21.932,-14.988,-14.124,6.578,29.404,-35.858,-0.306,-0.133,18.892,26.501,-12.019,31.59,-4.389,4.704,14.13,-118.159,-8.384,-30.831,141.189,-277.832,3
-33.7,-34.7,-142.051,-13.05,-42.653,-37.853,262.888,3.307,-31.191,-48.551,-40.588,-38.189,-14.433,12.469,-57.851,-25.921,-25.748,-5.205,-3.239,-40.696,15.164,-27.95,-24.502,-16.111,-131.873,-33.991,-53.854,117.482,-309.83,3
-51.597,-45.424,-146.008,-17.647,-41.585,-51.648,273.383,-2.844,-39.869,-54.65,-51.819,-45.835,-22.615,18.092,-67.527,-33.58,-27.771,-12.372,-5.798,-48.853,8.489,-36.119,-27.552,-27.365,-98.953,-44.716,-65.583,106.093,-319.254,3
-37.201,-25.91,-113.074,6.449,-25.15,-29.567,305.898,9.454,-14.213,-30.004,-27.688,-22.736,-1.076,37.029,-43.894,-15.615,-7.251,10.182,20.336,-23.188,25.899,-14.566,-2.421,2.888,-66.067,-21.105,-47.074,130.578,-287.172,3
-24.869,-16.151,-116.035,13.102,-31.785,-20.828,328.646,14.056,-8.052,-24.851,-19.464,-19.127,8.147,34.943,-38.214,-9.452,-4.17,16.319,24.926,-17.53,36.632,-3.793,0.655,18.255,-92.128,-8.276,-37.806,135.058,-263.831,3
-35.09,-25.356,-139.485,5.405,-31.241,-32.59,296.042,11.992,-22.9,-35.585,-32.764,-32.428,-5.181,24.662,-46.373,-18.664,-14.412,1.958,12.606,-30.32,29.935,-15.573,-11.641,1.843,-109.455,-17.489,-44.94,122.628,-275.35,3
-38.641,-25.843,-132.173,9.498,-12.254,-29.996,263.983,18.128,-19.291,-31.963,-30.682,-29.834,-4.664,30.272,-39.667,-20.182,-13.373,2.468,13.106,-27.216,30.417,-18.631,-7.531,-5.844,-87.828,-20.546,-47.457,127.628,-294.542,3
-28.869,-17.108,-112.061,12.05,-21.976,-24.331,275.502,23.233,-8.514,-25.783,-22.967,-24.681,5.587,37.414,-41.164,-15.551,-7.212,11.688,18.216,-22.065,38.584,-9.903,-1.888,5.945,-94.4,-15.402,-44.848,137.747,-296.297,3
-29.352,-18.115,-113.486,12.038,-46.032,-27.38,261.394,25.259,-10.042,-28.319,-27.555,-28.754,1.483,31.742,-58.029,-17.585,-8.742,13.213,17.173,-27.166,33.935,-10.918,-6.497,13.111,-115.311,-13.337,-43.266,142.732,-291.902,3
-41.106,-23.733,-127.717,21.247,-40.863,-29.402,287.26,25.234,-14.13,-32.902,-33.675,-32.824,-5.691,26.587,-62.069,-23.203,-12.832,13.712,12.545,-31.75,27.241,-20.128,-9.564,6.951,-105.462,-16.91,-47.321,144.639,-295.196,3
-45.675,-28.32,-125.028,20.714,-32.113,-40.131,319.761,10.352,-21.289,-42.603,-42.863,-40.476,-8.759,29.122,-56.372,-27.278,-15.893,10.624,5.872,-38.891,27.726,-25.231,-11.604,0.796,-94.085,-25.09,-57.008,132.711,-290.29,3
-44.605,-32.902,-109.021,7.885,-39.766,-51.362,306.633,0.095,-26.39,-47.171,-49.48,-42.997,-11.312,31.654,-53.754,-28.788,-15.364,11.126,4.842,-40.901,27.186,-27.255,-13.641,0.795,-88.868,-27.114,-56.951,123.869,-282.828,3
-41.999,-25.697,-106.863,19.66,-38.701,-36.453,274.051,22.637,-12.019,-32.267,-33.549,-30.659,-0.03,37.258,-49.602,-21.587,-4.078,28.533,16.62,-27.54,32.794,-21.08,-4.918,5.405,-75.972,-16.329,-44.598,141.676,-296.89,3
-32.223,-11.327,-108.805,47.818,-24.83,-14.9,279.412,48.229,4.899,-14.816,-17.122,-20.894,16.876,51.565,-40.843,-9.27,7.709,43.874,27.362,-19.316,46.081,-9.276,4.308,12.572,-82.043,-6.579,-38.918,159.465,-299.154,3
-27.068,-14.901,-95.376,47.77,-19.682,-18.471,311.921,35.886,-4.84,-17.875,-24.789,-26.509,11.736,61.248,-35.167,-8.748,4.627,35.633,24.261,-29.03,45.523,-11.828,-0.307,14.096,-88.621,-10.158,-45.539,149.059,-266.067,3
-41.385,-29.744,-93.744,27.23,-33.495,-35.359,332.101,10.747,-20.717,-30.665,-37.06,-38.265,-3.132,51.452,-43.328,-20.523,-7.16,22.79,14.503,-37.71,34.206,-24.112,-7.479,7.422,-75.725,-21.419,-56.765,132.004,-257.604,3
-52.102,-32.788,-112.093,21.055,-46.781,-40.447,340.991,9.199,-16.085,-36.269,-38.559,-42.838,-3.129,40.643,-53.531,-24.088,-8.69,26.353,12.951,-38.185,34.684,-23.063,-5.935,6.39,-83.846,-26.008,-60.294,132.897,-289.622,3
-39.755,-24.046,-109.932,30.768,-38.025,-29.135,309.911,29.682,-5.311,-31.11,-34.422,-36.135,5.071,49.823,-44.256,-15.355,-0.997,37.598,22.16,-31.487,43.871,-12.282,-0.806,15.093,-96.57,-15.224,-49.475,145.059,-296.505,3
-27.42,-13.775,-88.818,44.057,-26.204,-16.811,277.326,47.071,-3.256,-22.37,-26.703,-29.439,8.652,61.044,-32.941,-9.704,3.103,41.659,27.773,-24.795,48.438,-9.708,2.269,19.689,-63.686,-2.913,-39.18,157.722,-263.421,3
-34.565,-11.712,-84.118,52.722,-31.301,-21.405,304.713,43.438,-2.741,-21.323,-25.14,-31.459,6.594,57.909,-40.081,-12.768,-0.999,37.518,22.11,-27.844,49.927,-12.26,1.755,19.669,-35.957,-4.447,-42.214,159.101,-260.083,3
-41.702,-19.898,-95.305,46.522,-35.881,-33.167,337.196,28.025,-5.812,-26.937,-34.336,-33.476,3.001,52.729,-45.676,-14.805,-8.17,32.358,20.551,-33.964,47.828,-13.784,0.728,22.723,-61.025,-9.566,-46.27,148.696,-281.34,3
-36.538,-24.488,-104.431,35.717,-35.332,-33.646,334.297,24.923,-14.003,-29.984,-35.326,-32.418,4.023,49.09,-43.069,-12.741,-10.211,31.813,27.19,-32.393,46.755,-12.746,3.289,25.262,-86.579,-6.482,-45.712,149.059,-282.084,3
-33.427,-15.242,-102.789,44.39,-37.859,-25.927,311.934,33.608,-12.452,-22.781,-27.607,-32.386,9.654,44.43,-42.001,-9.654,-1.492,38.441,31.774,-28.262,53.881,-7.61,10.97,28.311,-74.197,0.697,-41.568,164.28,-274.117,3
-34.931,-5.493,-83.219,61.764,-31.161,-17.705,298.302,46.382,-1.681,-9.951,-21.944,-27.743,16.817,55.656,-34.274,-6.058,7.731,47.624,34.816,-23.623,59.462,-2.479,14.545,32.381,-56.704,5.819,-35.891,167.189,-265.646,3
-33.359,-5.488,-70.328,59.653,-23.957,-10.515,265.728,61.192,3.444,-6.355,-19.36,-24.129,18.849,69.433,-28.092,-5.028,6.187,46.04,33.757,-21.038,58.378,-6.063,7.359,26.713,-66.894,1.715,-37.904,161.387,-255.646,3
-28.715,-8.044,-81.529,44.224,-32.13,-9.992,233.187,65.742,2.416,-8.91,-19.853,-25.642,15.244,59.629,-33.7,-7.072,0.033,37.285,27.575,-24.091,61.394,-12.717,-2.383,16.44,-81.684,-6.484,-42.989,164.299,-263.588,3
-27.149,-8.548,-84.521,43.668,-34.147,-14.593,265.742,50.307,4.463,-5.827,-18.809,-24.079,18.303,58.545,-30.592,-1.429,2.082,43.907,31.134,-24.067,67.992,-10.143,1.718,21.034,-65.208,-0.33,-35.774,168.233,-276.644,3
-27.122,-11.101,-74.702,54.895,-30.015,-20.213,298.264,29.764,1.384,-5.821,-18.277,-19.956,23.92,77.954,-25.951,6.769,8.74,57.696,37.763,-19.432,67.924,-6.547,8.377,25.624,-47.725,10.429,-31.64,167.04,-277.392,3
-26.583,-18.262,-87.948,51.254,-39.206,-27.365,265.69,28.198,-9.376,-12.988,-24.919,-21.986,19.285,75.315,-34.634,3.176,10.78,57.126,33.626,-19.925,64.782,-10.126,2.733,16.377,-64.583,2.222,-40.83,160.213,-279.164,3
-20.408,-19.269,-103.229,44.543,-39.167,-19.141,233.149,48.662,-6.292,-3.241,-21.308,-19.402,23.365,68.58,-28.452,5.734,15.38,59.118,40.253,-16.319,71.378,-4.481,3.755,18.41,-77.838,-1.367,-39.252,154.418,-269.151,3
-12.191,-5.417,-88.269,62.429,-18.123,3.42,265.703,68.081,17.28,18.791,-0.282,-7.087,44.346,89.003,-7.931,24.684,26.123,72.379,59.68,-1.446,84.626,12.43,20.657,38.884,-75.199,17.59,-24.356,166.559,-251.976,3
-9.617,6.371,-76.91,82.346,-9.396,11.101,298.225,77.234,29.558,25.433,6.89,-1.445,53.523,94.55,-5.361,30.807,27.634,73.843,60.133,4.191,88.64,15.491,25.759,42.943,-66.927,27.819,-20.745,189.446,-261.97,3
-9.608,4.316,-85.03,69.969,-16.047,3.405,265.652,82.28,24.406,20.796,-1.826,-8.103,46.81,81.135,-12.016,20.53,20.434,67.109,49.314,-2.985,83.941,6.767,16.512,27.019,-34.072,19.081,-27.384,190.281,-278.614,3
-11.135,-2.349,-83.408,51.456,-19.104,-2.234,279.731,73.488,23.357,21.288,-3.361,-13.218,44.713,87.202,-16.103,18.46,18.364,68.067,48.24,-7.593,83.344,3.686,12.909,22.893,-21.231,17.013,-30.943,176.259,-276.798,3
-22.907,-7.469,-86.398,53.453,-22.671,-7.355,312.239,55.996,21.284,16.144,-7.968,-15.254,41.083,86.09,-24.796,16.905,13.735,62.363,42.557,-11.684,82.236,0.609,10.335,30.043,-53.485,16.996,-32.449,174.033,-280.108,3
-26.982,-5.413,-100.144,62.621,-23.161,-4.786,279.651,61.064,15.115,9.98,-14.62,-16.776,34.382,70.635,-22.722,11.765,7.574,54.617,37.391,-13.722,79.08,1.12,10.325,34.624,-67.264,14.418,-30.368,181.544,-274.192,3
-13.635,3.302,-88.773,70.243,-14.941,6.49,250.17,78.933,20.223,15.093,-7.946,-12.661,38.958,83.372,-8.354,17.389,16.276,67.882,48.624,-4.999,86.686,10.341,21.585,40.737,-34.409,21.576,-23.677,188.022,-253.426,3
-9.011,6.373,-74.852,75.809,-12.877,3.922,282.707,75.268,24.814,18.664,-2.815,-6.501,44.042,101.219,-7.834,23.519,28.042,84.208,53.187,-0.895,92.235,9.818,22.588,42.233,-57.428,25.14,-23.653,192.957,-265.468,3
-18.736,-0.294,-94.245,65.487,-13.376,-7.353,282.425,65.971,17.104,14.547,-8.447,-10.08,40.412,88.822,-13.461,18.372,19.817,76.951,40.326,-10.628,84.97,-1.463,8.733,30.407,-89.646,15.381,-30.802,193.277,-291.33,3
-20.254,-3.88,-101.835,51.076,-11.826,-6.833,263.187,67.442,14.013,11.971,-9.463,-16.218,35.761,76.951,-10.886,17.842,10.064,66.116,36.699,-15.228,80.274,-4.023,8.212,19.619,-56.769,11.78,-33.333,188.985,-285.915,3
-21.771,-2.851,-77.143,55.636,-17.962,-7.339,295.711,64.301,13.487,8.885,-9.966,-15.689,33.676,81.997,-12.925,21.922,16.201,71.173,45.372,-10.602,82.756,1.617,15.889,20.111,-23.924,16.379,-31.25,185.722,-275.896,3
-29.946,-2.336,-70.406,69.925,-18.456,-14.504,328.203,60.138,11.424,9.901,-11.493,-14.649,34.667,90.112,-17.01,20.363,21.308,80.323,46.351,-8.542,82.161,4.689,15.36,25.214,-56.176,18.924,-30.707,186.049,-270.497,3
-26.33,-0.284,-81.606,74.466,-6.142,-7.317,306.87,72.886,22.683,20.137,-6.871,-12.073,43.341,96.681,-10.845,22.905,18.213,78.706,42.718,-6.997,83.615,7.758,16.37,31.849,-78.661,25.052,-29.139,193.547,-258.443,3
-20.668,4.327,-82.549,69.781,-1.525,6.01,274.288,89.207,31.882,26.264,-2.766,-10.011,47.396,92.999,-4.175,28.517,17.17,72.992,45.237,-2.379,88.655,7.238,18.403,35.916,-85.242,28.614,-24.499,204.624,-268.943,3
-26.283,6.372,-82.467,66.637,-5.11,1.906,253.009,87.068,19.043,21.115,-5.837,-12.051,42.226,85.221,-3.658,26.439,18.178,77.017,47.754,-2.377,90.103,6.206,15.823,33.318,-86.694,24.999,-24.987,205.444,-285.068,3
-25.744,1.754,-82.384,64.521,-3.568,-7.83,285.544,67.001,9.29,18.02,-7.88,-12.551,41.159,88.722,-1.605,25.388,17.647,84.625,48.73,-2.374,90.525,10.299,17.344,29.186,-53.82,27.023,-28.548,197.042,-271.975,3
-19.571,-2.346,-75.642,60.358,-6.638,-8.334,318.046,58.225,16.453,19.027,-6.335,-9.465,45.216,94.781,1.983,30.486,19.679,84.54,52.268,1.214,89.41,12.85,20.913,29.157,-31.224,31.094,-25.958,195.308,-264.531,3
-23.137,1.755,-76.078,64.396,-8.169,-5.252,285.453,75.585,23.096,23.106,-4.28,-6.381,47.22,97.248,5.054,33.529,22.733,85.993,53.753,2.238,89.321,10.788,20.379,35.788,-61.932,32.088,-20.297,202.285,-271.951,3
-27.213,8.926,-82.662,81.75,1.061,1.926,252.892,98.564,30.758,32.817,1.872,-2.276,51.784,102.273,10.172,35.545,27.833,99.227,55.236,1.723,94.354,13.851,23.945,42.412,-71.603,35.642,-18.227,210.28,-263.482,3
-18.989,13.015,-82.067,85.767,2.597,10.633,285.427,99.49,36.875,38.932,7.506,2.337,58.904,103.708,12.724,39.096,33.953,105.275,59.279,6.332,96.822,15.886,28.532,41.345,-55.138,37.143,-16.16,219.803,-260.657,3
-11.797,10.441,-76.862,71.849,-6.627,1.913,317.929,76.849,29.153,29.671,1.863,0.285,55.772,105.654,9.125,37.52,34.944,97.998,59.732,7.35,90.577,11.259,24.405,34.132,-56.107,33.52,-16.656,218.046,-269.106,3
-16.909,2.233,-72.687,65.117,-7.645,-14.995,350.399,60.378,20.415,17.858,-6.848,-8.424,43.933,112.208,0.919,29.797,30.81,99.437,53.525,-1.366,83.314,7.15,21.307,30.511,-63.224,31.95,-24.324,198.873,-265.251,3
-27.138,-4.429,-72.102,66.077,-6.613,-12.931,317.773,73.638,20.907,18.353,-9.915,-14.051,40.815,109.022,-5.23,24.645,29.243,102.923,48.348,-8.025,79.132,4.581,20.261,30.993,-66.747,28.332,-29.423,192.526,-262.936,3
-30.697,-4.425,-78.177,64.474,-16.852,-7.795,285.18,83.81,19.861,18.847,-13.491,-15.062,41.286,99.691,-6.761,22.571,28.189,94.111,44.713,-8.017,76.492,-1.059,15.117,27.376,-64.118,21.131,-30.418,205.142,-268.309,3
-29.129,-5.957,-78.099,69.532,-24.52,-17.521,317.682,69.382,14.206,11.143,-19.113,-19.145,32.536,100.616,-7.267,16.913,23.038,87.869,39.546,-11.083,74.366,-6.181,9.467,19.152,-52.783,17.524,-36.023,198.789,-265.479,3
-31.149,-8.513,-71.873,77.147,-17.323,-20.065,285.089,73.411,14.704,11.132,-18.582,-22.712,30.454,107.688,-9.821,13.822,23.015,94.954,35.92,-13.121,73.267,-6.175,7.408,16.571,-62.464,15.969,-35.474,184.245,-265.725,3
-25.995,-2.357,-72.314,75.021,-10.134,-8.774,252.529,95.366,22.886,23.417,-10.366,-16.03,44.768,112.191,-6.738,19.444,31.701,105.105,41.519,-5.935,77.805,-1.046,8.425,19.628,-83.407,20.564,-25.705,198.918,-269.558,3
-14.698,-0.305,-74.803,70.335,-16.271,-9.79,285.064,87.587,26.45,22.881,-5.745,-9.866,51.896,109.517,-1.608,24.547,32.694,105.512,47.626,-0.806,84.387,1.005,12.003,17.047,-67.954,25.666,-23.118,214.088,-271.85,3
-19.807,-10.038,-71.654,67.703,-27.013,-22.588,317.567,65.47,18.226,11.587,-12.399,-17.028,40.573,103.772,-6.729,19.4,23.952,98.747,41.943,-6.953,77.642,-6.169,10.454,11.395,-50.468,19.493,-30.779,197.48,-281.312,3
-27.984,-11.053,-69.534,64.05,-26.474,-23.078,284.974,66.941,13.085,13.112,-15.973,-21.11,36.947,110.841,-11.846,15.282,27.002,99.673,37.29,-10.02,69.368,-7.187,9.419,16.506,-72.959,15.375,-31.261,192.672,-281.543,3
-13.099,3.303,-64.853,72.182,-18.251,-8.71,252.413,82.243,23.83,28.469,-3.662,-8.281,52.279,123.026,-0.051,24.488,38.758,112.381,49.548,0.748,78.52,6.653,19.656,32.884,-75.96,31.241,-20.984,216.046,-262.819,3
1.771,13.033,-63.252,92.09,-12.085,6.668,238.841,100.604,36.614,42.785,10.686,3.51,62.985,121.878,14.806,33.685,41.281,119.44,63.331,12.531,90.737,17.917,32.956,45.146,-43.096,46.579,-9.692,224.539,-250.26,3
-1.817,11.483,-72.922,100.195,-7.974,9.223,228.356,109.725,34.528,46.328,9.651,0.433,59.336,121.244,16.328,32.627,40.727,119.833,61.73,13.03,89.621,15.849,30.874,43.052,-38.442,45.508,-6.096,214.068,-248.473,3
-5.401,5.836,-76.435,88.824,-8.991,-4.106,260.915,90.66,22.711,33.474,0.42,-8.789,50.567,123.684,8.115,24.397,36.075,117.152,49.373,1.747,82.36,7.124,17.011,28.152,-66.58,35.216,-13.262,208.731,-256.934,3
-5.908,-1.342,-70.211,73.878,-20.253,-16.398,293.442,68.54,13.979,18.071,-7.777,-14.416,42.32,112.802,0.423,16.688,23.744,105.764,39.078,-9.526,76.13,-4.154,9.309,15.316,-73.174,23.91,-21.958,205.448,-277.682,3
-12.562,-2.365,-69.116,76.366,-21.769,-10.233,281.878,76.669,19.6,25.738,-7.77,-13.377,43.814,108.591,0.422,15.647,23.72,103.097,39.039,-6.955,75.541,-5.686,11.861,16.838,-73.101,22.862,-20.399,209.341,-277.916,3
-13.062,9.933,-63.924,96.27,-2.792,9.244,249.32,102.72,38.024,49.278,6.583,-3.629,59.652,122.827,12.205,26.39,38.553,120.412,49.758,5.347,84.687,5.078,16.46,26.555,-83.274,35.647,-10.645,221.428,-257.146,3
-6.389,18.632,-55.151,104.37,7.457,17.944,229.603,114.4,47.207,58.451,16.822,4.059,69.839,129.364,21.414,33.536,41.076,123.878,54.831,12.002,90.238,8.147,17.469,28.065,-70.895,39.197,-7.048,216.595,-254.327,3
-5.87,8.879,-57.145,89.921,-2.797,8.193,234.497,105.064,35.889,46.609,8.609,-2.093,62.596,122.062,17.807,25.817,32.326,107.872,50.678,6.867,84.512,1.478,14.89,17.278,-48.283,28.4,-14.726,196.399,-261.758,3
-7.401,-0.863,-59.65,84.196,-6.38,-1.037,232.213,98.811,27.656,35.292,0.915,-7.214,54.337,117.842,13.69,20.156,30.245,106.74,51.14,2.249,82.891,3.526,17.436,13.675,-46.185,28.371,-18.297,200.813,-262.008,3
-7.394,5.798,-57.028,93.846,1.823,2.038,228.395,103.836,31.215,37.818,6.55,-2.084,54.795,119.261,15.726,24.235,34.825,120.466,57.236,8.395,89.468,14.281,27.665,30.055,-47.164,43.712,-10.082,225.203,-265.332,3
-11.997,11.427,-59.533,95.801,-1.253,1.011,260.954,96.047,27.085,37.268,5.006,-2.594,52.179,122.215,13.149,21.136,35.303,125.468,56.667,8.899,85.792,15.292,32.248,42.321,-44.555,51.865,-4.949,226.515,-259.944,3
-18.645,3.219,-61.523,86.996,-8.936,-10.773,293.481,78.533,17.837,26.472,-5.245,-12.325,43.929,117.482,6.988,10.869,29.632,119.707,48.926,-2.893,74.436,5.03,24.019,32.544,-52.195,44.641,-15.19,205.284,-247.901,3
-20.676,-0.883,-65.047,84.347,-4.828,-11.787,260.912,87.676,24.479,27.983,-3.703,-11.8,45.935,108.143,8.518,9.321,27.041,115.489,47.852,-3.403,76.923,2.464,19.896,22.778,-55.217,39.473,-22.347,199.955,-261.998,3
-17.581,4.753,-75.228,88.874,1.324,0.52,228.376,106.543,35.725,43.324,6.547,-2.567,57.16,109.06,18.755,13.411,34.186,121.009,54.976,8.896,84.53,10.146,23.463,24.292,-56.186,43.02,-16.689,213.075,-281.203,3
-11.928,4.749,-68.493,92.883,2.86,4.106,260.935,101.314,35.689,47.379,8.59,-0.003,60.689,118.685,26.421,15.959,40.299,126.523,59.532,10.424,82.397,12.185,23.439,23.243,-66.888,42.977,-12.574,213.375,-267.602,3
-11.404,5.256,-48.957,97.401,7.468,0.003,293.462,92.503,32.58,42.721,8.069,-0.003,60.116,125.738,25.37,16.455,41.284,125.372,60.497,8.365,85.388,8.586,22.903,20.146,-58.112,38.836,-13.586,207.014,-245.305,3
-16.003,11.399,-49.42,101.915,8.997,-2.558,274.725,96.509,32.547,40.629,9.086,0.509,62.617,134.322,22.783,14.902,42.779,124.735,60.949,10.918,90.938,11.139,23.905,21.663,-34.488,40.334,-12.548,213.979,-244.035,3
-15.987,10.363,-55.006,97.202,3.353,-5.117,242.175,98.974,30.465,39.051,5.49,-3.077,59.993,136.237,25.834,11.301,44.274,127.684,60.376,7.833,86.236,15.739,25.418,24.715,-39.576,45.416,-11.511,221.962,-252.501,3
-10.848,10.352,-47.267,94.031,4.374,-0.501,209.658,113.22,37.095,45.672,9.071,-1.025,62.494,128.416,30.931,11.802,45.766,138.314,65.439,11.411,88.199,18.285,32.053,28.276,-46.197,49.982,-7.913,223.277,-250.711,3
-10.837,16.49,-49.269,104.183,9.493,7.184,242.236,120.279,42.693,51.262,15.21,5.636,70.629,128.8,31.925,14.351,47.77,147.91,66.91,20.109,96.308,19.291,32.021,27.224,-28.732,52.493,-2.782,227.664,-246.362,3
-15.95,9.301,-61.515,103.567,4.36,-7.168,274.781,87.883,26.257,38.403,3.924,-0.517,59.287,128.671,24.721,6.14,39.525,133.93,54.548,7.794,87.503,10.05,20.206,17.975,-29.728,44.244,-8.927,218.727,-254.313,3
-12.348,1.607,-58.379,91.68,-0.255,-17.407,244.792,80.111,18.034,31.705,-4.79,-8.714,46.933,119.321,19.573,-4.625,32.313,119.451,50.907,-3.997,78.706,4.917,20.185,15.908,-49.166,37.027,-16.091,204.164,-262.767,3
-3.626,10.827,-52.686,101.834,4.356,2.591,212.272,112.818,35.946,44.481,4.949,-4.094,55.083,121.25,24.164,-2.571,39.453,132.139,63.152,6.765,87.336,13.621,29.899,24.601,-56.802,46.724,-9.414,217.792,-258.919,3
-14.893,3.644,-73.637,100.708,-4.358,-5.609,244.848,93.75,24.127,32.141,-3.765,-10.75,47.855,124.715,18.505,-8.204,36.852,131.495,55.916,1.635,80.589,7.972,20.135,17.404,-68.016,45.141,-15.04,221.673,-265.32,3
-32.809,-20.951,-96.105,68.332,-25.358,-37.879,277.391,61.381,-8.172,2.395,-28.352,-28.158,26.291,114.345,1.068,-25.614,24.008,117.531,36.392,-17.322,60.528,-12.016,5.258,-4.643,-65.898,23.578,-32.956,189.176,-275.3,3
-19.968,-15.807,-78.591,68.776,-19.697,-27.595,244.838,90.521,10.279,18.274,-15.004,-16.347,42.146,121.915,10.801,-16.879,41.402,138.931,49.676,-2.447,72.763,-2.27,18.061,-0.027,-41.754,28.166,-24.726,184.376,-262.217,3
-0.993,6.238,-53.921,101.495,3.889,5.221,212.318,123.218,43.056,51.043,15.237,8.261,71.305,145.871,34.868,8.753,66.464,165.944,72.168,21.633,95.232,19.762,34.436,24.564,-44.786,52.216,-4.209,214.93,-255.295,3
-8.677,1.109,-61.552,99.856,0.811,-6.055,244.893,94.406,30.718,45.869,9.074,5.178,66.623,143.676,27.661,4.134,55.639,155.532,63.387,14.952,86.428,13.082,24.156,21.465,-54.987,47.553,-7.279,212.153,-269.897,3
-14.303,-9.651,-69.687,78.752,-12.51,-22.443,243.623,72.794,19.417,33.528,-4.767,-4.561,56.31,135.336,12.776,-11.24,44.312,145.643,54.614,5.715,77.12,5.384,17.984,7.099,-31.879,35.21,-15.469,197.084,-263.479,3
-3.018,-4.518,-60.909,86.87,-9.424,-1.416,211.104,105.509,40.402,45.277,4.459,-0.97,64.963,144.934,19.424,-8.154,51.44,147.546,60.195,8.784,83.703,12.551,28.724,12.727,-25.187,43.884,-11.867,209.695,-244.26,3
-6.089,-8.612,-60.848,90.882,-11.976,-3.464,243.681,104.379,35.238,44.72,3.43,-4.043,61.825,137.617,15.306,-10.708,44.217,135.615,51.938,3.139,78.496,5.879,24.597,12.202,-42.068,43.328,-16.978,206.924,-250.676,3
-14.28,-18.849,-66.422,86.18,-20.673,-20.879,276.225,75.586,19.321,31.355,-6.819,-11.211,49.467,118.524,3.507,-21.456,33.926,129.844,43.689,-1.987,70.22,0.238,15.863,1.944,-45.099,32.526,-21.572,190.835,-262.721,3
-2.483,-11.146,-67.38,95.828,-12.968,-10.1,243.673,90.879,30.573,35.935,1.385,-6.077,56.59,126.09,13.75,-15.286,41.065,139.961,54.403,5.7,79.372,11.508,24.045,9.114,-59.911,39.666,-12.841,200.378,-263.995,3
4.692,-5.499,-76.022,94.707,-7.319,-10.09,271.094,98.473,29.005,41.022,4.969,-2.997,61.144,137.235,20.396,-11.173,44.61,140.333,56.911,9.28,82.366,8.935,25.045,10.13,-71.122,43.725,-13.853,203.252,-264.243,3
-8.633,-18.814,-79.02,81.805,-16.021,-25.449,303.611,72.247,13.607,28.173,-8.868,-11.703,45.714,125.827,7.568,-22.945,36.881,134.045,46.608,1.074,69.988,-5.931,13.237,-10.885,-48.509,28.824,-25.11,184.605,-257.831,3
-14.259,-19.82,-68.183,87.358,-16.517,-17.226,271.032,78.322,21.791,24.559,-9.884,-15.277,44.131,117.504,6.024,-26.508,32.233,132.374,45.024,-2.513,66.332,-3.876,12.711,-13.948,-45.387,24.697,-23.548,188.007,-253.987,3
-5.024,-1.357,-62.991,102.64,-8.304,-3.889,238.486,107.958,33.552,37.854,1.909,-9.115,58.432,124.046,15.752,-19.309,33.738,135.316,50.102,2.612,73.951,4.837,20.383,3.997,-60.199,37.48,-15.327,207.799,-258.857,3
-5.531,3.255,-58.318,107.661,-5.222,-4.397,271.035,105.288,30.957,44.989,6.518,-5.007,59.398,130.07,17.273,-17.753,39.339,144.402,54.663,7.22,75.413,6.882,21.9,5.53,-48.355,42.053,-11.726,206.567,-249.888,3
-12.698,-3.92,-50.575,103.455,-4.704,-4.905,303.551,89.302,32.975,40.845,4.462,-6.539,54.216,129.94,15.719,-20.297,41.349,146.307,55.633,5.164,69.703,4.826,21.878,-0.111,-48.819,36.888,-11.714,196.114,-238.88,3
-6.025,-1.867,-56.159,99.765,-4.7,-5.925,298.125,89.725,34.991,39.267,1.896,-6.532,57.747,127.249,17.24,-21.301,37.722,135.914,48.405,1.573,67.584,1.235,21.344,2.963,-60.554,35.826,-16.313,200.016,-244.277,3
1.666,-0.84,-64.3,103.251,-4.695,-6.431,265.551,94.758,27.784,41.277,1.894,-4.989,55.64,127.121,17.223,-21.28,38.196,134.754,43.233,1.571,67.516,-0.303,18.249,-2.675,-42.05,35.791,-19.883,206.476,-248.131,3
-9.607,-10.061,-61.674,101.611,-2.641,-8.474,233.01,93.638,23.145,39.699,2.917,-8.57,50.462,128.531,11.058,-21.771,38.67,137.693,46.776,1.57,63.35,0.209,17.206,-10.357,-45.082,31.656,-18.838,198.073,-250.956,3
-17.794,-9.539,-59.051,94.337,-4.688,-14.101,265.565,93.033,24.659,37.61,-0.16,-10.098,55.022,128.403,6.436,-21.237,37.607,137.043,50.828,2.593,58.676,1.746,20.775,-2.662,-71.164,32.649,-20.357,190.19,-253.267,3
-7.018,2.254,-55.406,101.928,0.44,-4.866,298.087,100.624,34.368,47.306,5.476,-2.916,62.652,135.959,18.212,-14.555,47.303,147.152,59.999,10.275,63.228,10.453,28.439,8.099,-45.478,44.912,-17.262,204.344,-238.669,3
-2.4,7.887,-48.691,119.244,16.321,11.021,265.514,108.208,41.506,56.993,18.278,2.21,66.687,146.069,32.539,-5.319,54.428,156.739,67.623,20.511,69.825,19.152,34.045,8.603,-12.645,51.527,-8.024,218.997,-232.795,3
-9.058,4.293,-54.277,120.149,18.866,2.301,267.81,105.538,35.829,51.301,14.161,-1.891,67.133,136.189,29.945,-5.826,48.738,152.483,59.871,17.928,63.607,15.035,30.425,5.008,-34.661,45.84,-6.991,205.458,-247.932,3
-8.536,0.702,-66.006,112.857,10.138,-6.923,251.148,104.408,33.232,45.614,6.463,-5.987,60.918,121.196,26.329,-9.919,44.591,148.745,55.2,8.689,55.347,6.823,25.784,2.442,-57.68,43.233,-12.107,188.859,-245.634,3
-4.429,1.214,-61.329,115.306,13.714,5.379,218.621,113.013,42.42,51.204,13.628,-6.494,58.808,126.198,30.913,-6.323,43.01,148.596,59.756,8.68,55.804,6.816,27.808,6.538,-54.549,44.726,-9.533,195.33,-228.483,3
-5.449,7.873,-39.751,121.338,20.361,10.497,251.191,115.974,44.939,55.251,17.713,-1.876,66.946,139.392,33.956,-2.73,44.504,147.423,61.233,16.869,58.31,15.518,33.415,19.851,-49.371,47.756,-6.45,204.356,-222.106,3
-4.932,12.476,-30.49,122.241,16.242,2.802,283.727,102.538,38.747,53.659,15.134,5.298,69.953,140.789,36.996,-2.215,52.144,153.423,65.27,17.876,55.69,22.675,36.456,23.417,-38.051,52.319,-5.419,200.053,-223.421,3
-3.902,3.754,-51.976,116.996,9.053,-2.324,253.217,86.554,34.097,47.457,12.557,1.706,61.174,133.988,36.447,-2.213,46.969,148.659,65.717,11.711,48.974,15.48,32.833,9.049,-32.378,47.143,-7.463,195.242,-240.104,3
-7.484,-3.422,-73.441,113.293,8.02,-5.396,220.689,86.467,34.063,40.238,7.934,-4.955,58.039,126.17,30.775,-6.822,34.114,134.678,55.405,7.088,41.24,6.243,25.628,1.868,-37.981,37.875,-13.091,195.56,-252.159,3
-5.428,7.34,-64.146,118.303,12.622,-0.78,188.192,105.336,40.177,48.394,12.025,0.685,65.665,128.093,33.306,-5.278,41.764,143.252,55.35,12.717,40.175,13.409,29.188,13.137,-34.357,46.546,-10.004,195.876,-223.73,3
3.799,19.628,-42.565,124.332,18.245,11.517,158.803,118.551,46.284,62.178,23.796,7.344,71.748,136.674,39.932,4.461,51.969,156.429,65.029,20.388,43.721,23.642,37.868,20.808,-42.007,58.282,0.765,198.242,-197.379,3
7.894,20.121,-34.838,129.331,16.69,15.604,191.432,115.358,47.775,60.579,24.796,5.8,71.163,134.488,40.917,5.481,42.183,148.076,61.89,17.807,41.115,24.643,36.806,23.861,-55.285,57.712,3.838,206.753,-206.403,3
4.812,21.125,-35.828,138.935,10.013,13.026,224.028,109.095,49.264,57.957,21.186,7.331,70.068,128.718,40.876,1.89,41.116,143.829,58.242,17.276,34.414,25.643,37.281,35.108,-37.811,60.216,4.346,213.206,-214.393,3
0.197,20.592,-40.915,137.772,4.88,6.866,194.09,100.277,42.555,56.874,20.652,5.787,69.485,135.249,37.761,4.449,51.834,152.907,61.77,20.845,28.744,23.568,38.781,35.586,-34.699,59.643,5.879,207.358,-217.253,3
-0.316,11.35,-47.022,122.265,5.9,-0.314,161.621,90.955,30.217,45.547,14.484,-0.366,63.78,141.262,33.113,3.933,49.22,152.242,57.609,15.189,23.08,14.835,27.471,18.644,-60.28,49.337,-2.324,195.367,-224.208,3
5.32,9.289,-52.098,115.995,13.066,2.761,177.34,91.889,33.773,44.989,14.981,3.732,62.692,137.534,39.74,3.929,45.072,151.577,58.064,12.1,21.52,15.845,23.858,11.453,-36.141,45.19,-4.883,191.073,-211.176,3
7.364,15.427,-60.755,124.588,16.639,7.881,209.951,93.334,43.985,58.264,26.237,9.876,70.314,138.934,44.823,12.122,53.224,158.598,69.277,22.334,24.573,26.075,36.642,18.614,-3.317,48.731,5.88,193.956,-199.694,3
7.356,21.56,-54.546,138.808,11.5,8.385,185.662,98.876,45.478,60.255,28.26,8.33,76.391,145.967,40.167,15.696,57.782,161.513,72.281,26.41,25.06,33.734,41.728,30.89,-35.59,57.903,10.485,205.545,-213.327,3
16.571,30.247,-21.704,150.965,11.488,20.672,153.201,126.954,55.167,64.805,28.744,10.37,78.876,146.334,44.738,16.192,56.699,163.401,74.258,26.384,24.011,38.823,44.76,51.352,-67.829,72.702,12.012,224.295,-206.966,3
21.165,33.291,-7.338,150.301,17.624,33.459,148.95,145.27,68.431,76.524,36.4,12.922,81.871,141.576,49.304,18.225,60.229,163.238,79.819,33.53,22.45,40.833,53.425,58.985,-34.974,73.142,17.635,226.632,-186.266,3
11.922,24.036,-32.946,140.93,16.582,24.204,181.588,121.046,58.117,67.226,32.265,7.786,77.179,137.336,40.033,13.596,58.119,156.414,72.567,31.959,17.817,33.62,46.711,42.532,-16.496,57.7,13.007,210.012,-195.814,3
14.472,22.475,-45.721,138.739,12.979,12.909,214.195,94.285,42.177,52.301,23.524,7.265,71.466,136.174,39.481,11.534,51.401,154.209,64.298,23.73,14.213,27.439,38.468,33.268,-47.218,56.617,7.358,203.142,-206.377,3
