Cz,Fz,Fp1,F3,C1,C3,T7,C5,CP5,CP3,CP1,P1,P3,O1,CPz,Pz,Oz,O2,P4,P2,CP2,CP4,CP6,C6,T8,C4,C2,F4,Fp2,Label
-17.948,-51.895,-343.667,-467.481,-25.639,-32.949,66.27,-60.947,-27.127,-29.435,-32.194,-25.337,-36.381,-11.317,-32.454,-20.445,33.697,43.615,8.781,-18.938,-6.231,-36.019,-35.142,-28.09,-119.926,-60.33,-26.659,-80.031,-200.612,2
-14.343,-58.503,-338.713,-474.698,-30.736,-43.162,51.347,-70.108,-39.396,-37.602,-35.748,-28.386,-41.468,-14.38,-43.18,-26.572,28.54,34.35,8.773,-21.992,-7.25,-33.934,-33.57,-22.427,-122.88,-55.659,-26.632,-77.389,-192.214,2
-15.866,-53.321,-336.837,-467.051,-23.533,-42.094,75.374,-70.55,-36.795,-38.077,-33.663,-26.308,-34.254,-10.779,-39.55,-22.447,32.61,37.902,10.301,-19.409,-1.607,-27.752,-29.438,-17.793,-115.585,-48.944,-24.044,-72.189,-184.85,2
-22.51,-59.416,-349.82,-474.269,-24.534,-45.638,58.904,-77.651,-38.295,-42.138,-42.339,-31.405,-41.904,-21.527,-33.875,-26.523,25.918,34.278,5.68,-22.463,-2.118,-36.434,-36.069,-29.559,-122.641,-62.215,-30.68,-81.338,-198.497,2
-13.266,-68.065,-354.594,-475.844,-30.657,-44.056,26.57,-71.426,-39.281,-40.559,-39.223,-31.886,-47.498,-24.579,-37.428,-29.571,23.843,34.756,8.748,-20.392,-3.14,-37.422,-38.082,-27.992,-136.351,-64.202,-30.137,-87.917,-205.471,2
-8.13,-65.436,-350.141,-470.245,-31.651,-36.84,59.331,-65.719,-36.168,-35.907,-31.499,-25.194,-40.278,-10.722,-40.464,-25.443,35.602,44.455,12.325,-14.736,2.498,-28.675,-31.384,-15.669,-134.678,-54.404,-22.422,-83.73,-194.507,2
-19.392,-61.784,-353.377,-473.873,-27.521,-38.852,92.06,-76.924,-34.083,-34.847,-34.541,-24.657,-38.701,-4.052,-37.35,-23.88,38.128,45.435,10.264,-17.795,4.033,-29.671,-30.328,-21.801,-126.346,-57.935,-25.986,-81.085,-194.825,2
-22.447,-62.235,-354.048,-477.497,-26.469,-44.961,85.82,-80.946,-37.122,-37.373,-40.142,-30.267,-47.371,-17.368,-39.874,-32.566,21.183,30.533,3.081,-26.486,-3.144,-39.376,-40.031,-32.025,-131.343,-64.537,-35.182,-83.566,-210.512,2
-16.277,-56.025,-339.349,-471.385,-27.467,-37.231,53.459,-64.983,-35.548,-33.75,-36.516,-27.676,-47.836,-32.207,-42.396,-38.168,15.527,22.817,1.541,-23.898,-1.091,-38.824,-41.016,-21.747,-141.97,-55.764,-28.999,-76.822,-206.715,2
-7.551,-37.013,-321.591,-449.396,-14.632,-14.14,37.011,-41.352,-17.07,-13.736,-16.499,-11.766,-25.247,-21.929,-23.398,-18.662,34.979,40.725,18.958,-3.382,19.915,-17.78,-20.483,-3.282,-129.533,-37.265,-8.99,-58.302,-179.356,2
1.166,-26.73,-319.221,-424.356,0.752,-1.831,69.762,-31.577,-2.708,1.135,-0.601,-2.021,-8.316,-0.39,-9.03,-1.738,43.653,54.005,29.698,5.843,30.653,-6.492,-14.314,-3.791,-104.812,-30.055,-0.272,-51.072,-172.004,2
-3.446,-38.999,-328.123,-435.715,-3.86,-13.612,91.722,-45.378,-18.587,-8.088,-12.896,-11.753,-23.164,-5,-25.415,-16.593,30.29,40.631,13.786,-6.971,19.352,-22.367,-30.694,-20.694,-105.22,-42.321,-10.005,-63.316,-189.763,2
-10.615,-46.644,-332.918,-462.431,-16.664,-26.918,122.368,-64.288,-33.425,-21.4,-26.203,-20.962,-35.436,-20.877,-33.586,-28.359,26.161,31.881,8.649,-11.062,16.258,-27.468,-31.176,-22.722,-123.045,-48.426,-15.118,-70.425,-194.696,2
-4.457,-37.376,-331.048,-453.772,-19.721,-23.817,120.197,-68.834,-26.219,-19.842,-19.005,-16.331,-24.13,-17.27,-20.233,-19.622,32.282,41.583,21.961,-3.879,24.951,-13.608,-20.386,-8.355,-130.095,-36.082,-8.443,-63.182,-184.768,2
-0.866,-30.167,-320.471,-434.875,-15.09,-16.621,87.801,-58.519,-23.632,-13.674,-15.912,-16.314,-21.032,-8.031,-22.262,-19.602,28.152,43.59,19.377,-7.461,23.902,-13.082,-21.903,-4.248,-120.743,-30.411,-7.922,-46.725,-169.214,2
-1.89,-25.526,-299.658,-437.002,-6.366,-17.629,55.438,-46.678,-27.706,-12.636,-19.482,-20.396,-29.208,-7.511,-28.387,-23.169,26.074,38.424,12.698,-11.552,20.804,-16.143,-20.856,-4.244,-110.376,-30.893,-8.427,-29.772,-150.089,2
3.235,-24.988,-296.285,-446.811,-5.335,-26.833,88.17,-57.902,-25.63,-20.308,-18.438,-17.814,-28.667,-9.552,-22.723,-21.609,27.585,37.361,14.222,-9.491,23.345,-15.102,-18.274,0.371,-118.463,-29.837,-4.32,-34.866,-151.988,2
3.232,-38.283,-314.431,-456.61,-18.137,-35.003,120.87,-79.361,-32.264,-28.997,-24.055,-21.895,-33.249,-16.203,-30.898,-28.247,20.898,34.762,5.499,-18.191,18.711,-25.845,-29.014,-7.314,-129.103,-40.566,-10.976,-53.786,-169.767,2
0.155,-41.318,-315.654,-453.08,-21.193,-29.333,88.473,-66.986,-35.305,-24.357,-29.154,-28.021,-37.314,-18.748,-42.65,-32.317,18.315,30.116,-1.679,-23.808,14.081,-34.529,-33.596,-16.016,-107.969,-49.747,-17.625,-51.171,-162.937,2
-1.895,-32.056,-303.043,-434.696,-14.512,-19.057,56.622,-40.791,-18.364,-15.623,-25.026,-23.894,-29.592,-14.119,-37.484,-27.674,21.371,27.525,1.909,-21.223,14.067,-31.42,-28.951,-10.364,-93.004,-46.623,-14.533,-48.558,-152.528,2
-9.065,-44.831,-306.838,-439.384,-25.256,-26.723,89.353,-49.46,-17.833,-22.78,-32.174,-27.457,-34.686,-17.691,-43.082,-35.331,14.689,25.448,-5.266,-28.886,6.368,-38.561,-37.119,-18.039,-124.674,-54.261,-22.715,-72.588,-175.43,2
-16.228,-65.279,-316.265,-463.023,-38.551,-43.602,115.904,-69.903,-39.332,-35.565,-47.511,-38.188,-48.483,-28.431,-55.846,-44.005,9.039,23.373,-16.019,-38.079,-2.347,-51.33,-47.84,-36.464,-150.165,-69.576,-35.5,-84.811,-193.185,2
-19.798,-65.213,-326.195,-465.634,-32.877,-47.657,83.512,-70.345,-43.392,-38.091,-47.975,-36.1,-47.41,-37.112,-50.155,-40.887,8.518,19.764,-12.929,-36.504,-1.832,-50.767,-45.743,-32.841,-140.793,-70.019,-33.416,-74.992,-186.844,2
-26.951,-67.71,-340.726,-465.681,-33.356,-50.171,51.153,-74.373,-41.811,-41.127,-46.391,-37.601,-50.949,-43.735,-48.568,-44.945,1.849,14.109,-13.941,-36.468,-5.417,-49.179,-45.185,-21.025,-145.775,-69.436,-33.382,-76.454,-192.805,2
-30.51,-77.376,-343.459,-487.245,-48.18,-62.416,61.348,-88.131,-57.651,-52.356,-54.029,-44.736,-60.632,-37.544,-63.377,-51.56,0.311,16.656,-22.636,-40.017,-13.608,-53.228,-51.288,-27.664,-154.851,-75.002,-41.034,-83.038,-202.346,2
-25.869,-74.225,-339.017,-496.491,-43.008,-61.842,45.918,-84.969,-60.667,-51.792,-51.926,-34.957,-51.862,-19.575,-59.215,-42.799,11.581,28.935,-16.466,-34.342,-7.959,-50.101,-47.138,-31.223,-124.983,-70.829,-37.406,-80.393,-191.385,2
-18.158,-61.855,-340.215,-474.99,-17.862,-38.726,41.773,-66.441,-37.553,-30.223,-33.943,-19.041,-33.879,-8.285,-37.639,-27.899,22.84,42.226,3.531,-18.938,7.93,-31.096,-30.185,-11.724,-99.754,-52.827,-22,-74.677,-179.411,2
-7.382,-52.059,-330.653,-451.461,-8.111,-25.367,74.519,-63.813,-27.269,-16.873,-21.614,-18.509,-31.284,-3.154,-29.404,-21.211,28.453,48.844,16.335,-7.649,14.07,-14.671,-17.347,9.293,-116.561,-34.844,-11.219,-60.258,-177.182,2
-4.3,-47.909,-319.564,-444.862,-14.763,-33.026,103.134,-75.532,-40.562,-25.053,-25.178,-22.077,-39.449,-2.638,-30.912,-24.776,24.838,41.11,13.245,-13.276,8.421,-18.755,-19.891,8.259,-125.154,-32.76,-11.72,-49.439,-174.443,2
-10.956,-43.762,-320.269,-440.319,-13.211,-31.457,70.756,-66.235,-40.521,-25.54,-27.202,-18.981,-40.435,-11.345,-28.319,-26.801,16.616,31.847,7.596,-16.337,4.826,-25.908,-26.531,0.566,-111.196,-40.411,-14.27,-51.951,-176.318,2
-10.433,-37.571,-317.9,-437.317,-10.124,-18.105,38.409,-41.066,-25.111,-13.219,-21.027,-17.425,-32.71,-21.58,-29.828,-24.212,13.526,29.766,7.076,-10.685,5.846,-20.759,-27.529,3.127,-125.43,-41.396,-13.744,-49.85,-182.802,2
-11.959,-45.73,-318.606,-450.2,-22.921,-26.796,71.159,-48.71,-31.234,-20.378,-28.691,-26.629,-37.8,-36.927,-41.581,-31.873,2.754,16.929,-3.177,-23.482,-2.869,-28.423,-33.649,-3.536,-156.555,-46.477,-19.878,-54.923,-183.131,2
-25.78,-57.98,-322.898,-457.946,-31.095,-46.749,103.875,-77.35,-48.621,-37.776,-43.519,-34.8,-54.156,-50.723,-50.249,-45.161,-10.056,2.055,-19.055,-40.365,-16.699,-46.838,-43.35,-21.463,-136.931,-59.751,-28.567,-75.873,-180.899,2
-23.192,-48.188,-311.817,-435.971,-20.306,-41.067,110.431,-69.588,-37.814,-30.054,-38.352,-28.105,-46.417,-38.377,-44.563,-38.456,3.786,13.836,-12.888,-24.955,-12.584,-39.106,-36.646,-19.393,-104.006,-57.642,-24.952,-69.137,-175.083,2
-8.312,-37.382,-306.382,-423.24,-14.65,-26.169,78.046,-44.928,-22.919,-17.728,-28.58,-21.417,-29.465,-22.969,-37.346,-29.196,18.127,25.605,-0.58,-12.123,-2.837,-25.747,-28.925,-4.516,-110.562,-46.313,-17.755,-45.502,-165.686,2
-12.915,-44.516,-314.785,-441.26,-19.246,-32.803,45.692,-52.567,-39.29,-27.957,-34.187,-28.055,-43.267,-33.192,-40.383,-35.827,5.301,14.821,-5.703,-24.406,-11.544,-32.381,-35.556,-1.95,-142.727,-48.829,-17.737,-51.092,-163.983,2
-15.463,-43.447,-306.786,-443.38,-14.104,-37.381,78.434,-67.884,-50.009,-33.052,-32.616,-26.49,-53.983,-35.72,-37.268,-35.278,5.296,14.294,-4.16,-20.283,-16.655,-31.837,-32.959,-0.924,-145.658,-46.731,-14.646,-54.627,-169.455,2
-2.64,-32.133,-301.356,-425.006,-6.405,-23.511,111.143,-61.156,-32.541,-21.236,-20.8,-16.218,-37.023,-20.828,-24.423,-23.972,21.172,28.624,8.139,-4.893,-4.855,-20.534,-21.655,4.713,-123.995,-35.413,-9.508,-36.641,-173.896,2
-7.761,-36.199,-319.498,-427.143,-9.985,-21.439,78.757,-56.484,-29.435,-17.116,-22.829,-19.275,-33.912,-27.979,-23.887,-25.998,13.466,23.473,3.521,-15.135,-8.437,-25.124,-27.269,0.609,-124.896,-41.013,-13.597,-43.265,-175.259,2
-19.536,-41.799,-321.227,-441.572,-14.073,-33.713,46.403,-69.236,-48.361,-23.759,-27.929,-24.891,-46.173,-42.808,-31.035,-33.144,4.743,14.228,-3.655,-22.292,-21.748,-30.222,-32.365,-2.465,-119.648,-48.657,-18.194,-61.152,-168.936,2
-6.709,-30.998,-296.828,-439.594,-7.399,-26.507,72.996,-71.728,-44.214,-19.637,-17.143,-16.157,-37.418,-32.519,-24.856,-25.938,18.571,24.46,10.693,-6.388,-11.993,-16.36,-16.963,10.345,-99.036,-33.751,-9.979,-45.722,-157.496,2
9.692,-14.061,-282.698,-421.223,6.953,-5.988,105.711,-53.213,-22.14,-2.199,-3.293,-5.383,-19.962,-18.654,-13.561,-13.105,31.872,38.267,26.052,4.889,2.876,0.05,-2.089,28.265,-89.203,-15.787,3.863,-19.548,-150.679,2
7.633,-6.363,-286.002,-404.408,15.143,0.166,112.778,-41.889,-17.507,6,1.321,0.77,-12.77,-13,-10.986,-6.944,39.525,40.791,27.05,5.397,-1.737,4.149,1.499,37.971,-82.966,-9.623,5.909,-8.258,-145.405,2
-0.572,-17.627,-295.45,-406.566,4.881,-11.105,113.177,-50.556,-24.15,-4.764,-5.34,-3.841,-15.318,-4.79,-15.585,-14.622,42.047,36.651,19.851,0.78,-14.031,-7.638,-5.163,31.273,-91.593,-16.274,-2.806,-14.91,-144.235,2
-11.842,-41.688,-310.524,-430.237,-14.079,-23.902,86.424,-57.678,-29.249,-16.542,-21.217,-20.231,-29.648,-10.933,-27.865,-30.489,25.611,23.295,4.462,-14.077,-26.312,-28.635,-26.162,9.213,-123.776,-38.286,-12.537,-46.658,-161.509,2
-22.588,-55.478,-318.41,-443.639,-20.213,-25.415,54.062,-53.522,-33.318,-16.014,-29.905,-26.359,-37.815,-26.292,-39.62,-36.094,15.339,8.415,-7.326,-23.285,-34.483,-38.853,-36.894,-4.117,-134.923,-53.617,-19.185,-68.641,-183.889,2
-16.93,-51.837,-311.432,-429.876,-12.508,-17.192,77.574,-45.784,-24.575,-10.874,-21.678,-16.086,-25.994,-18.068,-34.458,-28.885,27.619,10.968,-2.708,-14.04,-29.838,-33.179,-26.611,3.06,-111.735,-44.342,-18.141,-53.203,-183.193,2
-2.057,-40.514,-300.362,-412.54,-1.737,-8.978,110.284,-36.004,-10.206,-3.179,-10.385,-8.898,-15.722,-0.12,-20.079,-21.172,36.301,24.789,6.004,-4.804,-20.074,-24.949,-19.412,15.352,-109.574,-30.466,-7.364,-40.342,-170.715,2
6.655,-30.74,-297.5,-411.103,6.974,-5.895,120.933,-31.87,-12.245,1.947,-5.764,-7.352,-17.243,-0.632,-11.862,-17.564,41.9,31.424,15.22,0.324,-15.443,-15.19,-15.295,18.923,-105.366,-27.361,-0.185,-39.277,-167.982,2
4.599,-34.295,-302.325,-419.913,0.82,-12.037,106.467,-45.67,-24.528,-7.789,-10.369,-9.906,-22.349,-2.68,-16.973,-19.084,48.518,31.905,23.401,2.372,-20.039,-10.564,-8.107,19.929,-83.231,-26.822,-2.746,-29.504,-168.839,2
-5.14,-51.679,-309.708,-429.227,-22.747,-30.981,106.873,-65.605,-39.361,-26.224,-29.314,-22.704,-35.647,-7.801,-35.399,-30.335,36.687,24.189,10.058,-11.975,-35.9,-24.386,-18.345,18.372,-104.665,-35.504,-10.428,-39.208,-166.621,2
-14.356,-60.337,-314.521,-434.433,-32.458,-43.245,80.126,-71.174,-54.691,-33.37,-41.58,-32.415,-49.956,-30.335,-49.196,-42.088,20.256,7.258,-12.494,-28.356,-46.11,-38.193,-34.721,8.107,-136.835,-49.301,-19.127,-63.247,-171.577,2
-11.78,-46.957,-309.596,-425.802,-15.008,-28.857,47.77,-58.808,-46.439,-21.553,-27.194,-23.673,-41.196,-32.353,-38.388,-36.923,32.019,9.813,-4.796,-17.057,-37.867,-27.909,-24.44,6.562,-108.009,-42.079,-16.546,-47.303,-173.455,2
-0.498,-26.93,-295.966,-402.834,1.401,-10.385,31.841,-41.33,-25.388,-6.675,-10.261,-11.354,-21.687,-3.632,-21.444,-20.492,54.016,29.27,16.725,1.915,-29.632,-11.487,-9.046,25.511,-78.7,-22.057,-2.185,-20.615,-156.375,2
6.675,-21.78,-290.547,-399.87,-0.137,-14.986,64.597,-44.875,-27.924,-8.205,-15.373,-12.368,-22.178,2.007,-21.422,-18.422,53.45,28.217,12.61,-1.161,-33.189,-16.087,-16.209,34.195,-104.236,-22.547,0.379,-32.378,-144.948,2
-0.504,-27.906,-300.503,-422.012,-6.797,-28.291,97.32,-66.347,-39.167,-17.419,-24.067,-17.991,-31.377,-16.95,-29.598,-28.65,40.589,11.282,0.302,-11.406,-37.254,-26.829,-26.439,17.254,-113.354,-34.308,-9.868,-43.104,-162.222,2
-4.602,-22.755,-302.251,-416.467,-5.253,-21.09,70.07,-62.695,-27.857,-8.692,-15.334,-13.874,-23.149,-12.835,-29.056,-26.06,42.085,13.832,6.449,-7.808,-35.68,-21.167,-21.802,15.7,-91.211,-28.126,-5.759,-23.081,-172.818,2
10.26,-3.264,-287.092,-383.263,11.658,6.083,37.725,-29.844,-5.8,13.346,1.075,-0.54,-2.634,5.109,-13.658,-11.689,56.388,29.188,21.3,6.032,-27.447,-5.264,-8.46,39.763,-102.903,-10.679,11.665,-1.541,-153.178,2
14.348,2.887,-283.219,-378.781,23.43,19.397,48.958,-12.396,4.964,21.53,5.173,2.534,3.004,5.104,-3.398,-10.141,57.868,29.159,21.791,11.661,-22.297,-3.722,-5.89,45.359,-131.489,-9.644,12.165,-0.515,-144.827,2
-9.233,-18.633,-305.99,-410.677,2.402,-4.7,81.697,-44.147,-12.971,2.04,-11.739,-12.838,-15.442,-10.271,-22.35,-23.963,36.806,6.588,0.252,-7.306,-38.669,-23.186,-26.377,15.599,-121.112,-31.151,-6.29,-24.593,-168.249,2
-20.494,-43.205,-322.077,-425.636,-23.216,-33.897,53.95,-75.866,-41.135,-23.577,-32.732,-26.145,-36.431,-26.654,-44.357,-38.283,19.35,-13.399,-21.265,-28.815,-57.585,-42.118,-42.744,-10.032,-93.326,-53.149,-22.165,-55.306,-180.888,2
-8.691,-47.26,-312.534,-418.038,-18.582,-32.839,21.621,-70.667,-40.07,-25.603,-32.699,-24.069,-37.419,-32.775,-38.165,-40.807,21.38,-9.287,-17.658,-24.688,-51.38,-41.564,-35.017,-3.362,-99.38,-51.559,-21.631,-56.788,-173.023,2
-6.633,-40.041,-308.635,-418.645,-10.879,-24.097,54.387,-58.301,-26.197,-15.331,-22.932,-18.922,-29.185,-24.546,-31.466,-34.618,30.58,2.506,-5.857,-13.905,-45.181,-33.837,-27.297,11.499,-129.507,-39.212,-12.9,-42.387,-174.899,2
-13.286,-39.488,-315.499,-419.763,-18.553,-25.61,49.21,-58.755,-31.294,-16.34,-21.885,-16.342,-26.082,-13.25,-35.021,-32.534,37.21,8.651,-5.339,-14.916,-53.333,-32.779,-30.344,9.95,-131.427,-42.247,-12.375,-46.443,-180.872,2
-8.15,-44.572,-292.129,-400.388,-13.411,-19.436,16.885,-51.524,-28.189,-10.689,-19.814,-12.227,-18.883,-2.991,-25.765,-31.99,46.394,21.45,-1.747,-9.778,-48.156,-28.135,-24.678,8.403,-111.315,-44.766,-13.899,-49.982,-167.371,2
-0.969,-42.478,-259.05,-380.007,0.947,-11.732,49.656,-46.861,-14.329,2.13,-12.109,-7.604,-10.668,-1.451,-18.054,-24.785,50.959,27.064,4.402,-2.595,-38.374,-21.447,-17.993,19.666,-117.864,-33.963,-7.225,-32.002,-142.1,2
-0.456,-31.165,-226.003,-370.406,-0.079,-13.257,82.394,-51.425,-15.851,1.103,-10.048,-6.572,-14.243,-15.794,-24.184,-21.687,41.174,11.667,1.324,-3.617,-43.459,-21.426,-20.024,26.306,-124.919,-29.318,-1.07,-13.527,-109.171,2
2.618,-18.838,-192.989,-348.518,-0.079,-2.998,50.036,-33.443,-12.249,4.688,-8.501,-5.541,-13.716,-25.512,-20.573,-22.69,34.473,6.02,1.323,-0.028,-40.854,-19.868,-15.906,31.403,-92.006,-28.777,0.98,-4.804,-76.274,2
5.69,-9.086,-160.009,-319.993,9.143,11.862,51.011,-14.454,1.083,16.467,-1.833,-3.486,-3.969,-18.314,-11.844,-17.031,42.635,18.31,6.957,8.169,-30.567,-14.725,-7.181,40.081,-69.372,-20.551,5.077,9.546,-43.41,2
4.147,-0.367,-131.159,-309.939,7.597,6.727,83.747,-28.272,-1.992,11.327,0.731,-1.433,-2.428,-19.833,-15.418,-13.941,45.154,19.316,6.438,5.087,-36.172,-14.198,-11.272,39.528,-89.283,-16.944,6.097,27.467,-31.071,2
1.581,4.244,-120.27,-314.752,1.954,-0.964,52.413,-33.879,-6.088,7.217,-2.856,-2.969,-4.987,-23.912,-17.452,-19.05,39.986,10.588,1.82,1.496,-43.308,-14.183,-17.921,35.903,-106.1,-17.952,5.579,31.026,-18.232,2
0.043,-5.494,-118.1,-329.807,2.977,-3.525,20.085,-28.21,-7.619,9.259,-8.489,-8.089,-8.568,-11.592,-16.41,-22.105,41.483,6.991,-2.792,-0.555,-42.752,-15.194,-17.903,37.916,-113.678,-18.446,5.061,16.65,-3.357,2
-2.519,-18.297,-144.11,-349.457,-0.1,-16.329,52.853,-52.26,-21.956,-4.582,-14.115,-10.13,-18.294,-7.482,-23.053,-24.644,42.978,9.033,-8.937,-7.214,-47.833,-20.814,-20.959,32.243,-122.274,-25.088,-1.092,5.362,-19.235,2
-0.979,-11.618,-162.921,-335.788,3.486,-12.727,39.992,-53.745,-20.397,-5.09,-10.003,-4.997,-15.714,-13.622,-19.444,-26.156,42.935,19.782,-3.293,-2.084,-43.686,-19.769,-20.426,32.21,-101.659,-23.014,-0.579,14.579,-46.368,2
4.657,4.275,-147.389,-304.713,19.364,13.414,7.677,-20.903,1.14,17.969,1.79,-0.381,-2.378,-4.9,-5.592,-18.958,50.577,28.984,9.518,11.75,-30.323,-8.478,-9.134,48.572,-73.381,-5.06,12.742,26.347,-45.81,2
3.628,-1.877,-156.975,-322.339,12.172,7.765,40.457,-30.104,-9.107,10.266,-0.261,-7.041,-11.085,-6.944,-13.271,-17.402,47.452,18.709,6.947,6.103,-37.977,-3.859,-6.564,53.134,-91.75,-4.03,14.778,19.661,-46.788,2
-4.06,-22.88,-189.094,-354.292,-10.381,-20.42,73.204,-62.349,-34.201,-14.847,-15.63,-15.743,-29.005,-27.942,-30.677,-29.68,33.06,7.932,-2.794,-7.735,-51.771,-11.027,-14.242,44.372,-114.2,-19.908,0.419,6.833,-79.017,2
-1.495,-25.418,-214.008,-345.741,-2.174,-11.178,40.856,-43.332,-20.847,-3.049,-12.028,-8.555,-17.192,-21.766,-23.474,-30.163,39.175,19.195,5.406,-0.555,-43.523,-10.504,-8.08,48.938,-85.909,-17.326,-2.143,7.851,-107.627,2
8.753,-12.073,-213.794,-320.805,18.833,15.986,15.199,-10.501,6.326,18.983,7.964,5.286,4.342,0.797,-6.032,-15.788,55.017,33.52,19.745,12.253,-32.208,1.29,3.199,57.086,-58.159,-4.501,12.204,17.065,-103.933,2
6.695,-13.086,-223.314,-330.73,14.203,10.334,47.972,-25.859,4.783,14.866,6.419,3.744,1.263,-4.839,-7.562,-16.797,49.839,27.339,12.041,7.118,-35.762,2.825,-2.952,54.98,-81.667,-5.521,13.216,14.999,-107.928,2
-1.509,-32.028,-238.46,-353.965,1.381,-11.193,71.49,-54.01,-12.128,-0.006,-12.543,-8.043,-14.619,-14.568,-20.875,-30.1,39.031,11.942,-4.877,-4.672,-44.436,-12.547,-14.732,50.314,-109.25,-15.25,-1.654,-3.972,-133.435,2
-4.581,-46.34,-256.152,-364.37,-5.792,-17.329,39.143,-54.981,-19.8,-7.691,-19.19,-15.207,-21.265,-8.406,-24.953,-32.631,38.992,6.295,-8.459,-8.254,-52.076,-21.756,-16.766,42.067,-89.673,-25.993,-9.337,-18.312,-156.868,2
-9.7,-50.905,-280.487,-362.469,-13.983,-14.75,6.829,-48.778,-16.707,-8.195,-14.56,-16.216,-17.657,-10.959,-23.391,-31.574,38.953,8.338,-6.401,-7.733,-54.585,-19.685,-18.287,31.266,-63.968,-34.676,-6.254,-17.782,-169.007,2
-10.202,-56.489,-292.501,-360.057,-16.019,-17.297,39.609,-49.754,-17.202,-7.675,-17.619,-15.688,-16.615,-19.145,-28.49,-35.641,35.84,7.817,-11.005,-11.312,-55.555,-24.276,-25.953,31.747,-96.179,-36.178,-8.809,-23.399,-170.887,2
-0.97,-61.044,-292.209,-366.357,-12.417,-19.329,46.742,-52.266,-22.308,-8.692,-20.163,-12.086,-20.697,-16.564,-33.585,-37.654,37.853,8.322,-12.531,-12.837,-57.549,-27.838,-25.415,41.45,-128.358,-32.044,-11.874,-34.647,-174.814,2
0.567,-60.47,-297.04,-368.04,-6.769,-11.113,14.42,-43.505,-18.7,-4.585,-12.459,-6.951,-18.627,-9.887,-25.867,-31.981,43.451,15.998,-2.273,-5.14,-52.881,-17.564,-12.582,48.58,-102.614,-21.765,-6.227,-32.563,-189.497,2
-6.093,-63.996,-311.087,-364.086,0.923,-12.126,43.607,-43.973,-15.607,-3.555,-9.885,-5.919,-15.022,-7.828,-20.205,-28.363,43.408,19.056,2.341,-1.036,-52.315,-12.423,-11.032,41.36,-69.724,-17.645,-2.122,-32.018,-198.016,2
-7.112,-76.227,-328.707,-376.017,-6.763,-29.533,76.351,-72.106,-26.35,-14.31,-19.609,-11.549,-21.155,-15.505,-25.821,-32.433,34.655,12.377,-5.859,-6.671,-64.559,-23.169,-21.78,25.437,-65.556,-28.386,-7.243,-43.257,-196.794,2
-4.031,-79.225,-330.94,-377.69,-17.002,-23.356,43.999,-68.96,-21.713,-7.124,-15.49,-8.463,-16.523,-24.199,-23.233,-30.352,37.694,14.414,-2.267,-5.127,-64.494,-19.047,-16.122,31.559,-97.766,-29.895,-6.211,-40.652,-203.769,2
1.096,-66.85,-313.191,-351.185,-2.641,7.406,11.68,-36.104,4.436,15.937,4.505,5.89,2.449,-8.805,-10.402,-18.026,56.099,29.256,11.056,7.686,-52.134,-3.147,-4.323,53.044,-104.328,-17.569,1.992,-29.341,-203.053,2
2.632,-70.882,-312.877,-355.957,1.46,2.788,19.865,-31.969,1.87,9.774,-1.135,0.761,-2.677,8.622,-16.027,-22.106,57.068,31.276,-0.739,2.043,-63.865,-12.878,-17.127,42.233,-95.514,-27.798,-5.182,-47.754,-190.555,2
-7.104,-94.89,-338.692,-387.876,-24.156,-29.49,52.633,-64.213,-29.895,-19.438,-29.823,-21.782,-30.338,-6.244,-37.016,-43.601,36.006,16.388,-23.279,-17.939,-83.269,-35.919,-34.016,16.063,-105.153,-47.238,-21.571,-77.42,-197.024,2
-13.245,-94.282,-346.038,-383.902,-28.231,-33.047,72.048,-74.907,-33.451,-23.517,-29.793,-19.711,-32.87,-18.533,-38.004,-43.045,31.359,12.786,-16.084,-13.823,-75.501,-28.198,-24.76,26.293,-110.683,-35.407,-15.402,-65.048,-216.807,2
-5.547,-77.794,-337.495,-362.513,-7.71,-15.595,104.764,-64.586,-16.511,-9.149,-9.271,-3.297,-15.418,-1.608,-21.572,-25.071,43.624,27.117,2.888,3.097,-64.155,-8.19,-10.391,49.32,-106.474,-16.929,0.495,-32.707,-215.566,2
-10.152,-92.573,-347.916,-378.033,-12.313,-23.777,74.945,-71.181,-24.692,-13.75,-15.922,-9.954,-18.989,1.98,-27.185,-32.731,35.383,26.578,-5.824,-7.664,-76.386,-18.428,-19.089,39.025,-110.466,-31.769,-10.264,-48.556,-204.079,2
-27.048,-117.584,-361.913,-394.048,-32.793,-45.27,42.595,-75.721,-39.524,-32.692,-38.96,-27.875,-36.389,-18.515,-50.212,-54.215,16.905,10.158,-27.848,-30.198,-94.24,-40.951,-37.513,14.395,-107.282,-57.353,-30.233,-80.783,-208.486,2
-24.46,-106.708,-351.817,-378.797,-27.125,-40.101,32.818,-63.862,-31.8,-32.147,-35.847,-25.285,-33.791,-19.521,-47.6,-49.038,25.597,13.734,-25.771,-23.508,-95.683,-37.324,-36.451,14.893,-85.657,-55.758,-23.543,-67.894,-215.45,2
-2.918,-80.473,-334.047,-363.049,-4.044,-13.934,65.573,-46.892,-16.399,-10.085,-14.294,-10.403,-14.289,-7.718,-22.45,-30.034,43.502,35.749,-4.74,-2.992,-80.73,-16.794,-16.435,35.883,-80.449,-34.186,-4.564,-35.039,-202.939,2
4.257,-78.856,-334.737,-365.76,-1.991,-10.846,98.295,-52.48,-15.87,-4.44,-10.694,-7.319,-12.226,-13.858,-22.427,-30.516,36.799,35.201,-1.15,-2.989,-73.99,-15.753,-15.906,43.019,-107.52,-29.028,-1.998,-42.176,-196.076,2
-8.555,-92.61,-346.186,-373.079,-17.358,-31.327,130.985,-81.629,-29.686,-23.391,-25.028,-18.582,-28.607,-19.992,-40.336,-41.244,21.905,17.235,-19.079,-15.794,-87.748,-30.594,-35.358,25.558,-120.733,-44.369,-11.218,-64.675,-213.811,2
-15.719,-88.418,-345.327,-367.071,-12.218,-30.784,98.578,-78.986,-32.731,-25.417,-26.539,-20.613,-31.14,-11.775,-35.172,-37.616,23.42,15.681,-20.085,-15.266,-94.32,-30.563,-33.786,13.237,-96.021,-47.398,-14.793,-58.463,-218.208,2
-7.506,-73.473,-330.637,-348.773,6.75,-10.261,66.205,-47.144,-14.255,-6.436,-11.656,-6.76,-15.227,-9.714,-17.206,-26.82,29.032,21.301,-1.109,-3.468,-81.418,-15.676,-14.796,25.519,-83.63,-34.031,-7.093,-44.06,-194.936,2
-3.4,-66.74,-320.06,-339.202,6.231,-4.615,98.926,-44.023,-3.482,-0.282,-4.984,-0.605,-5.991,-10.217,-13.091,-23.72,29.515,19.742,5.04,4.733,-75.189,-5.414,-7.097,44.449,-108.137,-23.75,2.648,-33.77,-195.253,2
-5.958,-65.136,-322.814,-343.474,2.639,-3.586,66.552,-49.615,-8.089,1.255,-5.492,-2.654,-5.985,-2.522,-12.053,-21.647,29.486,20.235,5.035,7.29,-80.749,-2.335,-5.041,50.04,-113.152,-18.091,3.67,-23.49,-214.013,2
-6.465,-70.194,-336.324,-355.426,7.247,-2.045,34.21,-40.343,-10.643,3.816,-3.437,-0.602,-7.003,-5.081,-10.504,-19.576,28.431,16.116,5.03,3.184,-83.742,-6.943,-8.11,40.256,-80.251,-22.172,-1.969,-33.712,-210.213,2
-9.532,-83.444,-354.43,-374.538,-3.519,-23.56,66.963,-61.82,-19.854,-14.119,-12.655,-7.262,-16.73,-17.371,-21.252,-27.241,22.768,5.342,-8.295,-7.578,-89.806,-17.695,-17.835,32.019,-67.363,-37.006,-6.066,-52.122,-201.806,2
-15.158,-89.508,-363.81,-387.996,-17.348,-44.541,94.561,-89.935,-36.228,-30.499,-25.962,-19.55,-26.96,-16.841,-29.94,-33.361,18.646,8.41,-13.41,-10.644,-96.377,-18.189,-16.793,40.184,-81.128,-35.945,-7.084,-45.922,-201.604,2
-13.606,-92.492,-370.106,-392.219,-13.744,-40.398,62.191,-83.697,-37.728,-24.833,-23.375,-14.919,-24.371,-10.677,-25.811,-29.742,21.189,17.111,-3.151,-4.998,-94.231,-12.023,-10.116,49.365,-70.801,-24.638,-7.077,-40.241,-198.841,2
-15.641,-108.794,-393.302,-403.61,-17.317,-40.358,94.916,-86.175,-33.592,-24.296,-21.815,-11.831,-23.834,-13.228,-27.323,-30.224,24.242,15.557,-5.197,-6.53,-94.137,-16.622,-14.717,40.094,-52.799,-32.81,-7.583,-51.471,-219.134,2
-21.773,-116.369,-425.184,-416.014,-28.058,-46.465,99.432,-96.848,-35.096,-29.907,-27.94,-20.528,-27.397,-18.85,-34.468,-33.268,22.681,14.517,-11.339,-10.11,-98.141,-22.753,-19.313,29.808,-66.579,-43.024,-8.6,-49.371,-250.678,2
-15.604,-111.13,-444.739,-417.647,-21.882,-36.172,67.057,-80.357,-28.4,-22.704,-25.863,-16.921,-24.808,-22.93,-32.896,-28.624,22.146,16.551,-8.254,-8.05,-98.043,-21.706,-18.269,32.34,-83.931,-37.858,-10.64,-42.661,-251.452,2
-8.416,-115.117,-450.442,-413.643,-12.126,-31.013,91.581,-72.08,-20.175,-18.583,-22.251,-10.244,-23.246,-20.857,-28.252,-29.62,24.685,17.047,-11.832,-7.53,-98.969,-23.733,-21.324,32.82,-84.359,-40.381,-11.654,-49.791,-244.541,2
-11.994,-115.515,-440.77,-399.909,-13.139,-36.105,124.277,-74.569,-19.643,-21.126,-24.791,-14.845,-23.735,-10.078,-27.2,-32.152,27.734,26.764,-11.82,-7.01,-100.407,-22.173,-19.254,33.811,-80.176,-40.853,-8.056,-42.056,-244.296,2
-13.006,-101.054,-423.423,-389.263,-16.712,-28.384,91.878,-56.051,-14.5,-16.494,-20.155,-10.732,-18.588,-6.994,-28.197,-24.435,35.391,37.496,-0.025,-1.88,-95.184,-9.343,-7.964,46.585,-58.579,-23.906,-1.388,-28.182,-230.22,2
-5.309,-98.904,-419.414,-397.071,-17.72,-22.721,65.658,-54.458,-14.998,-15.453,-13.475,-3.036,-14.471,-8.012,-26.12,-21.849,42.528,35.921,4.073,3.757,-90.99,-1.137,-2.833,56.272,-31.881,-13.124,2.712,-37.375,-223.329,2
-2.742,-105.465,-423.605,-404.359,-11.554,-28.333,98.38,-77.97,-23.692,-15.438,-12.949,-7.132,-14.457,5.829,-16.36,-26.438,42.998,36.398,4.581,5.803,-91.924,-4.209,-3.855,52.118,-44.656,-15.672,2.196,-44.51,-231.303,2
-9.399,-104.335,-420.62,-410.614,-3.858,-29.33,96.232,-77.892,-23.156,-12.349,-14.473,-9.686,-16.492,14.02,-16.343,-23.338,42.955,38.923,3.552,-0.351,-94.906,-11.89,-9.998,40.795,-72.276,-23.854,-1.904,-36.781,-230.559,2
-14.513,-109.354,-425.322,-420.962,-12.564,-34.936,70.009,-75.253,-25.182,-24.119,-23.168,-11.726,-25.184,-5.462,-32.721,-25.364,38.301,26.588,-11.308,-12.133,-100.446,-24.686,-23.308,26.409,-67.081,-39.711,-9.075,-40.331,-237.501,2
-9.375,-113.343,-432.069,-407.733,-21.26,-43.61,80.185,-89.01,-33.866,-32.804,-28.78,-15.812,-29.258,-15.703,-34.225,-33.023,33.652,17.34,-15.908,-11.609,-101.883,-28.759,-25.847,21.26,-59.329,-43.77,-13.164,-42.852,-243.924,2
-4.755,-104.008,-422.416,-389.907,-12.017,-34.857,69.346,-81.236,-25.123,-18.939,-19.017,-6.575,-19.495,3.268,-20.871,-25.818,44.377,29.618,-1.035,-0.839,-99.219,-18.997,-13.013,32.509,-74.639,-30.919,-9.052,-34.1,-229.335,2
-11.923,-104.929,-417.895,-404.886,-9.444,-29.187,50.321,-65.786,-14.339,-13.797,-16.949,-2.982,-16.913,9.925,-26.998,-20.669,53.554,37.273,-2.571,-3.912,-102.706,-19.49,-14.025,36.063,-74.565,-33.961,-8.531,-40.213,-235.766,2
-16.522,-115.582,-431.309,-413.703,-19.168,-38.379,69.226,-76.991,-22.522,-24.542,-30.252,-17.324,-23.044,-1.868,-36.704,-31.919,45.304,30.576,-15.376,-13.642,-110.801,-31.766,-26.306,23.219,-64.756,-45.198,-16.719,-56.567,-263.195,2
-9.845,-113.93,-433.952,-399.457,-17.612,-39.366,95.797,-88.184,-25.061,-22.468,-28.685,-18.331,-20.972,3.257,-31.545,-32.911,46.795,30.033,-9.213,-10.042,-111.202,-27.123,-21.157,24.221,-82.622,-35.932,-16.19,-57.535,-250.636,2
-9.323,-109.205,-422.247,-406.742,-11.447,-33.178,83.918,-82.973,-16.327,-19.884,-18.41,-7.554,-15.828,12.988,-29.464,-25.706,56.482,37.176,-1.519,-1.835,-105.455,-13.264,-11.402,37.004,-97.397,-25.649,-5.416,-49.793,-223.745,2
-8.289,-104.485,-420.288,-417.606,-13.485,-32.633,51.559,-78.279,-16.823,-21.913,-20.953,-10.621,-16.837,-0.345,-29.947,-28.242,50.278,36.626,-1.005,-0.296,-100.227,-12.226,-10.878,34.918,-68.098,-25.624,-2.849,-42.571,-228.645,2
1.966,-91.061,-422.429,-399.258,-10.397,-29.526,52.532,-74.103,-17.318,-14.207,-20.42,-12.147,-16.308,-5.98,-21.72,-28.214,45.105,29.929,5.144,1.241,-96.028,-9.652,-5.232,31.297,-38.316,-17.914,-3.358,-28.696,-234.052,2
-0.598,-83.797,-409.711,-388.1,-6.801,-27.448,77.07,-70.955,-15.252,-13.168,-14.764,-5.987,-16.291,11.444,-22.21,-24.087,48.133,23.752,6.675,2.264,-96.957,-2.47,-3.177,40.487,-50.06,-11.748,2.793,-17.909,-224.084,2
-15.454,-90.886,-400.08,-397.958,-18.065,-36.13,66.235,-81.13,-27.532,-25.963,-22.946,-12.641,-26.009,4.26,-33.971,-32.26,34.253,16.556,-5.114,-4.398,-104.544,-10.665,-14.957,36.861,-73.577,-20.445,0.229,-28.137,-226.421,2
-13.902,-96.943,-407.877,-398.073,-24.707,-41.729,64.632,-90.783,-37.75,-30.547,-32.657,-19.801,-34.692,-24.433,-35.474,-40.937,23.46,9.879,-11.257,-10.541,-108.026,-18.851,-17.504,25.553,-78.626,-25.548,-8.993,-44.503,-229.781,2
-2.105,-92.235,-409.518,-387.941,-8.8,-29.904,91.207,-78.909,-24.393,-18.734,-20.329,-10.047,-25.948,-20.823,-24.168,-30.65,35.22,11.406,-2.024,-3.358,-96.647,-7.561,-6.215,35.261,-76.498,-17.838,-1.3,-40.36,-222.891,2
0.971,-80.36,-396.813,-377.819,5.041,-13.993,68.574,-57.313,-6.437,-2.834,-3.915,-0.816,-10.041,-3.383,-13.898,-16.275,40.82,21.129,8.736,10.477,-85.28,4.229,-0.574,50.595,-77.959,-6.037,12.534,-22.389,-223.693,2
4.556,-76.693,-390.781,-374.367,-1.112,-9.88,36.23,-51.108,-4.894,-0.269,-6.473,-2.352,-10.543,-9.528,-13.884,-18.308,37.705,24.694,8.728,10.979,-88.781,2.688,-0.573,49.52,-77.881,-2.445,10.472,-15.194,-230.129,2
3.527,-88.912,-387.316,-386.801,-12.382,-21.141,68.982,-63.865,-13.598,-14.614,-17.737,-10.546,-21.291,-11.567,-23.091,-30.072,40.742,18.009,2.059,-2.352,-97.914,-4.487,-4.671,42.81,-64.483,-14.225,0.216,-24.912,-226.825,2
-11.333,-103.167,-387.954,-399.734,-18.517,-34.44,101.7,-75.584,-21.269,-24.333,-25.404,-20.27,-26.393,-6.945,-33.827,-36.19,35.578,12.356,-5.116,-9.522,-103.451,-13.704,-13.376,36.108,-45.975,-26.507,-6.957,-40.769,-224.549,2
-15.933,-103.064,-404.472,-391.649,-19.011,-31.332,69.323,-68.848,-21.248,-19.698,-22.817,-17.688,-25.854,-18.721,-33.793,-37.178,28.37,13.88,-7.672,-5.414,-103.86,-15.227,-12.85,31.973,-45.929,-24.943,-7.975,-42.265,-228.423,2
-5.671,-93.74,-406.117,-382.036,-10.795,-20.029,54.909,-58.021,-18.665,-13.018,-13.573,-6.912,-21.217,-21.264,-25.05,-33.555,35.514,17.452,-3.566,-2.335,-97.608,-8.552,-4.64,39.113,-63.814,-17.234,-2.844,-29.415,-223.071,2
-9.251,-96.72,-387.267,-397.536,-11.296,-27.694,87.642,-72.308,-23.77,-16.591,-17.658,-11.516,-21.708,-9.972,-25.537,-33.521,35.478,12.312,-3.562,-8.48,-96.998,-13.154,-10.783,38.562,-75.533,-21.827,-2.328,-37.071,-222.336,2
-24.611,-113.529,-395.077,-417.118,-24.093,-44.572,94.727,-92.215,-32.968,-30.407,-33.009,-24.312,-32.445,-17.647,-34.733,-41.173,25.197,2.053,-15.342,-13.595,-106.635,-25.949,-22.043,19.568,-71.359,-34.101,-13.085,-59.575,-244.655,2
-23.562,-113.416,-410.051,-404.918,-25.093,-38.38,62.357,-78.803,-27.812,-30.376,-27.853,-17.627,-29.851,-20.19,-32.649,-40.107,29.782,7.174,-13.277,-6.921,-104.479,-20.8,-15.361,22.11,-59.505,-28.944,-12.559,-48.757,-245.948,2
-10.218,-92.298,-390.686,-380.435,-14.822,-19.386,57.171,-58.232,-12.927,-10.878,-13.481,-5.827,-13.427,-3.264,-23.395,-29.82,39.999,20.487,4.155,0.258,-93.104,-3.36,0.023,48.728,-57.396,-8.422,2.823,-21.556,-214.963,2
-9.184,-87.595,-382.098,-384.153,-13.783,-20.392,89.902,-65.346,-14.963,-8.818,-22.689,-10.432,-17.512,-9.409,-26.958,-32.352,32.786,14.831,0.052,-3.84,-94.548,-4.382,-2.538,49.704,-74.245,-7.902,3.332,-26.145,-216.285,2
-15.322,-97.241,-396.061,-391.965,-14.793,-29.081,57.537,-71.428,-27.756,-22.642,-31.887,-17.594,-30.303,-26.305,-29.492,-39.492,23.532,5.595,-16.342,-12.034,-99.576,-17.697,-14.319,31.211,-85.954,-22.238,-8.454,-36.365,-240.147,2
-12.233,-91.508,-384.394,-375.18,-8.631,-25.978,25.716,-61.623,-24.142,-19.545,-20.585,-11.941,-21.563,-15.521,-18.192,-32.793,31.193,17.373,-8.641,-8.435,-91.28,-16.143,-10.206,36.303,-65.888,-16.581,-2.81,-22.496,-225.05,2
-8.635,-81.17,-371.202,-368.144,-5.549,-23.902,58.478,-68.221,-12.847,-10.816,-13.904,-5.781,-12.832,-2.185,-11.002,-27.124,37.822,24.527,4.175,-0.23,-84.529,-4.343,-1.487,42.927,-40.719,-7.343,8.975,-16.839,-203.821,2
-15.798,-89.799,-386.2,-386.219,-13.228,-30.538,91.207,-84.035,-18.47,-19.515,-23.112,-11.923,-24.09,-8.843,-20.724,-35.294,26.001,9.646,-6.587,-5.865,-93.153,-12.536,-12.756,24.953,-46.314,-21.167,-0.255,-34.24,-213.351,2
-19.881,-99.443,-387.863,-396.079,-24.485,-35.119,58.841,-80.365,-29.21,-24.618,-30.261,-20.108,-32.775,-18.568,-33.511,-43.456,14.192,0.927,-17.339,-16.618,-99.72,-30.454,-24.526,13.657,-62.661,-33.954,-11.013,-44.964,-220.31,2
-8.59,-86.535,-369.032,-384.925,-21.387,-26.887,26.506,-63.89,-20.471,-13.323,-22.034,-13.428,-23.521,-14.451,-32.453,-37.777,23.399,14.246,-7.588,-8.404,-88.35,-20.69,-12.719,25.427,-56.963,-21.112,-0.244,-31.599,-214.966,2
3.714,-63.395,-353.806,-363.535,-3.435,-8.929,52.095,-46.92,-1.495,1.035,-4.593,0.418,-9.665,0.933,-17.564,-24.419,39.257,29.089,9.326,9.535,-72.892,3.409,3.688,43.332,-46.148,-0.599,16.15,-4.928,-203.993,2
2.685,-60.77,-348.329,-355.999,-0.357,-2.772,51.018,-42.263,-0.981,2.571,-4.076,-1.119,-9.656,1.957,-9.349,-22.346,36.657,28.035,8.804,9.013,-71.795,1.357,0.098,49.436,-60.958,1.963,16.646,0.712,-188.932,2
-2.953,-71.468,-357.715,-369.476,-12.14,-11.479,18.692,-50.93,-14.813,-6.653,-16.88,-7.778,-17.843,-11.365,-16.512,-29.496,29.448,19.81,-2.988,-0.217,-76.846,-10.94,-7.587,39.141,-78.828,-6.748,9.458,-15.17,-195.403,2
-2.95,-64.736,-357.357,-368.594,-8.542,-8.906,-3.356,-48.317,-13.773,-6.134,-10.715,-0.598,-11.165,-6.231,-15.984,-23.318,36.59,22.864,3.163,7.467,-71.134,-1.708,-1.431,33.466,-72.089,-3.155,13.547,-11.568,-205.454,2
1.152,-55.45,-335.483,-351.831,-2.386,-2.237,29.435,-48.269,-7.612,1.556,-1.483,4.013,-3.469,3.509,-7.258,-14.586,40.652,27.452,16.48,14.632,-65.939,7.003,3.693,42.654,-58.185,5.045,19.681,3.812,-189.879,2
-0.899,-65.641,-341.295,-358.14,-12.629,-16.067,62.193,-72.299,-20.412,-7.154,-14.802,-6.237,-15.761,-9.814,-12.374,-23.793,29.853,18.715,6.217,4.884,-72.534,-3.762,-3.995,39.025,-54.028,-0.083,12.489,-7.462,-189.177,2
-7.558,-73.772,-370.667,-371.101,-19.789,-28.346,29.856,-81.448,-32.687,-19.443,-21.447,-9.817,-25.479,-13.903,-21.071,-30.941,26.75,15.111,-3.011,-0.244,-77.072,-8.369,-7.065,26.691,-50.388,-6.231,8.378,-22.312,-207.431,2
-3.452,-71.649,-366.711,-372.267,-17.72,-25.756,-0.4,-72.145,-31.117,-15.325,-13.741,-4.172,-20.843,-3.643,-21.05,-27.837,29.284,19.194,5.189,4.367,-73.409,-3.238,-5.521,29.738,-54.948,-6.225,12.98,-18.191,-198.514,2
4.236,-78.237,-356.61,-383.678,-17.19,-29.829,32.388,-83.856,-32.623,-15.309,-18.338,-7.754,-22.359,-14.398,-22.566,-34.981,20.546,6.879,-1.476,0.264,-74.872,-11.944,-14.225,30.221,-70.775,-13.903,6.819,-22.271,-194.729,2
-1.916,-79.184,-366.5,-382.27,-10.513,-26.725,0.08,-81.723,-26.443,-16.319,-19.344,-9.283,-23.361,-20.019,-21.519,-39.557,17.451,-1.837,-11.721,-4.347,-76.846,-19.616,-16.772,19.944,-73.266,-19.524,-0.36,-26.86,-212.978,2
-6.525,-69.371,-362.547,-364.469,-8.965,-10.305,-32.195,-49.878,-7.973,-2.982,-9.079,-3.126,-14.116,-2.068,-15.862,-29.271,26.143,12.51,-1.463,1.293,-69.085,-10.888,-8.046,22.998,-68.069,-13.357,6.813,-15.562,-204.055,2
-6.006,-79.548,-360.647,-380.498,-26.375,-23.102,0.625,-65.198,-19.748,-12.713,-19.316,-10.807,-22.812,-6.677,-25.58,-35.902,21.506,10.448,-5.56,-2.807,-71.577,-13.438,-16.747,23.488,-80.809,-18.467,3.732,-21.694,-200.778,2
-13.172,-96.886,-377.705,-405.221,-36.082,-48.695,27.776,-97.408,-46.881,-37.804,-35.69,-20.018,-39.183,-26.65,-36.313,-50.723,10.726,-8.518,-19.899,-13.563,-82.264,-27.769,-29.538,9.632,-92.511,-29.719,-8.567,-42.677,-232.852,2
-8.036,-82.957,-366.569,-385.348,-17.603,-26.617,-4.527,-64.523,-27.879,-15.737,-17.724,-4.629,-24.286,-12.791,-19.37,-33.254,23.011,5.835,-1.948,-0.229,-67.325,-10.836,-12.09,20.893,-77.562,-14.32,5.786,-31.876,-226.472,2
12.977,-61.357,-338.026,-357.81,3.419,6.198,28.265,-31.67,4.937,17.067,5.86,11.257,1.353,6.177,1.141,-11.191,39.382,33.494,20.595,20.776,-43.692,14.791,8.414,47.512,-60.066,6.699,26.785,-9.815,-193.457,2
13.476,-61.808,-335.126,-353.354,8.026,-2.005,61.025,-57.254,-1.728,6.804,2.78,5.098,1.864,-7.149,-0.397,-15.791,35.244,28.337,13.402,17.681,-46.722,6.067,0.209,41.317,-52.321,1.057,21.635,-12.367,-185.067,2
1.68,-57.136,-327.106,-344.804,8.018,-3.028,33.299,-62.832,-10.436,6.285,2.265,4.069,-0.699,-12.777,-0.396,-17.312,33.16,20.625,12.364,12.54,-49.237,0.425,-3.377,30.005,-37.924,-0.994,15.978,-13.379,-200.764,2
7.313,-44.783,-311.922,-334.213,6.986,18.492,0.99,-29.982,3.92,25.746,10.46,12.262,3.4,8.24,5.752,-11.147,41.836,31.362,22.598,19.188,-38.941,14.769,7.384,45.856,-38.911,9.766,25.696,-1.07,-196.977,2
10.892,-52.423,-328.516,-339.514,-0.194,9.252,-16.941,-37.636,-3.257,10.863,0.716,4.052,-6.337,13.355,-2.963,-20.357,35.646,24.671,11.817,13.021,-45.562,6.558,-0.308,47.347,-68.074,3.096,21.572,-4.143,-201.39,2
7.295,-58.006,-332.286,-340.712,2.368,-7.151,-32.294,-53.993,-17.086,-2.98,-5.433,-2.099,-12.479,-0.491,-7.059,-24.435,24.34,10.302,3.608,5.323,-51.664,-2.67,-6.455,33.468,-65.444,-2.542,12.329,-7.213,-209.898,2
14.973,-42.579,-302.753,-331.662,19.272,9.762,-30.212,-32.422,-1.699,17.515,12.503,11.735,2.391,4.633,10.879,-8.529,32,20.025,21.536,19.15,-38.805,17.825,10.97,46.242,-32.591,14.366,23.587,4.065,-191.245,2
14.445,-43.049,-308.085,-335.941,13.617,9.24,2.606,-45.709,-0.673,14.424,10.954,12.236,1.364,12.313,10.356,-8.009,35.554,28.202,24.588,22.205,-38.254,20.368,13.008,56.954,-37.681,15.376,27.662,-1.062,-178.759,2
-2.988,-66.572,-340.053,-358.146,-15.598,-23.045,33.854,-77.939,-29.362,-16.329,-17.746,-5.707,-24.765,-6.655,-17.831,-28.493,20.149,11.268,0.997,0.666,-56.659,-5.267,-9.034,37.429,-69.919,-6.156,10.728,-20.528,-198.56,2
-9.645,-73.165,-336.126,-368.034,-21.73,-31.219,1.545,-67.615,-33.431,-20.923,-23.876,-10.825,-31.913,-20.481,-26.01,-37.174,13.469,1.523,-5.664,-8.556,-63.262,-9.873,-15.173,26.121,-66.263,-9.224,3.545,-20.508,-214.755,2
-4,-59.26,-322.47,-355.371,-2.753,-9.67,-30.732,-34.76,-15.467,-6.558,-9.508,-2.617,-18.049,-9.189,-10.103,-27.915,21.653,12.28,7.662,4.26,-52.953,2.945,-2.862,32.755,-33.409,1.032,12.251,-10.753,-203.782,2
-1.434,-52.028,-331.882,-345.282,4.422,3.147,2.086,-34.213,-9.816,0.109,-5.912,3.533,-11.371,-0.983,-2.408,-20.715,26.754,17.903,11.753,12.452,-41.117,6.528,2.776,37.333,-44.646,4.105,16.337,-11.767,-192.307,2
2.153,-50.951,-327.964,-344.424,2.881,3.144,34.872,-40.838,-5.195,4.207,-2.32,7.628,-8.285,-4.568,-2.918,-19.669,25.703,11.737,8.155,10.903,-38.514,8.571,2.261,40.882,-60.996,6.15,17.346,-10.219,-201.849,2
5.737,-48.339,-312.266,-345.104,5.952,3.141,49.182,-37.211,3.519,9.326,3.83,6.596,-3.154,-4.564,-0.353,-19.65,23.115,7.627,7.122,7.306,-43.086,6,0.21,39.304,-53.25,2.558,17.328,-4.573,-212.406,2
4.195,-44.704,-312.979,-346.296,7.995,8.773,16.857,-30.002,6.59,15.977,3.826,5.565,-0.589,-5.584,0.671,-19.118,24.117,9.156,4.553,8.323,-42.019,1.384,-1.84,35.166,-55.758,-6.154,17.311,-3.544,-201.435,2
2.141,-42.098,-315.74,-343.388,8.499,14.4,-13.386,-17.676,6.071,20.059,5.359,9.658,4.022,-7.115,1.183,-18.074,27.167,11.196,3.524,11.901,-37.366,3.944,-1.838,39.742,-60.826,-4.099,19.343,-5.59,-188.426,2
-1.959,-45.13,-316.448,-339.971,4.393,2.09,19.415,-31.491,-3.157,9.281,-0.281,5.55,-0.593,-1.985,-3.429,-21.642,22.016,7.599,4.033,5.742,-40.915,1.378,-3.373,39.19,-62.302,-1.533,16.25,-13.269,-195.922,2
-6.056,-51.745,-323.304,-345.266,-4.321,-11.745,44.499,-56.563,-14.425,-1.487,-12.577,-3.678,-15.961,-5.569,-10.085,-27.256,15.334,-1.118,0.443,-1.949,-42.411,-3.234,-4.394,34.54,-75.047,-4.093,10.598,-18.378,-203.41,2
-0.927,-48.619,-321.444,-347.995,-8.415,-3.536,12.179,-40.625,-10.312,1.076,-9.49,-2.137,-19.019,-15.297,-10.075,-27.741,16.856,-2.141,-3.656,0.102,-38.27,3.942,-3.878,36.042,-63.189,-0.503,15.198,-9.651,-198.084,2
0.611,-43.96,-314.463,-346.622,-8.407,2.615,-20.109,-24.19,-9.277,-1.487,-3.845,1.964,-13.365,-13.745,-11.09,-25.152,18.376,4.008,-6.214,0.615,-40.793,-0.161,-12.583,27.297,-39.047,-2.039,16.72,-7.08,-201.984,2
-1.951,-49.551,-313.636,-351.911,-9.935,-8.146,12.699,-50.294,-16.952,-8.145,-12.038,0.937,-14.888,-7.584,-16.202,-28.2,18.358,7.078,-9.282,-0.923,-44.851,-12.968,-18.718,18.561,-56.939,-11.259,11.068,-16.806,-208.442,2
2.662,-51.039,-309.736,-351.559,-8.388,-7.625,45.474,-57.928,-9.25,0.06,-10.489,1.961,-10.775,-3.99,-12.599,-27.66,26.024,8.096,-7.223,2.152,-42.757,-9.881,-11.015,28.788,-78.399,-10.735,10.544,-17.814,-196.963,2
1.635,-47.401,-315.574,-341.986,-6.331,1.092,13.153,-35.328,-0.02,7.744,-1.77,0.934,-2.567,0.112,-10.538,-24.046,31.121,12.186,-4.654,2.15,-42.714,-5.773,-7.418,31.321,-71.661,-8.163,8.997,-20.358,-193.18,2
-6.052,-54.526,-330.628,-340.62,-7.349,-1.471,-19.135,-31.195,-5.143,2.101,-4.842,-2.653,-5.126,-2.962,-17.699,-28.12,28.016,14.223,-8.236,0.611,-43.183,-11.403,-11.509,22.58,-82.86,-11.229,5.914,-34.682,-207.844,2
-3.484,-61.132,-324.662,-343.865,-8.879,-4.031,13.672,-37.823,-5.65,-1.487,-10.472,-1.626,-7.683,-11.155,-17.682,-35.777,22.865,8.061,-11.814,1.635,-42.628,-11.391,-14.059,23.07,-89.437,-11.218,11.031,-35.16,-209.173,2
-3.481,-61.071,-315.628,-346.083,-12.968,-6.589,46.446,-38.81,-6.669,-7.121,-13.023,-7.772,-10.749,-17.804,-18.176,-39.327,14.645,-4.242,-18.462,-8.613,-49.245,-17.528,-20.705,16.899,-64.244,-17.866,5.897,-32.563,-198.718,2
-14.748,-65.62,-326.071,-349.323,-17.054,-14.267,14.124,-43.382,-16.908,-14.798,-20.183,-14.936,-23.034,-23.422,-26.355,-40.313,7.458,-8.336,-23.567,-17.314,-52.782,-26.219,-24.782,6.636,-69.815,-29.632,-3.843,-43.801,-202.617,2
-7.561,-62.481,-323.183,-343.338,-15.5,-8.105,-18.166,-39.24,-12.793,-7.611,-18.113,-5.7,-19.937,-17.251,-22.23,-34.637,16.672,5.504,-11.76,-3.976,-43.508,-13.898,-13.999,19.437,-95.361,-21.917,7.944,-42.221,-203.439,2
6.791,-52.172,-308.515,-333.773,-15.484,0.1,14.64,-34.078,-0.485,-0.431,-6.824,1.478,-4.035,-1.864,-15.548,-26.405,30.488,16.257,-0.477,2.175,-39.878,-2.613,-7.837,32.226,-70.675,-8.575,16.646,-28.346,-189.916,2
-1.925,-55.706,-309.231,-338.05,-15.469,-10.146,47.413,-42.241,-4.583,-8.116,-9.891,-6.208,-8.642,-3.399,-23.729,-29.965,30.457,11.63,-9.699,-8.585,-45.474,-13.881,-12.44,23.996,-48.063,-15.739,5.358,-30.367,-185.627,2
-8.583,-60.774,-313.021,-347.958,-12.38,-16.796,15.09,-43.736,-11.751,-13.23,-18.078,-8.251,-20.929,-11.593,-25.755,-36.595,24.792,11.619,-16.349,-10.114,-45.428,-20.015,-13.453,21.411,-77.216,-21.871,3.304,-32.898,-195.176,2
4.746,-53.541,-313.22,-342.487,-11.855,-10.119,-17.2,-42.667,-13.276,-11.68,-12.937,-5.169,-17.322,-7.483,-16.508,-32.46,26.816,17.242,-7.111,-3.444,-40.772,-10.261,-9.853,28.05,-93.021,-13.14,11.497,-28.254,-199.591,2
11.401,-46.315,-309.32,-326.776,-5.183,-4.986,15.605,-47.235,-12.75,-7.058,-2.166,-2.09,-7.57,-4.914,-9.319,-22.181,37.548,20.299,3.655,5.781,-32.534,3.069,0.403,34.169,-65.263,-1.856,15.584,-26.689,-184.022,2
9.853,-37.559,-293.642,-318.764,7.63,1.167,3.806,-33.356,0.07,5.245,5.009,7.646,-0.903,-1.835,-0.6,-12.938,46.219,30.013,11.336,17.559,-23.793,15.874,12.186,45.406,-45.73,8.392,24.278,-18.466,-164.371,2
10.355,-36.497,-295.91,-328.179,1.475,-0.884,-28.473,-20.002,1.607,1.653,-3.706,5.589,-3.976,2.778,-3.674,-16.511,41.05,32.032,7.738,10.881,-31.453,11.247,3.464,41.774,-59.004,5.822,21.18,-14.349,-174.965,2
4.197,-51.317,-316.618,-335.023,-12.872,-11.641,-27.932,-33.815,-16.837,-14.742,-18.559,-9.786,-16.267,-10.545,-22.113,-30.839,29.738,15.094,-3.028,-3.987,-43.205,-5.67,-10.884,23.289,-78.925,-12.115,6.302,-27.142,-197.331,2
2.656,-47.68,-301.445,-320.344,-3.125,-3.433,4.883,-39.929,-10.673,-3.457,-8.806,-2.091,-10.616,-15.145,-16.455,-26.71,33.295,16.103,2.61,6.776,-31.379,1.508,-0.114,30.438,-71.162,-6.467,16.029,-19.943,-176.129,2
12.9,-25.091,-268.356,-308.753,9.174,8.354,37.666,-33.741,4.707,10.891,8.109,11.231,2.203,2.8,1.492,-10.801,41.971,30.432,12.854,19.577,-19.564,17.388,10.132,50.388,-55.721,14.032,31.895,2.107,-143.166,2
11.862,-31.213,-259.891,-315.616,-2.106,-5.999,5.353,-44.466,-12.716,-8.587,-5.22,-0.563,-12.656,-5.912,-7.219,-16.426,31.17,14.52,0.546,5.212,-31.84,3.026,-4.735,34.456,-66.936,2.747,17.518,-5.58,-136.875,2
3.653,-43.477,-242.724,-313.764,-7.74,-12.653,-26.928,-44.421,-23.974,-19.85,-17.51,-4.661,-24.427,-28.959,-17.97,-27.68,20.38,-2.401,-9.701,-4.014,-40.005,-10.297,-12.415,12.392,-70.456,-14.674,6.23,-13.771,-124.955,2
8.26,-22.942,-209.694,-290.396,4.564,4.266,5.887,-25.934,-8.581,-1.387,-4.684,7.639,-8.521,-17.66,-9.755,-18.943,28.045,13.995,-0.47,6.748,-31.768,0.471,-5.23,22.626,-56.553,-2.877,20.056,12.37,-92.042,2
13.375,-0.89,-177.209,-267.052,9.682,12.458,38.669,-20.785,-4.986,6.812,1.98,4.045,-3.389,-8.421,-8.209,-15.338,29.554,20.129,1.58,8.791,-30.2,3.545,-4.2,31.825,-62.132,4.811,25.159,41.559,-64.286,2
15.923,6.796,-144.244,-251.928,8.136,17.569,6.355,-13.592,0.142,7.83,0.954,-1.082,-7.484,-21.732,-8.713,-19.934,25.426,8.326,-0.983,4.683,-30.169,-2.094,-2.147,28.207,-52.336,3.269,23.085,56.887,-34.507,2
25.641,16.523,-111.312,-240.917,19.91,30.359,-7.996,2.816,18.585,21.654,10.687,13.776,6.868,-15.563,2.054,-11.717,39.232,20.613,7.727,11.339,-19.381,4.568,8.101,37.4,-21.033,10.951,32.283,57.855,-1.685,2
27.153,14.97,-99.418,-238.115,30.137,27.255,24.799,-7.945,14.468,22.657,15.287,18.373,13.009,1.359,4.614,-6.07,48.927,34.937,8.744,16.963,-15.775,9.174,8.605,44.535,-47.651,11.452,33.788,41.915,17.784,2
16.367,5.733,-114.175,-247.098,17.299,11.858,57.562,-32.016,-3.99,4.704,5.537,5.547,-2.374,-2.229,-4.1,-15.798,39.144,20.557,2.075,12.847,-22.419,6.603,-0.625,34.245,-79.879,6.317,26.582,34.701,-13.484,2
12.252,4.19,-134.041,-262.733,2.425,5.187,25.742,-36.595,-6.035,-2.986,-0.103,0.931,-10.056,-7.862,-5.12,-17.831,37.568,16.438,7.708,12.322,-23.422,12.232,2.45,30.624,-47.012,14.508,28.604,41.326,-45.746,2
14.289,-5.035,-163.621,-276.815,8.57,6.206,-6.559,-27.849,-0.906,3.165,3.483,7.077,-3.386,-3.755,0.008,-10.129,44.703,32.816,15.385,17.433,-19.3,18.368,9.107,36.229,-23.398,17.055,31.137,31.039,-64.144,2
14.275,-18.863,-195.22,-287.809,18.295,11.835,-38.828,-18.087,3.706,10.334,7.065,10.656,3.278,-0.678,4.106,-8.069,42.097,29.197,10.247,18.952,-20.305,14.763,3.975,26.971,-55.65,9.353,27.008,14.614,-84.059,2
15.797,-18.331,-210.907,-295.206,17.765,16.434,-45.449,-16.02,7.288,12.373,6.034,9.621,2.25,-1.189,5.127,-10.623,37.956,14.311,3.577,16.372,-23.359,11.162,-2.689,14.136,-64.304,7.807,24.419,11.013,-103.955,2
16.294,-18.825,-225.553,-297.472,11.087,8.733,-75.118,-24.713,-2.965,3.139,-0.12,2.439,-9.023,-7.848,-2.051,-16.76,35.357,15.833,-1.038,12.769,-26.409,3.467,-4.735,17.196,-65.777,3.188,20.808,1.781,-113.585,2
10.642,-28.54,-245.819,-297.687,-1.732,-4.083,-74.018,-32.373,-15.258,-8.647,-7.804,-4.223,-16.187,-13.476,-10.758,-24.94,31.735,18.379,-5.135,6.609,-28.432,-5.759,-6.78,20.765,-82.105,-3.987,15.665,-8.467,-125.767,2
3.972,-30.561,-250.697,-301.487,-11.464,-9.715,-41.156,-41.05,-14.218,-8.126,-10.358,-1.658,-10.535,-7.827,-12.796,-25.427,32.216,13.237,-3.593,1.992,-24.305,-2.679,-4.724,16.134,-63.067,-3.471,15.649,-3.336,-143.06,2
-2.18,-31.555,-252.495,-311.432,-4.793,-11.754,-22.16,-51.255,-11.642,-7.093,-12.397,-2.168,-13.086,-11.918,-14.32,-24.89,28.597,9.638,-8.2,-2.109,-22.744,-2.164,-4.207,13.044,-56.856,-8.59,9.486,-7.943,-156.237,2
-4.739,-41.257,-275.809,-322.391,-1.202,-13.279,-54.413,-46.593,-17.266,-16.308,-19.557,-11.9,-26.393,-30.861,-22.503,-35.623,19.347,2.968,-24.074,-11.328,-30.406,-17.531,-17.01,6.371,-89.075,-20.365,-1.282,-26.378,-168.376,2
-1.661,-42.241,-287.828,-321.044,-12.984,-10.192,-80.486,-32.202,-16.736,-14.242,-20.562,-9.839,-24.317,-28.269,-25.042,-39.174,22.402,2.453,-25.074,-12.854,-28.838,-21.1,-22.629,0.729,-91.547,-23.931,-0.257,-25.327,-173.843,2
0.902,-31.952,-266.024,-309.965,-13.995,-3.01,-47.618,-32.682,-6.473,-0.396,-10.295,2.979,-10.973,-9.285,-19.382,-26.839,31.089,15.258,-9.68,-2.595,-12.416,-8.783,-10.311,7.9,-60.717,-21.345,5.379,-14.544,-161.886,2
-1.66,-31.408,-264.733,-312.729,-5.784,-4.031,-46.034,-43.408,-8.004,-4.494,-10.797,-2.147,-14.548,-11.837,-17.825,-25.788,24.397,15.755,-10.695,-5.154,-10.354,-11.336,-10.813,10.454,-62.194,-22.348,1.788,-24.263,-163.773,2
-1.146,-39.574,-292.133,-322.662,-7.828,-13.761,-78.263,-45.413,-21.316,-18.322,-23.594,-15.465,-26.829,-22.584,-20.881,-37.033,20.275,6.518,-20.418,-13.346,-18.028,-19.009,-23.61,0.71,-65.205,-24.375,-1.288,-31.411,-187.688,2
-0.633,-38.509,-291.841,-312.606,-8.844,-9.649,-62.303,-36.146,-15.147,-8.57,-16.911,-6.74,-19.63,-12.315,-18.299,-30.848,30.501,14.708,-11.176,-0.012,-7.252,-10.281,-15.389,8.394,-55.406,-18.203,2.812,-19.084,-189.55,2
-4.73,-33.86,-278.741,-301.022,-4.225,2.656,-29.453,-33.549,0.75,8.857,-1.524,5.562,-2.192,-4.618,-12.645,-18.009,34.568,23.403,0.106,11.771,3.002,-2.074,-4.103,25.291,-65.597,-7.427,7.932,-20.09,-178.089,2
0.91,-40.486,-295.369,-312.504,-6.782,-1.957,-56.064,-42.737,-4.374,4.238,-8.183,-1.616,-3.727,-14.86,-12.12,-24.139,31.46,15.183,-2.968,2.538,-3.149,-6.17,-14.857,19.118,-86.536,-7.419,8.436,-31.853,-196.867,2
13.716,-41.47,-304.807,-319.877,-7.288,-7.078,-88.283,-36.034,-8.98,-2.939,-15.347,-6.225,-12.944,-13.308,-12.108,-27.701,37.064,16.192,-3.99,0.998,-1.609,-6.676,-18.429,12.952,-93.109,-10.486,8.94,-24.136,-209.477,2
12.166,-32.72,-289.645,-310.335,-0.62,-1.436,-55.407,-21.141,0.25,1.163,-6.11,1.466,-8.833,1.562,-11.071,-18.964,43.175,28.984,1.137,9.706,8.126,-4.108,-7.652,23.697,-77.647,-5.864,10.468,-18.477,-190.312,2
1.907,-41.909,-294.991,-319.759,-9.329,-14.242,-22.564,-44.174,-12.558,-7.548,-10.715,-3.147,-9.849,-0.488,-17.208,-24.581,33.91,22.807,-6.548,0.987,-0.079,-9.739,-14.816,18.038,-60.151,-16.105,2.261,-37.926,-191.147,2
-2.705,-61.334,-318.775,-345.567,-27.763,-35.233,-27.665,-76.405,-34.575,-22.909,-27.61,-17.488,-25.208,-18.931,-28.974,-37.364,21.581,6.903,-21.399,-12.846,-11.862,-19.463,-31.708,-2.472,-74.948,-34.019,-9.525,-50.696,-217.596,2
-3.727,-50.002,-316.919,-339.073,-18.001,-20.853,-59.912,-62.496,-22.245,-12.64,-20.923,-14.397,-24.671,-21.474,-23.822,-31.691,24.633,13.043,-16.254,-6.685,-2.116,-15.858,-22.967,4.702,-81.021,-23.227,-2.855,-34.763,-212.767,2
4.474,-23.312,-294.573,-309.02,6.095,4.271,-73.172,-29.646,-1.218,6.84,-2.459,-2.087,-6.715,-4.034,-6.892,-20.901,34.342,24.813,2.717,7.666,14.28,-0.473,-5.525,28.776,-48.152,-1.687,13.542,-14.749,-185.402,2
17.277,-21.24,-286.594,-301.027,5.577,5.804,-55.681,-26.543,-2.241,8.37,1.13,0.989,-2.61,5.192,-2.787,-20.368,33.795,23.764,6.301,11.757,19.389,7.725,-3.471,36.432,-44.518,-0.66,16.09,-9.611,-185.217,2
20.846,-23.268,-292.967,-304.312,4.034,5.798,-79.703,-30.615,1.347,11.436,4.715,5.599,-2.095,-2.498,-3.296,-13.687,38.372,31.425,9.368,17.38,24.493,12.328,-0.393,39.982,-75.211,5.488,18.123,-8.064,-200.913,2
17.239,-15.048,-297.285,-302.983,15.813,9.891,-63.23,-24.949,9.031,19.109,11.37,10.204,5.592,-4.545,3.367,-6.501,44.994,41.64,21.654,24.535,28.567,20,6.267,47.626,-72.575,16.753,24.765,-6.007,-203.274,2
7.488,-28.352,-307.746,-319.074,1.453,-5.488,-30.379,-44.391,-5.323,4.745,-2.473,-0.053,-4.66,-6.077,-5.345,-17.253,32.141,27.253,8.313,12.728,18.292,9.222,-5.522,34.771,-68.404,1.88,13.982,-19.833,-203.07,2
-3.278,-47.279,-319.221,-334.636,-19.041,-19.828,-46.742,-64.327,-19.15,-8.067,-18.865,-10.299,-21.562,-14.268,-18.66,-27.994,19.302,12.881,-11.163,-1.117,9.564,-6.669,-19.349,16.806,-80.631,-12.979,0.135,-37.232,-207.478,2
2.873,-32.888,-309.681,-319.445,-2.116,-4.951,-78.971,-40.184,-4.274,8.335,-7.575,-1.067,-9.757,-9.643,-5.834,-19.769,31.578,24.652,4.217,9.13,17.239,5.633,-7.034,24.986,-58.009,-2.208,9.357,-25.924,-205.221,2
10.554,-17.998,-295.026,-307.342,10.694,4.276,-92.724,-18.627,7.001,16.011,3.703,5.594,2.036,-1.436,1.857,-13.09,40.768,34.873,13.434,17.318,21.833,16.386,3.731,34.695,-35.409,2.918,15.495,-12.578,-202.967,2
1.835,-36.935,-307.539,-325.99,-7.247,-14.684,-59.844,-43.199,-11.449,-3.473,-11.157,-7.219,-13.848,-15.267,-19.662,-22.81,26.894,24.08,-8.096,2.443,12.077,-2.586,-10.105,19.803,-62.526,-10.405,1.135,-34.082,-213.522,2
-5.34,-54.317,-324.138,-340.521,-14.925,-24.915,-39.804,-65.697,-27.831,-12.179,-23.442,-15.921,-25.617,-30.109,-30.401,-31.497,15.085,9.711,-16.797,-6.781,5.405,-16.928,-24.439,5.951,-90.128,-19.616,-7.063,-54.541,-226.629,2
-4.822,-48.627,-322.277,-335.058,-7.225,-14.132,-65.38,-53.849,-21.144,-3.457,-16.246,-10.27,-20.981,-23.419,-22.686,-31.978,15.582,7.14,-12.682,-4.725,6.424,-14.862,-24.927,7.482,-93.112,-21.134,-2.445,-46.289,-233.062,2
-5.842,-42.431,-320.417,-328.575,-7.73,-12.069,-51.482,-44.061,-10.876,-1.405,-14.18,-6.673,-19.423,-16.735,-22.151,-30.921,19.152,12.768,-18.817,-9.843,6.418,-17.409,-23.878,10.036,-90.969,-21.113,-2.955,-33.947,-228.219,2
-6.861,-42.901,-319.072,-326.197,-12.845,-18.204,-18.643,-49.652,-11.378,-3.965,-20.826,-10.765,-19.403,-17.231,-24.69,-31.402,20.158,13.78,-19.823,-11.37,6.411,-20.465,-23.341,12.075,-84.218,-17.505,-5.002,-30.84,-211.084,2
-7.366,-40.296,-306.458,-324.334,-11.296,-14.088,-46.289,-47.553,-14.44,-2.936,-17.219,-11.267,-16.31,-17.726,-21.592,-30.859,19.113,10.692,-12.63,-4.186,11.016,-12.248,-19.732,16.161,-79.523,-13.902,0.127,-33.37,-204.213,2
-2.236,-34.62,-301.028,-315.813,-1.551,-1.266,-78.518,-31.112,-6.229,5.776,-5.419,-3.571,-12.195,-18.221,-14.398,-24.168,24.217,19.903,-3.396,3.503,19.714,-1.477,-10.491,19.219,-68.173,-6.716,6.786,-36.411,-219.378,2
8.525,-31,-308.924,-306.275,6.648,2.322,-49.238,-30.056,0.437,12.943,-3.364,1.044,-8.085,-15.641,-6.699,-16.459,29.828,27.568,1.73,7.597,20.719,1.598,-4.845,19.2,-45.563,-1.586,10.366,-34.325,-230.942,2
0.832,-42.752,-315.788,-320.314,-7.191,-16.636,-16.401,-61.789,-15.445,-2.952,-14.119,-8.691,-18.323,-17.162,-16.426,-23.615,20.577,15.245,-10.055,-1.632,8.403,-9.162,-13.549,15.595,-59.35,-12.343,1.134,-41.975,-234.297,2
-13.001,-56.029,-322.132,-344.584,-22.041,-33.013,-48.66,-79.658,-31.311,-19.855,-23.839,-17.904,-33.161,-24.83,-29.729,-35.374,8.773,9.594,-18.754,-12.901,-0.315,-16.837,-20.708,13.53,-91.566,-22.064,-9.626,-51.155,-239.186,2
-5.816,-46.239,-325.908,-339.629,-13.822,-19.148,-80.887,-53.963,-22.57,-9.589,-21.254,-12.763,-26.98,-22.755,-20.478,-31.753,15.424,20.343,-9.513,-6.228,2.247,-12.21,-15.564,12.492,-89.425,-14.357,-3.468,-38.296,-232.287,2
-4.785,-35.947,-321.996,-323.408,-9.71,-6.833,-59.801,-39.565,-14.351,-2.92,-17.134,-10.189,-20.293,-23.757,-16.359,-30.184,16.434,15.712,-14.627,-5.197,-0.317,-16.808,-19.647,4.794,-64.233,-16.392,2.17,-30.573,-222.32,2
-16.564,-47.694,-318.6,-326.67,-22.508,-19.122,-26.954,-58.481,-23.046,-13.675,-20.703,-17.863,-32.569,-37.054,-30.175,-38.351,1.56,-4.284,-32.031,-18,-8.001,-28.574,-31.41,-0.333,-73.902,-29.184,-8.078,-48.986,-232.344,2
-7.838,-50.208,-316.745,-326.856,-18.899,-21.152,-48.956,-59.447,-25.072,-9.563,-20.17,-15.284,-32.024,-34.967,-26.047,-34.214,0.534,-6.841,-28.413,-12.858,-4.407,-23.423,-28.305,6.839,-84.587,-24.031,-7.045,-50.986,-238.26,2
3.441,-36.325,-308.743,-315.258,-4.535,-8.836,-51.981,-46.067,-16.85,1.205,-12.978,-4.51,-18.672,-23.149,-14.237,-23.934,11.804,3.412,-18.138,-0.55,2.258,-12.129,-18.543,13.492,-64.522,-13.249,6.794,-35.054,-217.017,2
-7.833,-34.752,-304.336,-317.505,-9.142,-11.388,-19.141,-55.243,-15.808,-4.944,-13.477,-6.043,-22.239,-28.249,-23.445,-31.082,10.768,5.97,-19.657,-7.21,-1.843,-14.678,-20.061,12.454,-53.187,-15.285,5.763,-33.482,-207.066,2
-10.9,-40.865,-303.007,-324.872,-20.403,-19.062,-21.171,-64.409,-20.916,-12.623,-22.173,-17.307,-31.951,-34.369,-30.594,-39.248,2.048,-0.183,-26.297,-14.887,-7.989,-22.86,-27.726,9.368,-72.602,-19.88,-5.514,-38.059,-224.277,2
-1.155,-40.824,-299.63,-320.961,-20.383,-16.481,-53.425,-50.512,-19.87,-10.049,-23.687,-19.851,-30.894,-33.822,-24.928,-33.061,0.509,-2.745,-31.394,-11.286,-5.419,-25.399,-30.772,4.748,-82.263,-22.422,-4.484,-34.435,-231.225,2
-4.74,-40.271,-304.966,-318.591,-19.338,-16.464,-74.889,-42.265,-15.752,-6.965,-17.004,-15.221,-26.765,-37.374,-23.878,-30.466,7.168,4.943,-26.24,-7.689,-0.803,-19.226,-24.081,5.768,-63.738,-20.35,1.156,-29.789,-224.846,2
-10.883,-44.841,-321.567,-328.518,-22.905,-25.157,-48.686,-56.055,-21.884,-11.569,-19.548,-15.718,-27.763,-37.337,-26.416,-36.584,11.772,12.622,-18.529,-6.656,-2.852,-13.571,-18.934,9.348,-62.649,-14.182,1.155,-30.784,-236.917,2
-8.31,-54.018,-329.443,-337.923,-26.98,-32.304,-41.465,-71.368,-33.645,-21.804,-30.287,-20.825,-37.469,-31.664,-27.926,-38.084,10.223,7.999,-25.682,-11.26,-8.997,-20.218,-26.6,3.703,-89.227,-19.291,-2.432,-45.098,-252.049,2
-8.814,-59.087,-322.453,-335.536,-27.978,-30.735,-51.158,-67.198,-33.099,-23.831,-30.769,-21.317,-43.579,-27.022,-30.972,-35.997,9.701,3.38,-30.78,-14.835,-10.012,-26.345,-31.696,1.138,-89.65,-26.956,-4.991,-55.299,-239.502,2
-9.83,-49.807,-314.958,-325.467,-24.876,-24.044,-55.717,-55.348,-23.844,-15.61,-23.566,-18.734,-36.875,-25.458,-31.454,-38.522,9.691,6.963,-24.089,-11.234,-6.416,-23.245,-27.566,7.285,-63.945,-21.806,-2.425,-42.948,-224.405,2
-5.209,-44.121,-312.082,-328.215,-25.363,-21.459,-50.026,-56.317,-20.234,-13.033,-23.03,-17.691,-30.178,-30.555,-30.91,-39.508,6.095,6.956,-26.114,-13.272,-7.434,-24.246,-28.563,5.228,-63.368,-21.785,-1.398,-36.245,-226.743,2
-3.155,-53.811,-308.696,-340.182,-29.437,-23.487,-36.144,-59.335,-20.726,-15.582,-26.081,-18.185,-30.661,-30.525,-32.416,-35.37,7.114,2.85,-32.748,-17.358,-9.476,-29.857,-32.633,-0.925,-82.773,-30.984,-9.081,-49.017,-224.979,2
-7.763,-60.417,-307.875,-341.379,-30.432,-28.586,-22.788,-60.3,-26.341,-18.64,-28.617,-20.216,-33.191,-24.859,-34.945,-37.384,9.668,1.311,-33.74,-14.266,-10.491,-34.438,-37.211,-3.998,-84.227,-37.613,-15.22,-58.702,-222.705,2
-11.853,-60.869,-311.666,-335.402,-30.914,-38.291,-4.834,-73.56,-35.536,-25.281,-32.174,-22.758,-37.769,-31.494,-37.984,-43.495,5.048,-1.252,-35.755,-18.351,-11.505,-35.941,-41.272,-9.117,-74.409,-40.65,-15.204,-63.766,-230.679,2
-8.768,-56.197,-311.354,-330.456,-27.809,-35.692,4.392,-78.609,-31.402,-24.232,-27.531,-21.198,-34.145,-35.049,-32.823,-40.377,6.58,-2.276,-29.06,-19.357,-7.908,-28.22,-32.522,-3.985,-78.945,-31.9,-10.578,-56.53,-230.448,2
-3.636,-46.407,-303.358,-322.441,-20.096,-22.336,-27.888,-59.575,-21.125,-14.473,-23.405,-18.103,-27.963,-26.817,-25.618,-34.701,10.671,-0.224,-21.346,-10.116,-5.85,-20.507,-25.317,5.753,-90.137,-20.597,-6.982,-39.055,-227.144,2
-9.78,-50.459,-302.542,-324.168,-24.175,-24.875,-60.135,-53.368,-25.714,-19.582,-31.066,-22.183,-36.132,-33.45,-34.814,-38.765,2.464,-2.785,-31.059,-15.229,-13.529,-27.659,-38.1,-6.548,-80.825,-31.335,-14.147,-46.188,-241.261,2
-17.455,-59.118,-312.486,-334.09,-30.811,-33.559,-56.489,-66.122,-29.787,-25.198,-30.523,-23.698,-40.707,-38.54,-39.389,-38.726,4.511,-5.344,-31.54,-18.8,-13.003,-29.168,-36.525,-14.226,-64.863,-36.427,-17.719,-58.95,-250.242,2
-8.216,-45.739,-314.735,-322.997,-16.435,-19.694,-47.211,-57.347,-13.363,-8.267,-15.123,-13.428,-22.223,-18.521,-20.395,-26.905,23.974,5.42,-15.114,2.224,2.379,-12.745,-14.971,7.305,-72.483,-16.41,-0.283,-40.96,-229.499,2
0.502,-35.96,-306.736,-310.379,-5.66,-7.891,-43.065,-42.433,-3.616,2.5,-10.497,-6.755,-14.516,-13.379,-13.202,-24.316,24.974,10.537,-21.247,3.758,5.963,-13.245,-21.616,11.909,-83.169,-16.906,5.865,-35.796,-209.29,2
-9.233,-53.854,-314.113,-331.073,-22.561,-22.74,-30.214,-57.247,-21.031,-15.945,-25.856,-20.58,-34.994,-36.42,-33.169,-39.149,6.506,-8.429,-43.255,-23.91,-8.9,-37.823,-45.161,-14.743,-78.475,-41.992,-14.121,-58.302,-221.888,2
-14.346,-60.461,-323.533,-345.599,-33.297,-32.451,-29.672,-70.51,-31.768,-22.589,-32.49,-30.293,-42.131,-42.531,-41.333,-44.233,2.914,-19.691,-40.138,-23.374,-12.99,-40.346,-37.431,-17.29,-83.519,-42.463,-20.254,-58.244,-241.646,2
-0.5,-41.445,-306.304,-324.761,-18.406,-17.562,-30.155,-51.996,-13.806,-2.587,-16.064,-14.894,-20.06,-24.558,-25.41,-28.819,14.694,-3.79,-20.63,1.753,1.88,-17.252,-16.901,7.318,-82.411,-21.416,-2.816,-41.279,-232.695,2
1.55,-39.354,-294.726,-317.264,-12.24,-8.835,-15.267,-44.26,-4.571,1.002,-6.826,-6.17,-15.429,-21.459,-21.286,-25.204,17.753,2.874,-23.171,-2.348,4.44,-19.284,-25.081,4.237,-62.861,-19.857,-1.276,-47.898,-217.093,2
-13.821,-56.221,-316.973,-340.001,-21.962,-25.22,-27.035,-66.757,-25.571,-23.078,-27.312,-24.607,-38.98,-40.906,-38.171,-42.598,6.464,-12.498,-45.177,-25.911,-11.446,-44.88,-45.548,-21.383,-74.069,-41.867,-19.205,-57.071,-230.196,2
-14.832,-56.677,-325.366,-342.222,-23.477,-32.879,-54.673,-71.813,-35.279,-29.714,-35.994,-28.681,-44.576,-45.476,-40.182,-46.653,2.36,-15.047,-47.181,-25.373,-11.435,-43.298,-42.941,-20.337,-93.463,-46.948,-20.723,-48.817,-246.36,2
-2.009,-42.788,-304.036,-322.925,-14.744,-15.94,-42.835,-51.249,-16.8,-10.729,-15.465,-9.184,-24.039,-22.889,-19.649,-29.701,16.702,-0.175,-23.055,-6.392,7.02,-17.64,-22.406,3.25,-70.315,-25.896,-4.308,-42.621,-227.67,2
-4.056,-47.868,-308.855,-327.725,-17.291,-15.924,-11.542,-57.346,-13.198,-9.694,-12.888,-9.175,-20.429,-13.644,-14.507,-26.597,26.419,1.874,-17.909,-5.874,5.476,-15.573,-18.285,4.783,-58.974,-21.26,-5.329,-53.849,-207.975,2
-17.885,-65.239,-333.136,-343.791,-30.081,-36.913,-7.431,-80.854,-31.115,-27.103,-31.831,-24.535,-37.315,-29.512,-32.423,-39.89,17.683,-9.398,-38.384,-23.286,-10.411,-34.513,-33.636,-14.177,-84.531,-39.169,-20.693,-68.14,-222.624,2
-21.965,-62.1,-326.656,-331.664,-29.027,-34.314,-38.163,-67.966,-30.572,-25.539,-29.237,-23.486,-40.864,-38.192,-34.952,-44.461,8.444,-14.512,-43.468,-26.337,-10.401,-37.552,-38.213,-17.236,-90.594,-38.105,-21.184,-60.899,-238.795,2
-9.648,-40.008,-300.714,-306.742,-14.653,-12.251,-70.4,-38.696,-15.684,-10.144,-14.351,-16.802,-29.552,-33.03,-19.035,-34.171,15.096,-8.862,-30.105,-11.454,-0.657,-23.17,-24.343,3.273,-80.769,-21.673,-11.429,-37.785,-225.236,2
1.633,-28.698,-289.142,-299.775,-10.54,-9.165,-47.276,-42.244,-15.668,-10.134,-14.849,-16.786,-22.35,-26.337,-15.943,-23.89,26.864,-1.681,-22.903,-3.245,4.979,-12.9,-15.609,15.053,-74.029,-15.504,-8.856,-27.501,-210.154,2
-9.128,-43.013,-295.513,-315.357,-20.776,-26.062,-14.441,-63.719,-24.362,-22.419,-24.568,-18.818,-28.988,-20.163,-26.173,-31.551,22.226,-4.241,-31.077,-12.976,-0.149,-22.621,-26.352,-3.405,-71.393,-25.222,-14.483,-43.867,-219.166,2
-29.611,-66.024,-315.197,-338.095,-32.538,-40.38,-40.041,-70.315,-32.535,-30.594,-33.765,-27.509,-42.279,-32.439,-36.393,-48.938,3.761,-20.118,-47.952,-28.332,-13.468,-43.603,-47.33,-30.554,-96.425,-47.226,-26.251,-72.512,-236.877,2
-25.995,-65.958,-324.616,-335.708,-35.579,-34.705,-72.277,-60.511,-34.039,-26.465,-33.731,-31.067,-40.187,-48.8,-37.893,-45.815,1.195,-26.246,-49.953,-26.767,-13.967,-44.072,-47.795,-25.913,-110.673,-53.327,-29.299,-82.174,-236.128,2
-8.55,-45.912,-309.435,-305.146,-27.347,-18.276,-41.466,-49.692,-20.173,-16.704,-21.402,-19.765,-26.827,-38.505,-30.683,-30.4,14.002,-13.412,-32.484,-10.859,-1.146,-23.536,-27.255,-5.907,-77.774,-33.294,-15.95,-63.136,-214.887,2
-9.567,-45.866,-302.977,-298.693,-24.758,-24.405,-8.637,-57.839,-14.005,-18.224,-19.844,-18.209,-27.313,-28.22,-32.702,-33.956,11.939,-8.275,-30.403,-11.36,-3.706,-24.537,-28.252,-12.049,-66.938,-32.748,-14.909,-54.876,-208.012,2
-12.631,-58.628,-313.433,-316.325,-29.344,-35.652,-27.071,-67.515,-25.774,-25.379,-27.509,-26.9,-32.409,-38.438,-38.304,-41.094,4.242,-12.878,-41.131,-21.082,-11.899,-40.394,-42.057,-28.943,-97.61,-51.158,-27.19,-69.678,-226.248,2
-0.323,-44.225,-304.41,-302.689,-16.507,-13.075,-59.32,-41.832,-16.014,-12.033,-15.698,-17.139,-21.618,-30.203,-22.384,-27.733,18.582,-0.569,-27.77,-8.254,0.92,-27.033,-27.67,-17.131,-85.729,-37.275,-15.892,-61.924,-223.972,2
4.801,-22.664,-281.052,-279.845,-2.146,5.894,-37.743,-19.249,5.006,4.885,-0.313,-3.289,-11.862,-13.267,-4.944,-15.41,32.909,12.751,-12.373,5.587,14.239,-5.489,-9.711,0.817,-61.053,-14.696,2.567,-35.222,-197.108,2
-4.426,-31.35,-280.259,-290.836,-15.976,-11.531,-4.918,-42.283,-5.245,-6.903,-10.047,-10.971,-17.998,-24.012,-16.722,-25.129,22.629,-0.582,-25.68,-7.226,7.053,-15.73,-21.485,-4.819,-79.947,-24.927,-6.657,-37.748,-197.936,2
-5.958,-42.59,-292.786,-300.279,-25.694,-20.228,-34.627,-55.049,-20.096,-21.241,-19.771,-20.694,-24.64,-32.697,-27.463,-35.35,13.385,-12.364,-36.925,-14.391,-1.663,-29.034,-30.685,-14.548,-87.039,-36.686,-16.384,-52.567,-219.255,2
0.708,-33.326,-290.956,-283.584,-8.762,-4.327,-66.868,-31.94,-7.781,-8.924,-8.992,-13.501,-20.517,-18.832,-15.653,-25.58,22.593,0.456,-23.568,-1.569,4.998,-16.198,-22.457,-9.41,-58.775,-26.403,-3.048,-45.855,-210.838,2
4.293,-28.682,-284.518,-276.641,-3.118,-0.224,-42.722,-28.322,-0.601,-0.206,-3.86,-9.389,-14.861,-15.227,-12.051,-17.358,26.669,7.115,-17.397,3.043,13.702,-7.472,-19.361,-4.278,-47.446,-18.179,6.177,-38.637,-198.844,2
6.338,-37.874,-297.553,-289.172,-16.947,-10.982,-34.995,-45.712,-12.896,-14.038,-15.127,-18.089,-20.994,-32.118,-24.847,-28.099,13.323,-11.335,-31.212,-8.743,9.078,-20.785,-28.563,-17.081,-67.378,-26.358,-7.149,-50.894,-219.138,2
4.795,-42.96,-316.211,-297.592,-18.467,-19.68,-52.891,-49.765,-19.03,-22.221,-20.235,-22.169,-29.17,-41.82,-26.359,-35.243,4.6,-20.545,-37.329,-14.882,-0.665,-29.473,-34.682,-28.335,-93.439,-37.09,-15.851,-59.552,-222.505,2
1.716,-38.818,-305.136,-294.22,-10.764,-18.124,-20.05,-51.252,-13.888,-14.002,-13.043,-15.487,-20.944,-30.507,-13.525,-22.913,16.379,-3.106,-23.971,-6.158,3.947,-19.198,-26.963,-13.45,-100.005,-31.93,-3.54,-46.172,-191.544,2
2.227,-33.144,-282.802,-297,-12.802,-11.445,12.758,-58.373,-10.288,-10.914,-9.443,-12.91,-14.263,-15.62,-11.974,-18.279,25.584,9.193,-18.312,-0.004,10.09,-10.469,-19.764,-3.703,-87.098,-21.652,0.562,-37.417,-192.889,2
-2.899,-40.796,-295.327,-313.609,-22.011,-23.217,-19.531,-62.925,-18.475,-23.711,-21.217,-23.655,-31.155,-26.363,-27.332,-32.605,12.238,-9.772,-35.712,-13.836,0.859,-23.266,-36.138,-27.777,-82.912,-33.413,-17.882,-55.31,-224.972,2
-11.093,-51.513,-316.548,-321.493,-30.186,-40.612,-51.786,-65.424,-30.24,-34.958,-31.442,-31.316,-42.394,-47.341,-37.038,-40.257,-0.582,-25.131,-47.459,-25.606,-6.827,-38.612,-46.86,-44.656,-83.854,-48.237,-24.011,-60.89,-228.845,2
-0.323,-37.629,-301.887,-302.728,-25.033,-23.666,-18.947,-52.038,-18.426,-23.652,-19.115,-21.039,-26.47,-36.023,-26.243,-29.458,13.251,-8.712,-29.994,-11.748,4.451,-26.278,-25.296,-25.143,-62.765,-33.844,-5.544,-31.628,-203.513,2
13.51,-20.686,-278.532,-283.47,-8.101,-3.662,-3.047,-32.006,-0.989,-8.259,-4.239,-10.772,-17.735,-17.031,-12.384,-20.207,27.582,7.69,-15.619,1.072,15.205,-8.321,-12.463,-6.675,-48.87,-16.904,3.683,-21.35,-198.699,2
1.201,-32.96,-282.352,-290.871,-9.118,-19.54,-19.437,-42.22,-15.845,-19.522,-15.506,-20.495,-30.012,-30.334,-15.958,-27.36,16.284,-7.175,-28.923,-10.2,6.48,-19.071,-28.845,-13.328,-76.998,-25.084,-8.616,-52.067,-204.136,2
-16.219,-45.735,-292.315,-302.363,-22.429,-32.328,10.296,-63.183,-29.662,-33.334,-28.81,-27.646,-35.105,-49.259,-25.163,-35.529,2.948,-22.024,-38.628,-17.362,-3.772,-33.909,-35.476,-23.561,-99.975,-36.33,-15.268,-62.774,-196.759,2
-10.055,-33.906,-289.974,-294.376,-18.82,-17.951,26.167,-52.874,-12.214,-20.493,-18.535,-18.91,-24.824,-45.624,-17.454,-31.395,10.117,-11.244,-29.368,-9.148,-0.695,-27.728,-28.268,-24.562,-79.895,-35.269,-9.617,-41.194,-193.489,2
0.201,-27.725,-288.147,-286.397,-11.629,-13.835,-6.134,-38.988,-8.615,-12.788,-12.881,-18.378,-22.75,-38.918,-12.825,-29.827,17.279,-4.573,-29.339,-10.163,1.868,-25.651,-29.264,-26.587,-68.544,-34.721,-10.12,-34.493,-206.103,2
-5.434,-37.943,-289.396,-295.845,-22.376,-26.116,-28.157,-53.294,-29.099,-27.12,-26.701,-29.631,-36.047,-39.904,-31.256,-39.019,11.114,-18.4,-41.605,-19.375,-5.819,-34.847,-31.797,-29.634,-96.14,-38.273,-15.233,-42.143,-210.508,2
-6.966,-38.417,-281.934,-304.77,-30.55,-27.627,-4.051,-60.925,-28.558,-31.704,-29.748,-28.064,-39.597,-38.839,-36.86,-38.98,13.665,-17.357,-37.977,-16.794,-5.813,-31.738,-29.716,-23.969,-102.192,-35.161,-14.705,-41.588,-199.026,2
-0.811,-32.231,-274.48,-294.732,-16.175,-17.353,-16.854,-48.057,-13.672,-21.426,-16.91,-17.79,-26.75,-34.702,-15.306,-27.67,28.508,0.079,-26.156,-9.605,4.439,-21.46,-28.149,-15.236,-69.302,-29.49,-13.154,-42.059,-192.68,2
-5.421,-34.761,-283.939,-290.851,-5.913,-18.873,-10.178,-57.23,-19.806,-22.941,-16.381,-18.285,-24.674,-31.594,-10.168,-28.154,28.992,-3.508,-29.204,-11.644,4.947,-22.463,-25.559,-15.733,-58.474,-29.973,-12.116,-45.091,-196.073,2
-9.514,-37.287,-294.414,-304.905,-19.227,-29.612,22.62,-78.69,-30.032,-30.603,-23.537,-21.852,-32.846,-30.025,-23.477,-34.786,21.278,-15.287,-35.834,-14.194,-0.181,-24.49,-26.046,-14.693,-90.691,-27.381,-9.03,-41.972,-192.803,2
-0.283,-27.516,-279.775,-301.526,-22.282,-20.873,-9.678,-55.557,-17.195,-21.863,-15.317,-16.707,-26.154,-28.97,-17.819,-28.091,29.454,-5.026,-25.552,-7.008,7.504,-17.293,-24.483,-2.383,-82.916,-17.62,-5.435,-33.221,-185.95,2
2.279,-14.681,-262.589,-275.097,-2.792,2.714,-41.943,-22.714,3.315,-5.96,-1.469,-9.006,-12.807,-27.405,-2.944,-17.817,41.208,3.688,-18.355,-0.853,15.181,-11.64,-15.237,1.206,-50.045,-14.529,-1.843,-24.478,-183.715,2
-5.408,-19.789,-272.572,-277.383,-2.277,-3.949,-9.114,-38.061,-3.349,-10.052,-7.103,-12.071,-18.43,-33.525,-9.601,-25.484,30.92,-11.684,-31.656,-8.537,7.481,-21.363,-19.32,-11.603,-67.926,-24.248,-5.427,-32.651,-186.605,2
-8.989,-40.774,-291.767,-306.82,-24.304,-33.659,23.683,-70.298,-30.497,-32.584,-24.514,-24.867,-34.805,-45.787,-25.985,-41.34,13.983,-27.554,-44.432,-19.287,-4.822,-34.149,-36.207,-21.838,-100.134,-33.445,-16.18,-53.623,-201.788,2
-12.054,-43.295,-294.037,-305.488,-25.304,-33.113,-8.616,-63.055,-32.004,-35.625,-27.051,-30.477,-38.869,-46.766,-29.033,-41.299,14.994,-24.453,-40.289,-18.755,-6.866,-33.09,-37.196,-19.766,-95.423,-33.412,-19.238,-53.569,-208.246,2
-16.653,-23.784,-285.034,-282.641,-11.446,-8.489,-40.883,-33.278,-9.943,-15.609,-16.266,-20.2,-27.047,-36.473,-23.881,-31.524,25.737,-10.596,-31.54,-12.076,-1.737,-26.397,-28.449,-15.136,-62.54,-30.305,-13.071,-37.634,-193.693,2
-14.587,-23.248,-279.626,-286.457,-15.533,-8.481,-8.054,-37.344,-8.396,-15.594,-16.762,-15.57,-20.872,-34.387,-23.345,-32.004,28.273,-5.462,-31.508,-14.114,-1.222,-28.932,-30.47,-16.658,-59.915,-33.86,-16.644,-37.084,-199.135,2
-9.961,-37.569,-284.469,-298.978,-23.715,-24.866,24.229,-53.7,-22.22,-30.435,-22.893,-23.239,-28.536,-37.426,-24.346,-36.071,25.171,-13.654,-35.063,-19.223,-0.709,-30.953,-32.489,-16.641,-92.131,-35.363,-18.165,-39.096,-214.817,2
-6.877,-28.823,-279.062,-285.359,-13.445,-22.28,26.766,-52.109,-16.562,-21.183,-12.111,-17.58,-24.409,-28.167,-16.637,-26.301,28.22,-11.591,-29.905,-9.982,9.026,-21.188,-24.772,-4.329,-86.403,-22.008,-3.289,-27.274,-183.864,2
-0.723,-9.326,-255.729,-272.266,-4.21,-8.937,16.494,-45.397,-6.812,-7.842,0.708,-5.267,-10.552,-18.405,-8.423,-17.565,34.339,-1.333,-19.629,3.86,15.164,-12.457,-17.062,6.434,-63.775,-11.74,3.374,-20.074,-152.942,2
2.864,-13.415,-253.424,-288.388,-12.915,-12.515,-1.454,-46.889,-12.953,-19.617,-4.928,-10.385,-16.177,-27.608,-12.001,-24.72,32.255,-7.992,-22.683,-0.242,8.489,-15.519,-18.07,-0.745,-79.081,-19.925,-3.802,-28.251,-178.404,2
-3.799,-27.234,-276.224,-308.079,-24.173,-26.334,21.089,-57.088,-22.161,-30.356,-16.706,-21.645,-28.969,-40.389,-23.26,-31.355,20.44,-22.329,-34.443,-14.074,3.87,-23.7,-25.224,-8.429,-102.056,-27.077,-7.896,-38.469,-194.107,2
-17.627,-33.867,-288.756,-305.21,-25.685,-27.845,15.433,-64.203,-25.725,-30.326,-22.837,-26.234,-31.501,-42.397,-29.384,-34.91,10.174,-26.405,-41.581,-19.695,0.28,-29.312,-31.859,-11.494,-91.707,-31.149,-14.549,-44.578,-183.155,2
-24.782,-42.542,-295.639,-300.294,-28.734,-24.231,-16.858,-58.504,-27.749,-36.443,-27.937,-32.868,-38.642,-53.626,-29.867,-46.658,4.016,-33.038,-49.224,-26.848,-7.405,-37.992,-38.999,-26.852,-79.32,-45.975,-25.293,-50.682,-207.05,2
-12.974,-46.598,-300.979,-305.117,-31.266,-28.305,-7.107,-53.322,-25.672,-38.456,-27.397,-35.397,-44.239,-67.404,-31.374,-49.173,2.987,-40.178,-54.298,-30.407,-3.299,-43.077,-42.034,-32.461,-84.364,-49.515,-19.12,-51.143,-228.872,2
-1.178,-33.231,-283.26,-299.176,-21.501,-26.228,25.688,-54.293,-21.035,-27.659,-19.685,-27.164,-34.461,-54.529,-27.245,-37.853,8.619,-28.867,-40.411,-18.081,9.512,-30.226,-31.746,-11.936,-82.743,-31.022,-5.268,-38.284,-195.856,2
-5.275,-23.977,-266.582,-289.655,-13.283,-12.881,16.953,-46.042,-14.867,-18.922,-15.054,-22.014,-27.254,-33.983,-16.971,-31.668,14.246,-15.518,-30.125,-9.354,8.99,-16.876,-23.005,-2.702,-79.074,-20.233,-4.751,-30.049,-173.631,2
-3.733,-28.051,-272.464,-293.976,-16.856,-6.721,-15.34,-37.287,-8.704,-13.268,-11.966,-20.968,-24.665,-35.998,-14.393,-29.075,16.281,-12.941,-34.706,-11.394,6.932,-21.47,-30.666,-9.36,-85.655,-22.774,-7.82,-38.216,-194.462,2
3.955,-27.511,-274.753,-297.781,-17.864,-10.813,17.463,-46.984,-10.232,-13.767,-9.904,-19.41,-19.005,-42.109,-19.501,-26.996,18.314,-12.415,-35.183,-10.87,11.023,-27.084,-32.685,-9.35,-87.618,-23.776,-6.787,-40.227,-208.612,2
-5.27,-29.533,-280.113,-300.045,-21.432,-19.511,6.687,-60.769,-24.054,-27.585,-20.653,-27.587,-29.232,-43.092,-24.605,-37.215,13.173,-18.551,-37.71,-17.519,6.914,-29.618,-30.603,-18.562,-85.994,-30.412,-11.391,-36.601,-209.94,2
-11.925,-38.212,-297.252,-306.917,-26.533,-29.225,-25.595,-62.757,-36.838,-36.779,-28.829,-33.707,-44.572,-44.586,-25.605,-46.912,5.475,-24.168,-44.844,-21.6,5.37,-32.662,-37.233,-27.253,-93.08,-34.48,-13.941,-42.712,-209.73,2
3.456,-25.879,-289.27,-297.389,-14.212,-22.536,-22.495,-56.035,-29.116,-25.984,-13.943,-21.378,-33.257,-32.758,-14.309,-30.471,16.228,-9.287,-27.381,-4.673,18.685,-16.748,-22.851,-2.635,-92.987,-16.515,-1.12,-34.472,-190.565,2
11.137,-6.897,-261.316,-282.747,1.172,-5.095,10.315,-46.757,-13.718,-13.663,2.977,-10.598,-16.318,-16.844,0.563,-14.047,30.556,9.166,-5.837,8.652,27.375,5.298,2.275,16.323,-68.303,0.92,11.689,-16.507,-172.956,2
4.978,-11.501,-256.956,-286.05,-3.44,-2.016,-11.212,-40.05,-10.118,-12.112,0.412,-12.125,-16.301,-18.876,-1.487,-20.181,28.477,8.132,-10.954,5.057,25.299,3.756,-4.387,4.011,-45.694,-3.179,8.091,-22.126,-182.517,2
5.998,-18.15,-267.458,-285.764,-11.634,-5.6,17.488,-41.547,-11.645,-11.588,-6.248,-12.113,-16.285,-22.956,-12.756,-24.259,25.374,3.001,-15.554,2.491,24.249,-4.445,-16.678,4.007,-57.431,-6.25,0.399,-28.764,-192.581,2
0.357,-21.718,-277.436,-289.064,-15.72,-12.767,50.258,-50.727,-14.707,-18.748,-12.902,-19.273,-20.367,-30.105,-20.428,-25.772,17.664,-3.662,-20.149,-5.709,16.027,-12.125,-16.149,6.052,-86.575,-10.855,-2.676,-25.661,-194.95,2
-16.55,-39.115,-294.577,-312.341,-23.902,-27.099,17.933,-54.775,-23.914,-31.537,-25.184,-33.598,-34.691,-52.617,-29.117,-40.603,-0.797,-19.54,-41.133,-22.609,2.691,-31.581,-32.527,-19.569,-98.784,-31.336,-12.919,-42.029,-207.05,2
-15.509,-43.686,-297.869,-316.127,-20.291,-24.51,-14.361,-40.375,-23.378,-27.92,-23.11,-27.929,-31.583,-54.101,-26.526,-42.611,1.254,-20.545,-42.117,-20.025,6.787,-34.623,-42.74,-28.771,-92.537,-38.989,-21.103,-51.721,-212.991,2
-7.296,-32.372,-283.226,-303.004,-12.587,-17.826,18.441,-38.798,-15.67,-21.232,-15.402,-20.729,-22.33,-28.431,-16.766,-31.298,15.597,-8.741,-29.267,-9.759,16.514,-21.268,-28.353,-14.91,-77.588,-26.655,-14.934,-38.862,-206.63,2
-15.486,-42.073,-285.505,-316.021,-28.456,-40.349,51.211,-71.035,-29.999,-38.117,-29.732,-33.516,-36.652,-31.477,-30.582,-42.537,5.335,-15.905,-43.582,-21.02,7.789,-32.518,-33.448,-24.117,-61.116,-33.801,-19.018,-45.995,-210.522,2
-18.032,-48.179,-293.928,-316.729,-39.698,-47.481,18.884,-78.136,-36.116,-43.202,-36.362,-36.556,-44.3,-49.888,-43.871,-51.204,-4.404,-24.598,-51.736,-29.708,1.121,-44.268,-46.222,-37.412,-69.252,-46.574,-30.27,-58.244,-211.848,2
-6.231,-26.614,-274.679,-286.186,-21.215,-16.183,-13.41,-45.27,-12.002,-18.055,-16.345,-22.175,-24.276,-37.543,-25.384,-33.734,7.896,-12.278,-33.241,-17.383,14.44,-26.293,-29.782,-18.42,-95.311,-28.597,-18.969,-34.62,-193.193,2
-6.225,-19.927,-258.523,-287.949,-8.898,-11.044,19.391,-34.466,-8.916,-14.451,-13.255,-23.177,-20.153,-27.772,-16.137,-30.115,9.937,-7.655,-30.646,-13.267,19.036,-18.07,-21.043,-3.544,-97.265,-12.687,-7.167,-21.778,-178.143,2
-13.903,-33.739,-270.047,-312.765,-21.185,-32.038,52.159,-66.707,-29.912,-34.929,-27.587,-30.839,-34.477,-39.015,-31.49,-43.917,1.218,-17.894,-40.349,-22.475,8.771,-31.372,-31.78,-12.25,-79.749,-21.383,-18.942,-40.711,-184.625,2
-7.741,-26.533,-274.388,-301.181,-24.238,-21.759,19.832,-59.468,-20.148,-26.185,-18.85,-24.148,-27.783,-31.803,-29.922,-38.75,5.315,-18.901,-33.137,-20.404,11.836,-28.779,-25.089,-15.824,-61.738,-22.899,-18.411,-38.621,-191.613,2
-8.246,-14.724,-265.405,-284.998,-11.406,-3.807,-12.464,-29.183,-3.222,-6.179,-6.023,-18.488,-14.435,-21.526,-18.621,-31.026,8.384,-12.734,-29.005,-14.236,17.972,-21.066,-18.403,-14.271,-42.721,-18.778,-7.122,-23.214,-188.859,2
-21.558,-25.98,-270.262,-301.619,-11.394,-15.074,20.337,-46.572,-15.514,-16.931,-16.776,-24.105,-21.593,-35.336,-23.726,-37.655,0.178,-14.77,-39.222,-19.857,6.683,-30.266,-30.68,-19.38,-50.875,-26.956,-17.873,-34.461,-192.257,2
-21.536,-35.688,-276.14,-314.638,-24.703,-25.817,53.104,-65.993,-21.134,-27.16,-24.444,-27.155,-26.694,-40.936,-28.313,-39.155,-1.359,-19.879,-41.232,-20.861,0.529,-35.359,-33.211,-19.361,-83.1,-30.515,-26.565,-44.673,-204.36,2
-14.855,-31.041,-268.179,-304.589,-25.703,-19.644,20.775,-49.021,-11.379,-17.399,-19.296,-27.128,-22.569,-32.698,-27.26,-33.992,3.766,-21.396,-35.043,-16.23,8.213,-28.151,-25.493,-16.78,-96.337,-25.361,-17.317,-33.87,-206.205,2
-19.963,-32.035,-272.521,-297.625,-19.529,-19.624,-11.521,-44.361,-16.49,-18.919,-20.814,-30.175,-28.182,-34.715,-33.892,-37.545,1.713,-19.837,-39.107,-20.824,7.692,-31.197,-30.079,-28.034,-79.334,-30.971,-20.373,-33.836,-202.925,2
-20.968,-38.151,-290.18,-301.426,-25.658,-26.264,21.279,-59.686,-23.646,-29.658,-25.916,-30.657,-31.74,-36.73,-36.932,-43.655,-1.875,-19.818,-47.264,-25.414,3.586,-39.875,-37.733,-39.276,-68.497,-40.162,-26.5,-49.171,-207.333,2
-17.873,-40.162,-290.402,-303.173,-32.804,-27.775,34.065,-60.651,-22.598,-28.604,-24.865,-30.114,-27.61,-31.057,-32.797,-44.123,-0.849,-22.359,-48.754,-23.34,6.656,-41.885,-38.72,-38.725,-70.477,-41.146,-21.863,-55.27,-211.736,2
-28.613,-44.22,-280.378,-307.481,-29.185,-29.796,1.755,-62.127,-28.723,-29.088,-28.427,-35.207,-34.755,-32.051,-36.35,-46.128,-2.385,-26.435,-49.73,-26.902,7.162,-42.867,-40.218,-39.198,-86.801,-39.568,-25.94,-52.653,-214.598,2
-30.122,-44.176,-283.171,-313.321,-29.668,-33.353,-2.857,-71.799,-30.744,-33.157,-30.447,-36.196,-40.355,-32.531,-38.876,-47.107,-4.944,-25.897,-45.582,-27.388,6.13,-38.726,-37.104,-37.11,-97.472,-36.455,-27.451,-48.502,-211.31,2
-7.038,-31.324,-281.351,-305.323,-29.639,-28.709,29.934,-67.116,-20.467,-25.952,-18.122,-25.914,-27.507,-26.351,-27.566,-36.301,3.77,-13.063,-29.142,-13.016,14.321,-21.781,-25.284,-19.142,-72.272,-23.099,-10.005,-38.719,-189.069,2
5.265,-18.485,-267.237,-291.186,-16.289,-17.409,23.244,-55.779,-15.835,-15.679,-7.857,-17.179,-17.233,-22.226,-15.755,-22.945,15.037,0.27,-17.33,-3.269,24.553,-11.001,-15.013,-3.754,-55.806,-7.194,-3.335,-26.898,-172.999,2
-2.937,-12.319,-260.822,-287.308,-5.002,-11.244,-9.055,-55.21,-13.258,-13.102,-7.849,-15.625,-16.704,-16.569,-13.178,-20.873,18.096,0.27,-14.751,-3.266,29.651,-13.039,-13.973,-4.775,-71.119,-5.65,-8.455,-19.186,-183.584,2
-2.935,-8.72,-261.586,-283.947,-7.559,-11.745,23.742,-58.229,-6.585,-11.04,-3.231,-13.56,-11.564,-9.892,-9.579,-19.827,20.127,0.269,-9.101,2.885,33.208,-10.464,-11.91,-6.307,-57.216,-8.718,-2.811,-17.63,-185.962,2
0.655,-13.322,-258.251,-282.126,-11.137,-13.27,30.89,-57.146,-9.14,-9.492,-1.691,-12.522,-9.503,-17.567,-6.495,-17.246,19.082,4.368,-9.604,3.395,30.101,-7.892,-8.312,-9.887,-24.371,-7.172,-2.296,-23.248,-173.993,2
-10.105,-21.506,-260.042,-287.48,-14.2,-11.208,-1.416,-44.794,-10.668,-11.532,-10.398,-18.144,-17.691,-27.795,-13.149,-23.377,8.817,-3.321,-20.353,-6.855,23.411,-15.569,-17.013,-24.734,-38.179,-12.801,-13.052,-30.397,-186.627,2
-17.779,-20.46,-266.442,-284.118,-18.796,-6.074,31.373,-34.503,-2.972,-13.057,-13.462,-21.712,-20.235,-23.157,-22.357,-30.525,4.71,-11.515,-25.968,-10.434,20.313,-22.214,-29.291,-28.807,-66.317,-24.571,-14.063,-32.416,-208.469,2
-8.54,-19.927,-264.126,-282.809,-21.851,-11.191,64.129,-50.862,-9.629,-16.63,-12.424,-22.715,-20.727,-18.523,-24.384,-29.47,7.267,-11.503,-29.528,-11.961,19.268,-22.191,-26.188,-18.02,-62.665,-24.034,-10.463,-38.019,-203.138,2
-3.408,-27.592,-259.251,-300.457,-24.903,-25.012,31.79,-67.205,-22.427,-26.86,-21.12,-25.766,-26.854,-25.164,-25.896,-33.027,3.673,-20.714,-35.647,-18.609,16.175,-25.243,-22.063,-20.051,-62.09,-19.911,-11.99,-45.153,-185.004,2
-11.089,-32.687,-264.627,-308.354,-32.563,-30.11,-0.517,-57.404,-21.38,-32.468,-25.71,-27.79,-31.438,-29.75,-34.58,-39.654,-2.478,-31.964,-39.709,-23.713,12.573,-35.464,-32.8,-35.4,-75.86,-28.601,-17.101,-43.571,-186.868,2
-16.201,-38.29,-278.195,-300.873,-36.629,-30.08,32.271,-56.834,-19.31,-29.362,-25.684,-30.324,-30.382,-28.183,-40.181,-40.127,-4.012,-28.345,-45.305,-26.763,10.511,-42.089,-41.476,-41.513,-86.031,-38.306,-26.305,-46.089,-208.71,2
-13.111,-40.301,-283.552,-299.035,-26.859,-25.439,65.026,-64.462,-16.729,-22.673,-23.609,-28.244,-23.691,-26.106,-30.407,-35.476,-1.959,-19.096,-40.137,-19.564,16.136,-33.337,-31.188,-31.737,-92.092,-32.12,-23.717,-48.604,-216.699,2
-7.975,-25.403,-267.899,-291.052,-13.512,-10.556,32.686,-48.516,-9.028,-13.941,-11.803,-19.507,-15.471,-20.444,-17.056,-25.194,6.752,-8.83,-17.555,-0.589,27.391,-12.812,-15.788,-15.312,-77.655,-12.62,-5.251,-31.649,-192.403,2
-2.844,-11.546,-245.602,-282.051,-17.084,-7.984,42.387,-43.857,-12.092,-14.439,-6.156,-18.463,-15.455,-12.739,-19.088,-20.046,17.504,1.425,-7.804,8.12,29.925,-3.065,-9.625,-4.026,-44.79,-0.824,-0.122,-16.249,-170.694,2
0.233,-15.12,-238.184,-287.917,-23.215,-18.735,75.132,-62.768,-16.691,-21.085,-13.322,-22.03,-16.464,-10.677,-20.606,-21.05,20.56,5.522,-14.456,7.088,26.821,-6.648,-10.64,-4.022,-33.475,-5.947,-9.344,-18.282,-172.573,2
-0.792,-17.154,-243.581,-288.142,-9.359,-11.544,42.782,-53.484,-9.502,-15.428,-9.21,-14.324,-11.325,-18.864,-7.778,-15.906,16.953,2.442,-12.904,10.154,28.843,-10.74,-15.752,-8.628,-51.884,-14.138,-8.31,-20.825,-181.109,2
-2.328,-15.6,-253.584,-284.78,0.896,-0.261,10.464,-36.012,-10.005,-7.728,-2.541,-13.285,-11.826,-33.189,-7.258,-13.329,11.813,-4.22,-15.453,7.583,28.302,-15.34,-20.347,-13.231,-65.152,-16.173,-5.74,-24.39,-190.15,2
-3.351,-16.609,-259.478,-292.179,-10.376,-7.946,43.241,-48.271,-16.143,-13.868,-10.223,-24.03,-17.449,-28.033,-17.497,-19.463,11.289,-8.314,-21.585,2.452,25.712,-16.861,-19.302,-17.316,-51.767,-16.157,-8.296,-25.903,-193.033,2
-9.495,-11.982,-254.608,-286.764,-18.05,-13.061,75.985,-55.908,-14.589,-19.49,-13.286,-22.981,-19.481,-4.951,-17.479,-21.493,18.45,-6.769,-20.027,0.913,24.662,-16.845,-21.332,-22.934,-40.957,-16.653,-6.75,-16.143,-186.693,2
-19.732,-18.118,-257.427,-278.793,-19.569,-17.146,76.934,-51.241,-17.649,-22.032,-14.81,-22.958,-23.048,-11.094,-25.146,-27.107,14.846,-12.398,-32.302,-12.92,14.391,-32.709,-35.655,-36.231,-69.605,-26.37,-15.965,-25.348,-198.801,2
-21.249,-39.104,-272.027,-292.346,-27.234,-23.277,44.582,-51.702,-19.68,-26.62,-28.115,-36.255,-28.148,-38.235,-39.978,-41.937,1.511,-24.168,-53.274,-26.228,3.618,-49.583,-45.866,-44.904,-101.811,-44.787,-33.368,-56.574,-213.972,2
-16.617,-42.651,-271.755,-300.763,-29.256,-17.618,12.262,-43.454,-14.538,-24.544,-30.649,-37.244,-28.12,-31.537,-36.864,-42.919,2.534,-23.12,-51.172,-23.127,7.201,-47.484,-43.771,-42.297,-93.512,-49.865,-31.797,-66.251,-191.216,2
-24.285,-40.559,-267.897,-303.024,-29.739,-23.236,45.037,-49.046,-22.208,-29.643,-28.569,-34.133,-33.215,-19.722,-36.827,-38.778,7.654,-21.56,-47.535,-26.69,6.169,-47.436,-44.752,-50.452,-73.439,-48.278,-30.741,-64.648,-179.242,2
-31.945,-49.74,-278.387,-315.016,-40.468,-44.217,77.78,-75.124,-31.919,-42.933,-38.786,-42.808,-39.841,-37.121,-47.549,-44.887,2.524,-30.76,-54.659,-32.811,-1.522,-50.975,-46.244,-59.111,-76.439,-51.304,-39.419,-71.243,-208.264,2
-19.105,-37.908,-270.937,-300.357,-35.304,-28.804,45.427,-63.266,-17.543,-32.644,-30.551,-34.056,-28.018,-30.936,-36.231,-36.645,12.767,-17.921,-40.26,-17.922,11.8,-33.506,-32.365,-37.023,-75.338,-37.42,-28.109,-56.315,-208.056,2
-6.279,-12.254,-246.075,-267.269,-11.19,4.013,13.106,-30.415,-1.131,-8.021,-3.368,-13.529,-10.06,-2.728,-16.215,-14.067,34.784,10.786,-14.092,0.539,31.768,-9.906,-14.914,-8.809,-62.455,-13.304,-8.613,-30.131,-175.06,2
-6.272,-10.193,-244.292,-261.366,-1.958,4.521,24.876,-31.409,-2.155,-3.914,0.222,-13.516,-9.025,-6.824,-14.661,-9.954,36.286,9.751,-11.517,2.588,31.224,-9.896,-15.924,-12.386,-53.683,-13.803,-9.117,-29.589,-181.033,2
-5.241,-14.281,-254.806,-267.765,-4.517,-2.656,29.974,-43.161,-3.69,-8.009,-6.439,-16.064,-12.09,-19.113,-12.085,-14.555,31.639,-1.53,-19.702,3.61,29.144,-19.108,-24.105,-26.206,-41.334,-26.597,-12.694,-34.17,-199.807,2
-3.699,-6.582,-245.842,-261.861,-0.414,7.593,-2.331,-29.798,0.925,-2.366,3.814,-8.363,-3.368,-6.798,-2.852,-6.344,42.878,12.816,-14.559,10.266,40.385,-11.916,-19.47,-20.032,-37.194,-18.886,-5.509,-26.451,-171.431,2
-6.769,-7.088,-233.813,-260.575,-1.438,8.61,11.503,-29.768,0.412,-2.363,6.372,-7.842,0.733,0.893,-4.898,-3.776,46.421,18.439,-7.372,10.768,43.419,-4.22,-14.328,-6.692,-54.576,-8.109,-3.967,-28.474,-141.545,2
-11.373,-20.913,-246.387,-275.684,-17.318,-11.379,44.28,-60.989,-13.933,-18.242,-13.102,-18.081,-14.637,-12.428,-17.188,-19.141,28.444,-8.22,-22.734,-5.124,31.592,-21.122,-25.584,-12.321,-70.403,-20.908,-14.721,-42.79,-168.044,2
-24.682,-37.798,-273.805,-301.023,-33.183,-36.983,52.944,-84.494,-33.387,-37.692,-29.995,-33.944,-34.09,-30.346,-31.004,-35.516,12.534,-25.63,-44.741,-25.099,21.314,-40.568,-40.415,-34.85,-72.382,-41.892,-30.588,-57.604,-200.151,2
-35.928,-44.933,-286.851,-311.481,-38.785,-41.044,20.616,-75.7,-34.891,-41.753,-32.527,-41.082,-36.105,-33.902,-39.682,-39.067,12.522,-16.895,-42.647,-25.074,23.342,-36.942,-39.35,-45.061,-70.26,-45.948,-32.094,-63.694,-200.463,2
-23.085,-33.105,-275.806,-287.603,-31.061,-21.023,1.128,-53.083,-19.487,-28.391,-25.834,-29.258,-26.335,-18.499,-31.445,-32.368,21.218,-7.144,-29.796,-11.216,32.541,-25.634,-30.089,-33.233,-60.968,-36.169,-18.23,-53.897,-184.381,2
-8.717,-17.703,-261.186,-271.946,-16.686,-9.731,11.373,-43.296,-14.344,-19.653,-15.562,-22.057,-26.308,-12.332,-18.606,-24.651,27.345,-4.576,-26.18,-7.619,41.217,-22.022,-23.912,-22.954,-48.612,-27.936,-13.089,-39.498,-190.857,2
-11.782,-12.562,-253.752,-279.359,-9.497,-11.771,15.972,-42.228,-16.379,-20.658,-11.448,-26.133,-27.819,-23.079,-18.587,-20.015,28.342,2.089,-19.494,-6.074,45.274,-17.389,-19.277,-21.394,-50.612,-25.346,-17.174,-30.749,-193.227,2
-11.258,-9.988,-244.277,-268.321,-13.586,-4.587,44.133,-35.526,-11.239,-17.051,-9.9,-19.959,-17.545,-18.957,-21.643,-16.921,31.9,10.284,-11.278,0.592,46.766,-10.712,-15.672,-12.663,-57.222,-22.759,-11.009,-27.132,-160.759,2
0.024,-5.879,-232.762,-252.684,-17.158,3.102,28.72,-26.781,-5.08,-9.35,-3.23,-13.792,-11.38,-6.643,-14.961,-13.831,41.602,14.884,-7.68,6.226,49.281,-5.066,-11.557,0.67,-54.091,-12.49,-1.777,-26.593,-127.81,2
4.123,0.274,-223.82,-258.579,-10.481,3.612,9.736,-26.242,-2.002,-6.779,1.896,-14.29,-11.881,-9.198,-6.749,-9.206,44.122,16.919,0.012,9.806,56.916,1.599,-4.886,7.329,-50.45,-1.719,1.299,-17.857,-129.22,2
-1.517,5.909,-225.645,-257.808,-6.885,0.534,42.514,-37.999,-3.024,-8.309,0.357,-10.177,-8.283,-11.75,-7.255,-6.635,38.442,12.803,-0.5,8.772,60.958,0.573,-4.369,3.223,-43.74,-4.279,0.785,-6.569,-156.243,2
-5.102,1.805,-245.912,-253.451,-14.562,-9.2,75.259,-54.355,-10.193,-13.424,-2.717,-11.704,-9.299,-9.689,-15.957,-11.752,33.793,4.081,-13.82,1.079,55.261,-8.649,-13.586,-8.563,-22.179,-16.058,-2.802,-13.734,-165.82,2
-2.023,-5.369,-255.4,-265.493,-17.109,-11.753,42.908,-51.739,-14.794,-16.484,-5.276,-18.353,-13.901,-9.679,-17.478,-14.814,35.808,6.639,-9.195,0.565,52.645,-7.104,-14.085,-11.628,-20.108,-17.579,-3.311,-21.405,-152.334,2
-1.508,-2.802,-233.628,-267.789,-10.432,-4.056,17.762,-40.929,-11.705,-14.418,-5.783,-14.748,-11.837,-2.497,-10.288,-8.139,42.433,22.514,5.671,7.225,58.74,2.637,-4.337,1.703,-51.851,-5.778,3.352,-11.138,-150.133,2
-6.63,-0.75,-225.197,-261.374,-15.032,-7.638,50.532,-43.962,-9.644,-14.916,-3.728,-12.684,-12.338,1.091,-10.79,-8.131,42.902,25.565,-1.507,5.168,57.144,0.073,-7.406,6.825,-57.434,-3.211,0.787,-11.126,-166.889,2
-7.136,-8.946,-252.124,-269.822,-22.19,-12.241,18.206,-43.918,-9.635,-17.975,-7.822,-20.356,-16.936,-9.668,-22.05,-18.369,33.638,9.146,-15.85,-3.034,50.427,-13.247,-23.793,-11.113,-35.348,-19.602,-10.997,-23.411,-173.382,2
-4.567,-18.671,-265.704,-278.773,-18.581,-8.643,-6.915,-42.337,-14.236,-21.031,-17.548,-24.946,-21.018,-18.368,-26.126,-24.498,25.407,-4.184,-18.396,-8.154,51.401,-19.381,-30.429,-27.496,-47.608,-30.853,-14.059,-25.437,-168.086,2
-7.636,-22.751,-254.68,-283.105,-22.149,-17.856,25.88,-58.688,-27.542,-29.719,-23.679,-29.02,-31.755,-21.423,-25.076,-28.572,23.333,-5.204,-20.939,-13.781,51.35,-17.313,-26.812,-25.419,-72.151,-25.699,-14.045,-31.047,-170.479,2
-10.702,-21.191,-254.425,-281.798,-27.762,-25.01,12.021,-60.679,-26.49,-32.763,-22.118,-33.089,-32.236,-21.402,-27.1,-30.08,24.334,-0.588,-21.43,-12.23,48.224,-16.783,-23.199,-14.635,-60.808,-21.575,-15.568,-38.7,-171.845,2
-6.081,-13.485,-260.319,-263.073,-16.976,-8.592,-20.266,-31.417,-4.946,-20.435,-13.899,-24.859,-14.273,-13.183,-21.95,-21.341,29.433,3.511,-14.237,-3.509,54.324,-15.229,-17.541,-6.936,-50.501,-21.553,-11.966,-31.489,-166.038,2
-3.513,-10.91,-255.96,-261.273,-12.861,-2.948,12.542,-30.361,0.694,-14.779,-10.299,-19.711,-12.209,-11.633,-16.804,-18.758,29.403,0.434,-14.222,-5.555,56.831,-14.189,-21.109,-13.077,-60.184,-21.531,-10.418,-28.384,-172.532,2
-10.17,-20.633,-255.704,-290.725,-29.242,-19.338,45.317,-58.507,-17.237,-26.548,-18.485,-29.426,-28.079,-25.454,-24.985,-27.961,19.128,-11.35,-22.917,-15.795,49.09,-19.298,-31.334,-24.847,-53.977,-27.658,-16.043,-39.114,-185.68,2
-11.184,-20.613,-255.448,-287.361,-27.675,-18.295,12.996,-53.326,-20.294,-28.058,-17.955,-28.371,-22.415,-23.379,-23.423,-24.347,21.67,-7.752,-19.821,-8.607,54.676,-16.718,-22.594,-16.113,-32.406,-24.044,-12.953,-31.902,-176.785,2
-2.976,-4.711,-245.971,-255.823,-6.131,-3.419,5.299,-34.829,-8.491,-15.222,-5.641,-14.511,-6.511,-2.351,-6.493,-11.003,39.067,14.285,-3.407,5.746,67.429,-2.356,-6.69,1.322,-25.201,-7.626,-4.23,-12.915,-154.579,2
-7.072,-8.292,-248.287,-266.325,-11.248,-12.637,38.081,-56.311,-16.167,-19.306,-10.759,-18.595,-14.189,-6.96,-9.048,-18.164,36.466,13.246,-5.453,-1.944,60.189,-5.428,-19.491,-8.413,-50.279,-15.303,-12.423,-23.148,-159.547,2
-16.286,-27.239,-255.211,-289.625,-30.192,-28.506,5.768,-73.161,-28.958,-32.606,-25.605,-30.872,-26.983,-25.908,-24.408,-31.978,20.548,-7.26,-24.915,-18.849,49.883,-24.378,-34.84,-22.749,-79.942,-33.218,-22.145,-44.642,-179.368,2
-11.147,-15.941,-241.636,-271.405,-18.379,-15.158,-26.513,-47.473,-16.634,-21.303,-14.309,-21.619,-15.685,-13.587,-18.236,-23.749,29.237,-3.154,-19.767,-10.633,60.079,-15.132,-20.973,-7.87,-56.809,-18.841,-12.901,-29.228,-168.942,2
-6.525,2.518,-232.172,-254.74,-6.065,-1.823,-3.433,-32.056,-6.371,-8.986,-4.048,-14.425,-4.911,0.771,-11.558,-14.504,39.454,7.607,-3.866,0.136,66.679,0.253,-10.194,5.458,-23.964,-3.965,-8.277,-8.194,-148.281,2
-14.715,-14.391,-248.334,-272.928,-26.039,-21.801,29.358,-56.615,-25.832,-27.933,-23.512,-29.78,-20.788,-18.697,-25.379,-28.322,20.972,-9.306,-19.743,-15.233,53.805,-18.191,-26.065,-11.966,-40.334,-25.99,-21.589,-29.703,-150.694,2
-14.188,-24.11,-254.233,-282.389,-30.623,-29.976,1.664,-68.341,-33.491,-37.126,-26.562,-31.287,-30.501,-26.875,-29.964,-33.929,13.778,-14.932,-29.97,-19.829,52.214,-27.394,-31.674,-27.323,-55.663,-35.186,-23.617,-47.604,-154.642,2
-0.342,0.505,-236.561,-263.663,-0.879,-1.769,-12.17,-44.707,-11.941,-11.986,-1.432,-12.813,-11.515,-6.869,-11.491,-13.915,33.232,4.038,-5.861,5.294,71.63,-0.214,-12.175,-15.513,-34.603,-11.584,-7.199,-21.429,-148.852,2
2.733,10.238,-230.689,-248.03,6.806,9.503,-15.744,-26.219,-1.683,-2.24,3.18,-10.751,-0.745,-7.374,-0.721,-7.241,32.174,4.546,3.366,13.486,77.193,7.47,-6.015,-2.689,-46.863,-1.327,1.005,-5.526,-155.363,2
-8.029,-6.678,-241.217,-251.881,-10.619,-5.875,5.276,-33.365,-7.316,-17.095,-11.168,-21.498,-9.966,-23.76,-8.917,-21.066,17.285,-4.68,-13.031,-3.946,63.284,-12.517,-19.329,-11.396,-71.407,-15.67,-8.73,-24.476,-163.405,2
-15.705,-10.77,-238.414,-258.801,-15.219,-7.919,38.059,-42.553,-3.211,-14.516,-11.669,-20.965,-9.443,-16.052,-14.032,-22.069,23.928,1.473,-14.555,-7.528,61.684,-15.066,-22.896,-21.631,-51.868,-24.363,-15.381,-28.037,-158.63,2
-12.103,-1.538,-221.269,-255.981,-9.568,-1.763,51.853,-42.511,-2.695,-7.329,-6.022,-17.358,-6.36,-2.716,-8.894,-13.85,26.466,1.471,-10.442,-0.348,70.331,-7.879,-18.775,-15.974,-44.644,-19.216,-9.218,-13.665,-153.349,2
-5.431,0.513,-217.462,-251.627,-5.46,-3.298,19.526,-35.808,-10.377,-17.056,-8.065,-20.414,-12.501,-9.373,-6.324,-15.886,14.144,-10.314,-15.042,-3.422,69.236,-7.871,-21.317,-13.909,-71.239,-11.512,-4.598,-12.627,-153.708,2
-6.963,-4.611,-234.151,-255.986,-4.43,-3.295,-12.769,-29.112,-10.367,-21.137,-11.131,-21.931,-14.026,-19.61,-9.392,-20.481,13.617,-11.328,-15.54,-8.542,65.068,-9.912,-23.858,-21.579,-69.119,-14.574,-10.741,-17.225,-157.652,2
-16.69,-14.852,-248.773,-268.537,-17.233,-9.952,20.031,-38.817,-13.942,-21.116,-16.243,-26.519,-16.573,-24.201,-17.067,-24.046,13.604,-9.78,-20.135,-14.168,63.979,-19.636,-28.445,-28.218,-45.484,-28.904,-19.952,-22.843,-163.13,2
-20.259,-18.424,-246.475,-270.83,-27.462,-18.139,52.799,-52.61,-20.588,-28.78,-19.813,-31.616,-23.217,-22.64,-24.734,-28.121,2.832,-18.479,-29.336,-20.302,61.353,-26.789,-35.588,-34.337,-44.926,-32.974,-21.981,-28.455,-163.992,2
-13.067,-5.597,-237.007,-253.653,-16.676,-6.337,20.471,-45.898,-11.859,-22.603,-14.158,-25.949,-16.021,-14.421,-20.099,-23.482,4.878,-19.997,-21.622,-15.159,62.829,-16.516,-30.43,-30.204,-62.812,-18.596,-14.275,-18.693,-164.852,2
-11.004,0.044,-238.82,-242.641,-8.463,1.354,-6.702,-37.143,-5.187,-10.798,-9.533,-18.751,-7.296,-9.795,-12.906,-16.286,15.119,-9.219,-9.305,-5.41,69.426,-8.815,-18.616,-15.83,-72.995,-8.844,-6.576,-9.453,-167.249,2
-13.555,-12.252,-248.827,-263.916,-16.651,-13.505,17.383,-48.889,-13.378,-18.471,-13.622,-21.806,-12.924,-13.884,-21.603,-20.368,12.543,-5.111,-13.907,-8.99,67.307,-13.929,-22.696,-22.986,-59.09,-16.007,-12.717,-22.763,-162.471,2
-5.344,-17.363,-247.553,-283.119,-17.147,-17.59,19.415,-49.352,-12.34,-19.99,-14.633,-24.345,-13.936,-14.895,-24.655,-22.909,10.993,-11.766,-18.504,-13.592,63.654,-18.526,-27.796,-40.894,-37.001,-24.701,-19.364,-30.938,-156.161,2
1.833,-3.513,-227.838,-260.295,-1.761,4.97,-9.806,-22.663,3.553,0.522,-1.81,-14.587,-1.114,-9.757,-6.7,-13.153,19.179,-10.218,-9.264,-5.894,74.349,-12.872,-15.473,-28.045,-38.501,-18.528,-7.562,-14,-151.906,2
-4.316,6.737,-211.729,-236.468,3.877,20.846,7.622,-9.832,12.771,10.768,7.925,-8.425,6.059,-6.161,-0.033,-5.455,21.721,-2.523,-2.594,0.26,83.496,-2.613,-7.773,-11.111,-46.66,-6.214,1.667,-4.253,-146.119,2
-12.509,-2.492,-226.886,-258.261,-10.472,7.505,40.403,-30.315,0.463,-4.1,-4.89,-18.663,-4.705,-12.302,-15.914,-12.622,16.577,-7.643,-9.252,-6.401,72.142,-6.196,-17.499,-26.981,-47.125,-10.307,-11.142,-16.031,-156.219,2
-15.57,-18.883,-254.836,-286.18,-25.831,-15.556,18.333,-51.289,-17.468,-18.952,-18.205,-29.915,-20.582,-22.024,-24.608,-24.392,11.949,-12.246,-15.39,-14.079,62.336,-18.486,-24.142,-41.299,-59.374,-20.542,-19.84,-25.237,-178.092,2
-15.042,-19.889,-254.582,-278.721,-24.78,-16.053,4.995,-43.553,-13.864,-18.933,-13.064,-27.323,-21.074,-16.367,-16.898,-22.319,15.523,-3.525,-9.74,-8.942,71.495,-11.807,-16.945,-30.499,-62.388,-13.862,-11.623,-19.576,-172.791,2
-9.392,-8.598,-231.785,-260.512,-13.997,-3.229,37.777,-28.14,-2.067,-12.767,-9.465,-20.124,-11.319,-0.981,-11.758,-14.612,21.656,-1.472,-6.144,-3.81,77.571,-3.086,-11.805,-27.907,-44.907,-6.676,-7.001,-11.872,-154.175,2
-6.309,-7.565,-229.504,-257.177,-12.446,-6.812,24.932,-32.211,-9.238,-15.828,-16.628,-22.665,-14.894,-4.054,-16.87,-16.646,19.072,-6.594,-13.822,-10.978,70.833,-15.891,-16.404,-37.613,-55.621,-13.329,-12.629,-16.983,-159.144,2
-6.302,-15.754,-246.693,-260.506,-21.143,-14.49,-7.369,-41.4,-18.962,-22.472,-18.66,-28.79,-24.1,-15.833,-23.001,-20.728,11.881,-6.075,-17.907,-16.09,70.25,-20.485,-22.023,-38.6,-81.181,-17.927,-16.715,-27.213,-170.768,2
-3.222,-16.251,-244.397,-266.906,-24.196,-7.303,-0.701,-33.674,-10.234,-15.79,-14.543,-24.663,-16.392,-9.669,-19.391,-16.097,15.455,-4.02,-10.204,-7.877,75.815,-7.657,-17.39,-33.439,-58.558,-12.786,-13.625,-26.161,-162.912,2
-0.145,-9.062,-224.173,-268.688,-15.974,-0.636,32.087,-21.345,3.096,-1.429,-8.381,-13.88,-2.543,1.611,-9.638,-8.908,26.711,1.62,-1.997,-0.185,79.326,-2.527,-7.127,-28.794,-25.712,-5.6,-5.926,-17.425,-153.016,2
-1.682,-7.516,-224.973,-264.833,-12.885,-2.172,43.326,-25.422,4.118,-0.915,-5.811,-15.403,-2.54,-1.977,-10.141,-8.899,22.585,1.618,-3.532,-3.771,80.271,-5.086,-8.144,-28.766,-36.957,-4.57,-6.945,-12.797,-157.986,2
-6.803,-15.706,-244.216,-270.716,-19.019,-8.83,43.283,-42.303,-8.694,-17.308,-15.027,-26.658,-15.858,-20.418,-15.766,-17.6,2.583,-21.95,-15.312,-12.988,71.994,-12.253,-20.944,-37.446,-62.023,-14.299,-15.135,-16.883,-169.098,2
-8.333,-14.665,-244.997,-268.909,-15.927,-14.456,10.964,-46.359,-17.395,-22.926,-20.135,-27.144,-24.039,-34.23,-10.627,-23.217,-1.518,-29.612,-20.932,-13.488,66.287,-18.388,-22.972,-40.995,-60.424,-17.359,-14.095,-21.477,-168.417,2
0.384,-0.306,-231.432,-252.758,-6.177,-5.733,-21.322,-31.968,-7.643,-10.096,-8.332,-20.457,-13.769,-21.9,-6.518,-13.973,17.439,-2.43,-9.128,-4.253,79.028,-7.099,-11.679,-33.781,-46.019,-6.071,-5.372,-15.307,-153.904,2
1.921,-0.306,-235.811,-259.165,-11.294,1.445,11.487,-36.547,-5.587,-7.012,-4.225,-21.461,-5.558,-3.435,-15.733,-8.323,25.106,5.257,-3.483,-4.248,82.535,-0.432,-11.667,-36.821,-47.51,-5.553,-6.903,-12.731,-152.213,2
-11.401,-13.113,-248.383,-273.763,-19.479,-9.827,44.263,-55.978,-21.463,-16.739,-12.418,-25.026,-13.749,-4.456,-12.644,-13.95,16.372,-9.605,-11.164,-10.904,71.182,-11.19,-17.803,-47.543,-59.758,-12.207,-13.044,-21.939,-165.893,2
-12.414,-4.903,-237.376,-257.095,-8.701,-4.694,11.943,-38.504,-13.756,-6.988,-5.745,-16.291,-8.1,-3.939,5.3,-7.276,21.478,0.138,-3.468,-0.135,77.258,-5.031,-8.564,-40.836,-50.989,-1.436,-5.859,-13.208,-163.166,2
0.406,9.446,-217.671,-242.494,1.553,18.877,-20.344,-5.677,12.385,12.487,8.605,-7.054,11.376,8.872,6.831,3.489,32.728,11.921,7.806,11.648,89.476,9.319,-1.895,-30.549,-34.544,6.762,1.319,6.273,-152.244,2
-1.132,-4.395,-226.675,-255.059,-6.133,13.223,12.464,-12.844,6.737,3.765,0.912,-15.756,4.704,6.302,-8.032,-6.76,25.01,-5.509,-5.01,-1.683,77.092,-6.06,-14.701,-43.326,-47.317,-7.077,-8.416,-7.566,-162.85,2
-13.426,-24.371,-251.039,-269.661,-21.496,-14.455,25.771,-39.471,-17.348,-20.317,-21.118,-30.597,-18.354,-14.709,-18.27,-24.172,10.128,-20.361,-21.399,-19.612,61.645,-25.522,-27.494,-63.262,-62.639,-22.951,-23.777,-34.198,-178.057,2
-18.536,-25.883,-253.349,-277.588,-32.233,-25.712,58.533,-53.776,-22.454,-28.494,-29.294,-33.128,-23.459,-22.379,-23.888,-27.734,7.557,-18.291,-22.402,-19.593,61.584,-23.447,-27.466,-65.761,-56.429,-25.49,-24.778,-32.627,-176.342,2
-16.98,-15.611,-236.702,-274.237,-25.541,-15.952,91.262,-51.673,-14.234,-17.195,-14.408,-22.849,-11.653,-7.5,-19.253,-17.46,15.746,-7.514,-14.695,-10.864,69.719,-14.714,-19.242,-50.326,-58.934,-16.755,-16.044,-19.787,-163.87,2
-8.254,-3.3,-228.781,-257.056,-2.973,1.482,58.896,-28.055,-3.462,-1.808,-0.561,-15.653,-1.907,4.291,-2.84,-6.684,26.489,4.788,-2.897,-3.681,77.846,-6.503,-11.026,-37.98,-62.461,-5.468,-9.88,-17.206,-152.435,2
-8.246,-8.42,-238.798,-266.533,-2.458,-1.081,26.562,-22.392,-6.02,-8.467,-12.856,-23.322,-9.59,-9.546,-3.349,-11.801,19.802,-2.901,-9.042,-9.312,70.596,-8.545,-16.138,-45.627,-49.078,-11.61,-13.968,-20.262,-160.992,2
-22.07,-26.343,-253.929,-293.419,-20.387,-21.572,59.323,-53.108,-22.92,-24.34,-24.626,-33.033,-22.9,-25.93,-15.641,-22.035,5.438,-19.804,-23.89,-19.037,58.742,-19.295,-24.319,-52.241,-49.029,-22.357,-20.102,-25.365,-179.787,2
-9.752,-16.07,-247.527,-272.633,-7.558,-7.206,55.165,-45.37,-13.675,-5.872,-1.035,-15.069,-4.946,-5.924,2.305,-6.131,21.826,-3.903,-4.398,-1.087,76.614,-3.394,-8.413,-34.77,-48.468,-3.891,-6.762,-18.167,-171.922,2
18.434,11.611,-222.176,-239.573,16.015,25.589,22.834,-12.537,15.54,22.823,22.02,6.975,21.698,23.283,25.869,17.441,45.883,20.18,23.271,21.968,97.542,22.224,9.527,-20.903,-19.73,17.629,10.663,-0.731,-148.696,2
2.534,3.402,-220.417,-257.776,0.118,12.244,55.087,-27.382,7.327,7.943,4.579,-7.376,6.82,10.452,7.912,4.616,29.443,3.253,5.317,7.601,78.489,8.882,-3.291,-34.202,-11.514,3.267,0.406,-3.292,-150.085,2
-26.67,-22.217,-246.325,-283.646,-23.449,-20.044,33.003,-57.58,-21.882,-19.729,-16.942,-29.91,-19.315,-16.71,-11.563,-19.467,3.798,-21.853,-17.742,-14.948,57.919,-13.668,-18.657,-46.463,-35.581,-15.692,-18.549,-22.244,-162.23,2
-15.372,-19.633,-250.177,-273.629,-15.228,-14.901,0.694,-40.617,-20.323,-17.66,-13.339,-24.758,-14.685,-15.669,0.231,-15.862,5.844,-16.196,-9.528,-10.322,66.058,-8.532,-12.49,-42.831,-40.668,-11.065,-18.531,-26.32,-163.605,2
-4.598,-12.953,-233.533,-263.109,-8.553,-4.127,33.481,-33.916,-9.032,-12.007,-9.74,-20.634,-9.547,-10.53,3.817,-10.21,8.399,-16.18,-8.493,-8.263,66.504,-10.06,-11.966,-43.813,-39.603,-11.054,-14.414,-25.269,-164.466,2
-20.475,-23.186,-236.373,-268.481,-22.377,-16.931,66.235,-54.375,-13.633,-20.705,-18.439,-32.909,-21.32,-23.84,-12.068,-23.52,-1.855,-33.582,-24.367,-21.574,53.117,-26.444,-26.298,-53.503,-58.006,-25.388,-21.059,-33.953,-171.474,2
-25.578,-25.725,-245.871,-274.873,-26.965,-21.525,33.894,-50.222,-17.206,-24.782,-23.032,-36.462,-23.348,-31.501,-17.179,-29.644,-1.853,-33.036,-29.465,-26.676,53.577,-28.979,-31.907,-54.986,-59.485,-28.948,-27.698,-33.407,-178.987,2
-18.892,-19.039,-241.526,-273.061,-16.18,-10.233,1.585,-35.315,-14.115,-19.122,-18.91,-30.79,-16.665,-23.272,-14.088,-22.955,4.296,-24.294,-26.362,-23.063,58.134,-22.802,-28.801,-49.296,-39.958,-21.235,-24.085,-25.176,-176.758,2
-19.386,-16.971,-238.211,-263.566,-15.651,-3.05,28.223,-33.23,-8.978,-11.931,-13.256,-27.173,-12.037,-18.126,-15.099,-20.883,2.755,-30.417,-22.237,-19.966,55.514,-22.779,-25.699,-47.71,-35.307,-20.189,-16.376,-27.713,-159.676,2
-16.805,-15.417,-237.973,-262.79,-24.857,-2.535,51.249,-30.123,-4.358,-9.87,-12.218,-27.659,-9.976,-18.108,-14.571,-21.374,-0.834,-32.436,-17.604,-19.434,54.434,-21.732,-23.112,-50.223,-48.08,-21.193,-15.335,-30.759,-151.319,2
-16.788,-18.988,-234.661,-276.872,-29.955,-13.291,60.419,-40.339,-15.112,-21.643,-21.94,-34.803,-18.675,-21.676,-17.63,-22.89,-2.37,-28.817,-23.222,-24.538,50.281,-23.759,-26.162,-50.685,-60.327,-20.148,-21.979,-29.703,-167.561,2
-22.919,-25.629,-234.426,-280.182,-26.851,-30.183,93.146,-65.402,-31.491,-31.867,-28.578,-37.842,-27.878,-24.728,-21.711,-27.99,-0.831,-31.863,-28.834,-26.562,47.157,-28.859,-27.673,-48.073,-62.316,-24.226,-25.031,-30.186,-168.931,2
-15.724,-17.918,-230.093,-266.069,-18.628,-24.006,92.541,-60.726,-22.238,-20.565,-17.791,-27.558,-16.58,-14.969,-12.98,-23.351,8.392,-24.146,-17.022,-15.777,55.307,-22.17,-16.887,-41.365,-61.229,-19.079,-16.809,-20.934,-144.171,2
-4.949,-5.605,-217.568,-254.02,-17.072,0.609,60.173,-29.926,-3.26,-3.126,-4.965,-21.895,-3.243,-2.659,-5.795,-12.569,15.043,-12.339,-10.345,-8.589,60.374,-11.902,-13.284,-35.176,-63.217,-5.227,-9.62,-7.593,-138.392,2
-10.58,-10.723,-215.813,-253.254,-20.641,2.145,27.837,-26.31,-7.868,-7.221,-9.059,-28.533,-9.9,-10.341,-12.962,-16.143,5.294,-30.257,-23.142,-16.777,53.654,-18.55,-23.517,-39.752,-47.784,-11.882,-15.246,-16.295,-156.184,2
-13.643,-13.786,-225.844,-256.074,-14.473,-8.615,58.035,-39.604,-12.983,-14.386,-12.123,-29.53,-14.501,-23.138,-12.949,-22.787,-4.445,-44.572,-28.242,-20.859,54.113,-25.191,-22.469,-47.397,-16.486,-24.165,-20.866,-28.574,-153.979,2
3.789,1.085,-223.569,-243.01,0.911,6.763,65.15,-25.732,6.498,2.534,4.282,-16.692,1.908,-10.82,3.458,-8.932,7.855,-19.936,-11.308,-5.469,67.379,-7.235,-6.565,-31.98,-8.785,-3.649,-8.55,-11.639,-131.283,2
15.568,10.818,-211.05,-225.349,6.033,20.588,97.872,-14.436,16.738,16.877,13.5,-6.942,12.664,6.097,11.652,5.422,24.753,-1.986,-1.051,7.344,72.434,6.092,-1.435,-12.993,-29.268,15.822,5.803,4.766,-126.029,2
3.77,-0.976,-216.474,-238.444,-6.268,0.075,130.562,-36.45,-4.796,-3.633,-4.957,-17.693,-5.279,-1.593,1.394,-5.854,15.507,-19.914,-14.369,-6.496,60.579,-11.332,-14.754,-26.812,-42.559,-6.223,-5.986,-13.169,-145.883,2
-10.579,-14.295,-228.553,-259.722,-17.533,-15.806,98.156,-45.123,-19.648,-22.072,-18.272,-32.533,-20.643,-17.473,-7.829,-20.705,0.122,-30.141,-27.163,-20.321,49.247,-26.69,-23.96,-46.765,-40.98,-26.196,-21.861,-30.062,-152.397,2
-5.445,-3.01,-213.467,-238.458,-7.269,3.165,65.783,-18.95,-2.722,-4.632,-3.909,-22.254,-4.741,-12.333,0.376,-11.463,8.319,-15.766,-12.791,-7.493,57.907,-9.245,-13.69,-33.398,-30.18,-9.264,-11.593,-15.175,-129.703,2
4.806,13.387,-193.274,-210.555,1.447,15.969,98.505,-11.247,11.113,10.23,6.853,-9.424,8.071,2.536,11.134,0.332,20.094,-11.652,-0.483,5.322,69.12,5.621,-2.406,-15.946,-19.904,3.041,-0.311,-4.402,-119.327,2
0.703,1.078,-207.938,-229.299,-15.46,-3.514,131.194,-37.363,-9.903,-9.248,-8.01,-22.734,-9.355,-2.077,-0.148,-9.915,7.778,-28.034,-17.388,-8.516,57.268,-7.705,-13.674,-28.226,-29.105,-13.356,-10.557,-19.767,-143.286,2
-8.519,-20.44,-229.759,-258.784,-27.74,-24.515,98.787,-58.843,-36.021,-30.756,-21.835,-37.056,-26.764,-21.03,-16.542,-23.737,-9.648,-41.838,-33.253,-23.364,44.915,-23.066,-27.493,-45.104,-49.569,-27.175,-21.305,-36.141,-157.487,2
-10.56,-19.395,-225.431,-254.427,-13.368,-17.318,88.442,-57.247,-27.788,-21.503,-16.177,-29.335,-20.59,-24.083,-10.378,-18.591,-6.052,-38.21,-25.022,-17.705,53.58,-20.482,-23.879,-43.522,-61.302,-22.537,-18.209,-37.641,-140.936,2
-7.988,-9.642,-217.521,-237.779,-2.084,3.191,71.448,-38.747,-4.194,-0.477,-1.817,-17.01,-3.663,-5.104,4.49,-6.789,10.348,-24.852,-13.214,-5.392,62.748,-8.678,-15.658,-31.183,-66.364,-12.269,-9.482,-26.845,-131.574,2
1.754,-1.947,-218.84,-233.442,-4.643,14.971,42.687,-17.703,3.495,7.72,6.894,-11.358,7.099,10.783,8.071,1.415,20.071,-14.069,-6.541,2.298,62.685,1.064,-12.569,-20.906,-60.662,-4.572,-0.763,-7.863,-138.102,2
7.388,5.227,-215.547,-238.844,-3.614,13.931,65.186,-17.173,3.491,4.126,7.4,-13.395,4.018,7.186,8.576,3.463,19.027,-9.444,-4.485,0.246,63.647,1.576,-12.044,-21.909,-38.572,-3.03,-1.275,-3.757,-136.939,2
-6.964,-2.975,-219.942,-244.241,-0.537,4.184,62.559,-32.525,-1.635,-4.587,-0.292,-21.579,-9.306,-6.141,6.518,-4.738,10.811,-16.094,-12.678,-8.976,58.46,-9.184,-15.106,-33.67,-20.091,-12.249,-10.495,-20.659,-138.339,2
-16.691,-17.829,-231.506,-244.509,-5.147,-2.993,30.221,-38.64,-11.88,-11.242,-7.977,-25.144,-14.42,-12.283,1.388,-13.442,4.652,-26.324,-21.887,-12.553,50.205,-14.298,-17.14,-38.76,-23.144,-21.458,-14.071,-29.86,-153.57,2
-0.793,-12.176,-224.102,-241.19,-10.777,1.621,39.412,-33.991,-12.893,-8.157,-5.407,-22.045,-8.77,-6.123,1.899,-7.281,8.746,-24.761,-18.279,-8.442,53.741,-9.161,-15.586,-33.598,-34.904,-18.875,-9.958,-24.195,-156.49,2
5.356,-2.942,-209.021,-240.949,-9.742,4.693,72.161,-36.006,-8.269,-1.489,0.234,-20.998,-6.712,-2.53,-0.152,-2.151,11.811,-20.638,-14.674,-7.921,57.785,-7.102,-17.107,-33.564,-34.357,-13.221,-7.387,-21.609,-141.989,2
-11.044,-9.599,-214.959,-244.294,-7.17,-1.972,104.876,-44.68,-13.384,-5.586,-4.377,-21.489,-10.291,-11.237,-3.226,-7.272,3.602,-26.765,-20.807,-11.499,51.068,-14.268,-19.139,-38.654,-32.786,-16.794,-9.941,-21.075,-140.823,2
-13.594,-9.59,-221.917,-242.001,-6.651,-0.433,72.496,-40.536,-12.858,-7.118,-5.397,-20.443,-9.769,-13.787,3.437,-6.752,0.525,-28.787,-24.885,-12,47.43,-18.864,-18.096,-40.152,-46.073,-20.875,-13.517,-19.517,-144.78,2
-2.31,1.178,-207.863,-230.488,-1.521,12.888,40.148,-18.467,1.499,5.697,5.879,-16.837,-0.537,-3.015,13.168,1.964,11.795,-18,-16.151,-6.865,50.457,-11.161,-15.516,-33.964,-50.638,-12.658,-9.405,-17.448,-128.242,2
-1.283,5.275,-197.921,-219.499,8.214,16.973,72.896,-6.153,8.158,13.889,10.484,-10.672,8.685,4.16,16.229,7.085,20.493,-11.834,-5.376,0.826,52.456,-0.391,-10.89,-24.709,-37.779,-4.96,-1.711,-13.333,-121.966,2
-4.868,1.684,-206.944,-224.403,4.108,7.223,105.61,-23.053,-2.609,1.579,2.276,-12.711,2.016,-1.992,12.626,4.004,14.325,-17.458,-9.469,-3.273,50.354,-7.051,-12.928,-30.319,-36.717,-13.152,-6.832,-14.856,-145.41,2
-9.474,-6.515,-216.984,-241.085,-15.364,-7.642,73.229,-48.645,-20.537,-15.328,-10.534,-27.555,-15.917,-15.31,-1.219,-9.32,0.478,-28.711,-25.341,-20.176,39.033,-24.974,-25.723,-51.294,-48.976,-29.533,-23.219,-26.112,-155.511,2
-21.759,-18.291,-222.402,-251.602,-24.058,-20.954,52.152,-56.793,-31.275,-24.022,-21.794,-37.773,-27.172,-28.102,-14.538,-22.118,-9.256,-40.978,-35.05,-32.451,25.674,-33.659,-33.894,-60.464,-57.636,-37.188,-28.319,-33.771,-144.597,2
-26.861,-19.297,-223.204,-250.838,-20.96,-20.421,84.887,-46.49,-23.559,-22.974,-23.309,-35.174,-26.12,-28.074,-14.523,-20.047,-8.223,-41.962,-30.916,-29.345,26.16,-28.502,-28.225,-52.719,-66.8,-29.979,-23.168,-25.54,-147.014,2
-17.612,-10.569,-217.346,-244.44,-19.402,-7.08,68.408,-32.612,-11.752,-14.754,-13.04,-28.479,-19.434,-16.775,-9.385,-12.342,1.52,-30.137,-20.639,-17.532,34.331,-18.74,-21.536,-47.031,-66.221,-18.166,-16.997,-14.756,-147.891,2
-11.447,-10.046,-219.178,-241.121,-18.871,-4.512,36.065,-33.091,-16.351,-13.202,-9.953,-25.377,-15.316,-15.221,-7.327,-9.256,6.641,-24.471,-18.057,-13.929,35.321,-14.622,-23.564,-50.57,-45.15,-20.197,-14.419,-21.913,-138.522,2
-11.436,-19.77,-229.717,-248.052,-21.926,-17.827,62.156,-54.575,-30.167,-24.46,-18.652,-27.4,-20.936,-26.989,-10.393,-10.784,-0.026,-32.131,-24.187,-22.112,30.675,-22.292,-27.639,-60.766,-26.149,-31.959,-18.503,-36.748,-147.605,2
-5.789,-15.139,-219.753,-252.415,-24.978,-20.883,94.882,-64.767,-27.575,-22.898,-13.51,-24.811,-19.89,-21.839,-11.92,-6.674,4.073,-24.927,-18.527,-16.454,34.743,-18.684,-17.878,-59.168,-25.099,-27.317,-17.459,-29.027,-150.531,2
3.439,8.442,-190.844,-234.744,-9.583,0.142,86.078,-36.525,-5.006,1.203,8.02,-8.393,2.671,8.409,3.974,9.726,28.66,1.738,4.033,6.616,50.078,6.95,2.12,-31.956,-30.197,-2.699,-0.536,-2.87,-121.691,2
1.386,12.532,-191.166,-220.677,1.697,14.487,53.716,-15.484,4.22,10.423,10.574,-4.286,10.353,17.622,15.24,12.278,32.729,4.298,4.541,4.56,50.54,9.505,2.631,-21.166,-34.777,4.476,4.075,1.743,-115.934,2
-16.546,-17.194,-223.25,-245.047,-20.846,-10.631,54.687,-43.133,-21.399,-14.69,-18.639,-28.36,-19.371,-14.671,-8.341,-13.862,1.446,-27.982,-27.739,-27.72,25.386,-22.78,-25.037,-53.42,-37.816,-22.68,-22.056,-27.46,-148.094,2
-29.85,-40.743,-241.47,-270.418,-40.805,-38.285,87.42,-68.705,-45.456,-38.754,-38.088,-46.775,-42.406,-36.686,-30.874,-29.73,-15.462,-45.884,-46.154,-40.5,11.529,-42.225,-42.43,-76.421,-41.877,-49.81,-40.477,-52.023,-159.729,2
-20.598,-30.969,-222.273,-252.216,-23.346,-26.463,79.136,-52.243,-33.116,-30.518,-22.168,-34.945,-30.068,-19.23,-14.449,-16.892,0.948,-28.932,-29.202,-25.09,26.374,-26.301,-30.092,-59.95,-53.618,-40.539,-27.117,-42.75,-140.614,2
-4.696,-12.495,-207.706,-236.595,-6.417,-6.969,46.781,-35.797,-12.59,-9.995,-3.703,-21.078,-12.107,-4.867,4.52,-5.605,11.193,-16.608,-15.34,-14.819,37.618,-11.93,-17.767,-43.497,-62.786,-17.444,-12.745,-22.215,-134.325,2
-4.692,-11.458,-221.331,-258.388,-14.607,-11.061,53.907,-37.298,-12.578,-8.449,-8.822,-24.643,-14.656,-12.034,-0.607,-8.673,6.059,-23.764,-19.936,-19.414,31.433,-13.968,-22.36,-46.527,-48.891,-16.915,-15.294,-19.631,-142.9,2
-11.347,-19.643,-231.356,-266.326,-24.839,-15.66,51.291,-35.724,-18.713,-20.735,-20.084,-33.84,-24.888,-17.145,-14.439,-15.837,0.929,-29.888,-24.526,-25.03,26.279,-20.614,-25.924,-52.628,-28.862,-27.656,-20.914,-24.734,-150.442,2
-11.335,-20.136,-220.366,-248.129,-28.912,-14.62,47.654,-43.372,-23.817,-28.399,-22.113,-36.88,-28.449,-17.64,-24.671,-19.407,-0.096,-30.882,-25.527,-25.518,26.252,-22.642,-22.312,-48.477,-38.055,-23.53,-21.918,-23.685,-146.193,2
-5.176,-9.869,-206.825,-243.782,-27.346,-16.655,80.394,-58.186,-28.916,-24.272,-16.456,-31.207,-23.298,-10.963,-21.06,-11.191,7.589,-24.192,-18.841,-18.32,31.861,-12.374,-15.629,-34.596,-53.898,-8.65,-16.26,-17.514,-120.431,2
2.513,3.46,-198.422,-240.977,-10.925,-8.441,74.166,-42.246,-19.154,-9.904,-2.607,-16.319,-9.954,5.442,-0.546,3.165,22.95,-5.724,0.133,-5.494,46.174,3.52,-4.855,-24.828,-26.692,2.118,-2.924,-4.176,-103.917,2
5.585,7.043,-202.834,-231.002,-1.18,3.35,41.816,-22.224,-7.351,-2.721,5.593,-10.155,-4.309,4.924,6.114,5.211,26.001,-0.596,4.744,0.147,49.202,5.054,-3.826,-33,-1.562,0.579,-1.384,-0.586,-123.793,2
-1.593,-7.821,-224.148,-244.604,-15.524,-10.998,74.562,-46.28,-23.226,-18.6,-9.782,-22.441,-19.674,-15.573,-8.749,-8.114,11.118,-20.575,-13.704,-10.099,33.783,-10.833,-20.728,-47.311,-33.836,-16.841,-17.264,-21.59,-146.723,2
-8.764,-17.035,-226.485,-256.654,-23.193,-27.893,107.275,-68.776,-35.498,-29.852,-22.58,-30.615,-30.413,-20.168,-14.376,-16.815,1.886,-26.19,-16.252,-18.286,30.676,-14.408,-22.244,-45.727,-57.881,-23.484,-22.883,-28.228,-136.843,2
-8.243,1.938,-201.156,-231.807,-6.776,-9.934,74.893,-39.505,-12.921,-11.379,-5.651,-16.752,-12.452,0.344,-1.553,-6.552,16.228,-2.085,4.769,-6.485,47.551,4.562,-0.193,-27.751,-25.035,-2.968,-8.003,-4.122,-115.189,2
-9.259,7.571,-200.442,-223.378,0.403,3.396,74.305,-20.51,-4.199,-2.147,2.039,-13.149,-3.218,8.029,2.034,-0.91,24.921,3.04,4.252,-1.868,47.504,4.045,-1.729,-21.063,-20.399,2.67,-6.458,0.493,-119.172,2
-17.447,-21.125,-225.857,-255.43,-19.065,-20.686,107.019,-51.228,-28.785,-24.174,-22.554,-34.653,-25.244,-18.619,-13.337,-20.889,4.916,-26.165,-24.954,-23.895,29.013,-26.185,-30.417,-42.047,-52.654,-24.997,-25.407,-26.659,-149.792,2
-15.38,-26.227,-225.119,-266.446,-27.243,-28.862,74.636,-55.788,-30.293,-29.272,-27.142,-38.717,-30.854,-34.482,-20.496,-30.09,-4.822,-35.872,-31.589,-27.457,32.57,-27.184,-31.923,-56.349,-42.868,-32.656,-26.406,-27.145,-159.376,2
2.566,5.562,-203.889,-233.391,-5.699,0.368,65.34,-22.944,-3.623,-3.116,2.087,-11.013,-5.72,-5.246,-1.52,-4.444,19.261,-9.196,-2.868,0.747,56.616,5.631,-2.69,-34.263,-13.623,-0.861,-2.813,3.108,-128.99,2
9.736,14.778,-203.173,-224.961,4.041,2.929,98.063,-31.118,-4.132,2.523,11.306,-2.806,0.434,16.788,11.801,7.855,32.049,5.157,11.479,9.968,58.609,13.31,3.46,-16.298,-34.614,12.972,3.849,10.277,-111.955,2
-6.668,-8.291,-221.413,-252.401,-19.017,-25.763,84.645,-63.363,-30.255,-22.07,-12.271,-24.832,-22.621,-7.819,-6.653,-13.157,12.55,-11.242,-9.024,-13.096,36.521,-11.294,-19.085,-38.824,-52.51,-11.119,-15.622,-16.373,-136.946,2
-22.543,-22.627,-238.098,-262.907,-33.343,-29.836,52.285,-56.127,-37.397,-34.856,-28.141,-37.102,-33.869,-28.816,-26.627,-26.976,-1.808,-23.526,-27.971,-26.915,27.775,-24.09,-29.312,-61.326,-39.65,-30.063,-27.902,-34.8,-157.814,2
-16.885,-16.969,-233.761,-247.275,-16.403,-14.436,64.528,-34.554,-23.528,-20.476,-18.891,-26.819,-22.564,-12.906,-16.354,-17.728,7.416,-14.281,-22.307,-18.179,37.994,-19.456,-19.036,-49.994,-39.098,-23.373,-21.214,-25.543,-149.971,2
-1.499,-7.731,-212.523,-238.831,0.007,-8.787,97.251,-39.13,-13.77,-7.136,-3.503,-16.546,-8.197,5.038,3.13,-7.464,22.778,2.64,-7.94,-6.378,47.177,-9.19,-10.82,-34.575,-37.01,-9.005,-12.996,-12.71,-139.063,2
-5.083,-11.309,-211.286,-250.887,-6.653,-11.339,64.878,-42.165,-16.318,-11.74,-5.036,-18.579,-8.701,0.934,0.053,-8.481,24.292,3.662,-6.908,-6.884,44.056,-5.595,-15.42,-38.639,-24.165,-8.996,-16.057,-17.82,-146.096,2
-24.546,-26.667,-233.616,-269.592,-21.503,-22.599,32.538,-45.196,-28.085,-22.999,-18.864,-29.831,-22.525,-10.85,-16.341,-18.719,10.435,-14.785,-19.709,-16.61,32.741,-17.884,-22.065,-46.285,-41.047,-21.795,-24.238,-30.61,-156.196,2
-26.058,-26.64,-234.919,-271.371,-23.531,-30.773,65.293,-59.496,-32.155,-26.05,-19.869,-33.387,-24.039,-9.814,-17.861,-20.237,6.326,-16.819,-22.251,-19.155,29.635,-20.94,-19.481,-38.042,-65.085,-23.31,-24.213,-31.604,-143.745,2
-11.175,-6.634,-210.094,-252.144,-9.675,-12.812,98.015,-45.604,-13.168,-10.142,-3.456,-16.96,-4.547,4.028,-1.962,-7.409,25.788,9.837,-3.785,-6.329,40.876,-2.476,-7.166,-21.61,-43.503,-6.381,-13.431,-16.716,-119.01,2
-8.09,2.595,-199.125,-237.035,-0.956,5.132,72.302,-17.382,5.801,6.262,3.72,-5.16,4.166,8.635,3.675,-0.229,36.52,18.025,6.465,1.875,49.032,4.186,-0.499,-14.416,-10.672,1.31,-7.782,-2.354,-120.428,2
-12.693,-8.679,-213.783,-242.434,-11.714,-6.656,66.082,-31.196,-9.062,-8.089,-7.554,-18.987,-12.232,-7.255,-9.136,-11.5,18.041,-7.097,-12.497,-11.96,39.761,-13.237,-12.282,-23.111,-22.956,-13.548,-15.971,-10.037,-143.361,2
-22.927,-25.064,-230.475,-258.585,-31.682,-28.679,82.41,-63.441,-39.279,-38.307,-29.064,-36.899,-34.249,-27.74,-25.521,-31.468,-0.933,-24.508,-37.075,-33.464,22.303,-33.716,-33.274,-37.945,-55.209,-33.514,-30.3,-36.667,-154.489,2
-36.736,-34.26,-235.368,-270.622,-40.872,-39.921,50.052,-63.377,-45.387,-44.416,-40.818,-39.936,-44.973,-36.934,-32.668,-41.683,-3.493,-21.41,-42.674,-38.554,15.621,-40.854,-39.388,-43.03,-62.838,-41.165,-37.954,-52.512,-152.285,2
-30.039,-29.103,-231.546,-269.839,-35.195,-37.319,17.727,-47.945,-35.096,-35.15,-30.018,-35.285,-37.756,-28.7,-26.487,-32.42,1.633,-15.753,-32.385,-29.806,20.728,-30.055,-29.103,-31.716,-46.894,-33.44,-32.793,-41.188,-153.157,2
-14.128,-20.365,-226.704,-260.86,-27.476,-28.573,50.497,-53.02,-28.913,-31.017,-19.742,-31.152,-23.886,-15.352,-17.239,-22.653,7.779,-14.2,-25.692,-25.166,25.318,-17.729,-24.463,-20.413,-47.359,-22.648,-25.588,-25.778,-155.566,2
-19.749,-20.857,-221.867,-252.914,-26.424,-27.007,83.234,-60.139,-29.909,-27.4,-25.87,-31.12,-25.399,-16.361,-20.296,-28.778,7.771,-20.846,-32.839,-28.214,21.707,-25.396,-28.537,-19.881,-62.681,-23.137,-26.075,-24.727,-147.213,2
-24.852,-18.787,-214.985,-246.514,-24.86,-26.468,50.875,-47.784,-33.465,-27.372,-25.332,-32.626,-31.521,-22.492,-25.911,-30.799,5.202,-24.411,-35.88,-26.649,21.685,-28.957,-24.922,-17.812,-54.421,-24.139,-26.048,-27.264,-134.771,2
-14.581,-12.108,-214.77,-244.73,-21.762,-23.368,50.824,-42.613,-32.919,-30.419,-16.085,-27.983,-24.829,-14.273,-18.2,-21.034,13.394,-13.628,-30.209,-19.45,27.299,-17.145,-16.188,-7.548,-37.461,-17.455,-20.899,-23.651,-141.808,2
-15.591,-15.682,-223.777,-252.17,-21.74,-28.98,83.561,-59.989,-28.275,-26.29,-17.606,-23.344,-18.657,-7.086,-11.522,-21.013,23.627,-2.344,-40.425,-16.357,27.784,-17.128,-15.66,-2.417,-47.157,-16.413,-20.366,-21.578,-162.159,2
-23.773,-22.839,-230.213,-258.578,-23.767,-34.074,51.202,-62.49,-28.759,-25.239,-25.273,-26.907,-21.2,-7.592,-17.658,-26.115,23.603,1.757,-53.704,-18.39,21.608,-26.332,-21.792,-4.976,-51.208,-24.593,-24.444,-29.753,-159.947,2
-23.236,-28.963,-233.569,-260.881,-34.502,-33.528,18.876,-47.571,-32.829,-34.947,-28.322,-34.052,-26.302,-5.535,-26.35,-26.601,22.042,4.317,-49.04,-23.495,14.927,-25.794,-25.356,-10.094,-26.054,-30.716,-27.494,-39.97,-146.467,2
-23.726,-34.057,-233.847,-266.768,-46.251,-39.642,51.644,-49.572,-34.845,-40.036,-31.367,-39.141,-32.423,-9.628,-30.422,-29.649,19.971,1.751,-49.503,-26.033,10.813,-26.28,-23.794,-12.133,-26.028,-31.198,-29.515,-41.467,-151.956,2
-17.042,-23.777,-220.806,-261.378,-33.909,-32.43,84.38,-53.109,-30.712,-31.799,-24.676,-33.979,-27.78,-14.229,-24.756,-27.058,18.414,0.212,-58.675,-19.347,16.95,-22.155,-17.622,-3.924,-47.007,-25.531,-24.363,-33.741,-150.78,2
-3.705,-8.384,-209.314,-242.674,-12.87,-10.88,61.242,-41.273,-19.923,-17.934,-9.282,-21.65,-13.92,-5.505,-10.387,-16.784,20.957,5.847,-59.641,-10.618,24.106,-9.838,-11.969,6.838,-36.201,-16.284,-16.141,-28.071,-132.186,2
-5.238,-14.011,-212.691,-241.919,-15.931,-14.968,59.132,-43.793,-18.878,-16.38,-9.785,-21.628,-15.955,-7.037,-8.84,-19.329,18.375,0.206,-64.192,-15.218,19.471,-13.414,-13.494,6.319,-22.333,-14.219,-16.125,-30.605,-131.541,2
-14.967,-23.219,-207.355,-254.484,-22.575,-27.761,60.61,-48.36,-23.983,-23.536,-17.46,-26.217,-18.501,-15.227,-17.028,-23.408,14.77,-9.016,-68.227,-17.252,17.914,-19.036,-15.018,7.85,-42.803,-15.229,-17.646,-25.451,-147.804,2
