Timestamp,Cz,Fz,Fp1,F3,C1,C3,T7,C5,CP5,CP3,CP1,P1,P3,O1,CPz,Pz,Oz,O2,P4,P2,CP2,CP4,CP6,C6,T8,C4,C2,F4,Fp2
0.0,-58.378,-22.679,33.625,26.463,333.375,-136.602,207.602,-17.736,0.722,-32.512,-132.539,-14.009,-22.278,-7.305,-115.718,11.586,21.468,92.227,0.659,-56.14,43.231,-16.988,17.959,35.764,109.961,-14.559,-209.53,37.599,-4.215
7.3900000188587e-05,-53.709,-22.656,21.296,18.239,339.702,-131.854,215.079,-12.595,9.43,-28.381,-120.623,-3.237,-13.547,-2.687,-112.528,16.186,28.618,93.672,1.683,-48.912,49.848,-16.971,16.404,32.142,108.314,-16.594,-201.636,40.635,-10.358
0.014961000000312197,-55.192,-21.097,15.127,23.344,338.338,-132.235,210.765,-7.459,13.007,-23.229,-116.404,-0.16,-8.41,3.976,-111.391,17.706,29.102,96.652,2.194,-47.838,48.774,-18.491,12.289,31.085,108.718,-19.139,-198.873,40.594,-15.471
0.01502150000032998,-53.6,-15.953,22.796,22.296,342.098,-132.615,215.678,-5.915,16.068,-17.571,-115.263,7.013,-6.353,11.144,-109.743,24.861,34.196,104.752,6.29,-48.303,52.823,-13.862,16.375,38.739,116.807,-13.485,-193.551,43.628,-7.771
0.02996740000025966,-41.764,-7.228,27.896,23.811,357.125,-126.847,235.954,-1.81,24.249,-10.893,-105.926,17.764,4.412,16.256,-103.485,36.107,43.383,113.356,12.944,-38.008,64.554,-4.114,30.703,48.434,130.01,-5.274,-182.599,60.49,2.483
0.030029800000193063,-39.16,-4.146,22.233,34.546,361.379,-129.794,232.645,5.364,27.811,-8.833,-102.234,16.209,7.994,15.215,-102.357,34.534,35.655,112.731,11.394,-36.433,63.464,-4.623,30.673,49.41,129.367,-8.855,-181.904,72.213,-0.081
0.04496470000003683,-50.904,-4.655,19.649,35.536,353.845,-137.861,219.092,10.482,23.684,-15.484,-110.841,7.996,-1.236,10.077,-110.964,24.765,25.374,108.007,6.259,-46.131,54.179,-11.278,24.494,47.311,126.164,-17.043,-189.919,68.554,-4.179
0.05991519999997763,-54.952,-8.236,20.654,27.816,347.343,-138.236,229.631,8.422,22.124,-20.592,-118.415,4.914,-2.771,7.505,-112.902,21.667,30.471,111.998,6.253,-43.523,53.101,-12.804,28.568,52.899,137.309,-15.489,-189.217,70.535,-3.15
0.05997290000004796,-56.946,-17.449,8.338,18.566,338.799,-145.782,228.889,-0.808,25.688,-23.133,-124.957,-0.214,-2.256,5.961,-111.765,16.01,26.342,112.398,3.685,-40.405,50.486,-17.402,24.441,50.285,133.073,-15.986,-195.688,72.514,-14.418
0.06001670000023296,-63.037,-18.457,-6.527,10.351,331.8,-154.345,213.291,-3.369,26.687,-27.208,-128.93,-6.873,-10.451,4.93,-116.776,9.846,15.558,106.65,1.12,-43.951,48.386,-19.946,16.22,43.575,115.521,-18.531,-206.251,67.83,-27.724
0.0750463000003947,-52.728,-4.606,-1.397,19.562,341.202,-144.457,227.423,4.319,24.098,-24.107,-121.117,-1.231,-6.854,7.487,-112.561,21.107,24.251,117.302,13.927,-35.198,61.658,-6.093,30.036,55.314,125.652,-7.754,-194.773,80.57,-18.474
0.09004070000037245,-37.818,1.034,5.776,30.301,351.62,-137.14,243.077,5.339,23.562,-16.911,-114.335,7.479,-0.7,7.992,-100.153,29.795,28.838,126.406,22.11,-24.404,72.355,4.159,40.252,68.066,139.359,0.962,-181.771,96.884,-9.747
0.09010520000038014,-42.391,-4.09,-2.939,24.123,347.682,-144.688,225.415,-3.375,27.125,-20.992,-119.344,3.886,-5.822,2.861,-103.127,21.056,18.05,113.985,12.354,-31.552,68.184,-3.018,28.941,60.826,128.973,-7.748,-188.762,91.664,-19.983
0.10605460000033418,-43.373,-2.549,-8.059,22.049,347.847,-143.519,212.894,-1.323,29.147,-23.533,-117.688,0.808,-3.767,2.858,-110.708,17.449,19.569,110.284,8.755,-36.644,68.628,-5.064,26.863,62.814,130.381,-9.789,-188.573,93.109,-18.426
0.1061279000000468,-29.497,2.064,-2.415,27.15,356.72,-136.203,222.415,11.999,29.63,-13.775,-106.812,7.467,2.897,8.49,-104.45,23.067,25.185,118.883,15.406,-31.484,73.682,0.577,36.058,74.022,143.059,-1.582,-179.163,104.799,-5.088
0.12003980000008596,-23.833,5.136,0.149,26.099,362.511,-132.993,227.316,14.036,31.137,-7.101,-102.606,12.583,1.869,11.043,-96.148,22.531,22.086,114.666,14.879,-32.99,72.072,2.113,37.046,70.875,139.842,-0.556,-180.52,104.182,-6.107
0.1201072000003478,-18.173,15.89,2.71,35.806,368.809,-123.126,225.039,10.948,32.131,-4.533,-98.405,15.644,8.015,14.106,-92.466,28.144,28.212,114.039,16.401,-28.858,77.123,8.771,42.645,73.878,140.726,5.592,-177.266,111.25,-4.564
0.13503950000040277,-6.884,26.12,7.83,50.628,374.588,-118.392,221.74,18.622,34.66,-0.942,-91.647,24.85,15.692,18.191,-84.689,41.436,35.356,125.708,24.581,-17.558,84.218,17.984,48.75,87.124,147.758,16.345,-167.355,125.996,4.662
0.13688860000002023,-12.513,19.434,1.675,39.818,365.504,-134.155,216.908,18.091,33.088,-8.626,-99.24,23.8,7.991,12.025,-85.629,37.809,25.587,120.459,21.995,-22.664,76.449,12.33,38.967,79.352,136.339,9.668,-172.311,115.623,-6.613
0.15007110000033208,-28.382,1.996,-11.135,18.262,349.769,-148.366,218.228,0.142,21.785,-20.4,-112.461,9.944,-0.726,4.84,-101.425,21.889,19.926,110.093,12.239,-35.449,67.151,-1.002,29.194,61.854,120.834,-4.686,-186.995,97.577,-26.587
0.1501365000003716,-31.427,-5.179,-15.222,14.657,349.932,-145.656,219.034,-4.981,16.64,-16.281,-111.836,6.348,0.299,9.446,-107.984,18.794,25.029,114.593,10.178,-34.901,67.084,-2.538,27.628,61.28,119.688,-5.706,-192.956,96.967,-24.511
0.16511060000038924,-30.371,1.999,-11.621,21.815,359.315,-137.825,211.643,5.782,25.845,-9.605,-107.113,11.977,2.348,11.998,-102.752,22.873,23.467,113.454,12.729,-30.768,65.992,-0.486,22.99,63.78,119.569,-3.138,-190.202,97.382,-17.314
0.1651688000001741,-28.804,6.095,-11.609,26.404,352.808,-132.564,204.771,5.776,25.306,-13.694,-109.055,8.379,2.346,5.839,-99.576,18.752,17.808,105.656,10.667,-31.762,65.926,-3.56,20.917,59.618,113.814,-2.623,-184.376,96.26,-19.858
0.18010320000030333,-22.115,0.966,-14.671,22.279,326.84,-128.846,202.517,-4.988,12.473,-16.754,-110.483,3.248,-2.779,4.808,-94.353,13.61,19.327,108.624,9.12,-30.193,68.422,-4.068,23.97,59.046,109.602,-1.083,-175.482,99.238,-20.351
0.18016680000027918,-20.556,-1.596,-17.218,14.572,304.484,-129.742,199.753,-8.057,10.924,-16.737,-110.373,3.244,-6.363,8.39,-89.136,11.547,20.332,111.59,10.135,-28.626,66.304,-1.503,22.922,59.499,108.98,-2.619,-169.159,98.114,-18.794
0.19517410000025848,-22.585,2.504,-20.275,18.144,308.79,-131.661,196.48,-0.876,17.061,-18.77,-110.262,2.217,0.816,8.893,-94.682,7.949,20.312,110.453,11.662,-29.11,66.75,1.06,25.46,58.927,110.92,-5.691,-169.502,101.09,-19.799
0.19687610000028144,-18.976,7.112,-17.181,29.396,326.412,-133.066,196.283,5.272,17.556,-15.165,-106.054,5.288,4.913,11.958,-98.174,11.528,21.829,115.978,12.163,-27.031,68.733,2.596,27.484,59.893,109.784,-3.636,-171.382,106.112,-15.169
0.21016810000037367,-18.445,10.179,-12.04,28.855,327.111,-133.958,201.722,1.681,16.514,-11.564,-102.874,9.381,-1.751,10.41,-93.977,16.127,17.708,113.301,9.077,-28.541,64.053,-0.993,19.26,56.247,103.015,-4.144,-170.186,97.809,-14.129
0.21023600000035003,-23.549,8.632,-13.565,23.19,321.148,-131.262,202.033,2.704,18.547,-15.138,-103.283,4.249,-2.262,2.202,-92.346,8.938,10.518,101.917,3.432,-32.611,59.379,-7.652,13.605,52.092,100.35,-7.214,-172.577,93.1,-18.726
0.22520170000007056,-19.94,9.648,-13.552,30.852,336.709,-124.983,188.511,17.046,24.163,-10.0,-101.643,4.245,2.351,3.225,-94.303,7.393,11.532,107.45,3.429,-31.554,58.295,-3.546,18.202,58.188,103.836,-4.133,-173.429,103.766,-11.535
0.22526520000019445,-15.309,15.273,-9.44,35.944,354.815,-124.858,184.224,16.004,29.262,-1.793,-100.005,12.95,2.349,9.881,-94.209,13.533,18.181,116.052,8.548,-28.961,58.236,4.655,23.819,64.79,109.367,0.994,-171.207,106.736,-3.839
0.24055170000019643,-21.441,13.209,-9.942,26.687,353.948,-137.029,211.192,-2.967,23.085,-12.037,-106.052,8.838,-1.752,8.335,-95.651,10.446,18.163,110.813,8.54,-32.006,56.641,1.576,25.333,65.237,111.82,2.53,-176.159,100.481,-9.982
0.24061170000004495,-24.494,8.073,-9.933,26.148,355.131,-144.577,237.621,5.745,14.865,-21.759,-110.557,-0.392,-3.287,10.375,-99.142,7.874,17.12,113.263,8.019,-33.511,52.998,0.038,26.844,68.246,111.708,2.015,-178.032,104.992,-9.972
0.25521500000013475,-18.322,13.7,-11.46,36.88,365.022,-135.21,225.088,30.33,19.461,-11.491,-103.786,7.293,-1.747,17.537,-98.53,16.063,22.226,122.372,11.597,-29.891,51.408,5.673,28.354,70.227,111.084,2.526,-168.12,106.423,-4.839
0.28531950000024153,-18.303,12.149,-24.256,32.745,367.731,-126.366,201.809,21.078,26.614,-4.308,-100.096,12.921,0.816,11.372,-94.333,16.047,21.691,116.102,8.512,-31.398,51.869,4.131,28.838,65.546,107.899,1.499,-171.538,92.997,-18.155
0.28538680000019667,-22.384,3.94,-31.404,21.953,362.752,-129.826,207.242,6.2,24.538,-7.377,-104.095,7.785,2.352,4.701,-92.19,10.395,15.522,112.912,4.917,-34.953,48.231,-0.484,27.785,64.456,106.254,0.472,-181.612,88.293,-26.333
0.2854284000000007,-15.701,11.109,-24.2,28.079,360.34,-128.159,213.183,17.977,23.489,-3.784,-100.405,11.876,4.912,10.331,-93.634,13.459,16.019,119.971,8.498,-33.381,48.183,4.639,27.245,69.002,111.783,2.009,-172.209,99.476,-10.938
0.28546970000024885,-10.562,18.782,-22.127,35.223,366.127,-121.883,197.088,22.57,26.54,0.319,-95.181,18.524,6.444,9.297,-92.516,14.47,17.027,115.24,8.49,-34.372,51.209,7.196,26.705,66.372,111.671,2.007,-165.377,105.012,-4.779
0.3003592000000026,-16.187,12.103,-23.129,28.016,371.909,-125.347,193.817,11.789,26.001,-3.78,-102.258,13.382,2.339,3.14,-90.374,9.844,10.863,108.977,4.383,-38.948,43.473,0.529,23.605,60.157,102.85,-3.631,-175.458,98.759,-10.922
0.30042090000006283,-21.294,10.554,-21.569,30.037,361.803,-129.321,206.431,12.801,21.876,-8.899,-106.767,10.295,1.312,8.259,-93.358,7.785,9.827,113.992,5.403,-35.836,37.794,-0.496,21.019,61.122,101.723,-6.188,-176.307,94.049,-9.886
0.31443239999998696,-19.224,12.081,-23.597,38.204,345.56,-124.58,203.151,16.887,21.854,-9.915,-102.049,13.359,3.36,13.887,-93.777,8.29,13.403,116.951,5.91,-33.238,43.904,3.603,25.097,64.135,105.207,-1.059,-169.471,91.906,-11.414
0.31450130000030185,-17.667,5.409,-25.622,27.407,337.017,-119.333,198.337,12.26,22.345,-8.368,-103.484,10.784,-0.23,8.237,-87.023,7.257,9.292,113.761,3.342,-36.279,42.323,1.038,22.51,59.46,98.442,-1.57,-167.764,89.765,-16.525
0.32939269999997123,-18.674,3.354,-26.621,17.646,326.947,-122.287,206.848,10.71,15.662,-10.921,-106.967,7.699,-2.279,2.081,-85.912,4.688,4.672,110.573,3.339,-34.193,34.596,-1.525,13.778,55.302,91.171,-7.204,-165.035,88.138,-14.972
0.32945980000022246,-20.705,7.961,-29.156,30.948,322.009,-126.776,206.641,12.237,15.647,-13.984,-104.298,9.228,0.285,1.055,-89.412,3.147,6.204,109.95,4.873,-30.061,36.098,4.112,18.375,60.37,94.666,-3.611,-163.333,90.612,-11.883
0.3443761000003178,-17.61,9.49,-25.541,36.04,331.421,-122.551,198.237,15.298,28.951,-6.286,-99.583,11.268,2.846,3.103,-87.785,6.217,7.735,114.451,5.892,-31.055,37.087,8.719,28.603,66.457,99.182,-1.046,-164.194,96.669,-9.822
0.34444440000015675,-14.007,7.944,-25.515,22.684,333.651,-116.793,197.015,20.918,30.459,2.942,-95.897,12.282,2.843,4.637,-86.673,6.723,3.628,111.263,6.399,-32.561,31.414,3.075,22.939,60.755,93.448,-6.168,-164.542,91.449,-12.886
0.35936690000016824,-18.091,1.276,-39.322,19.588,330.243,-117.7,195.793,21.41,18.646,-3.721,-95.802,11.757,0.791,-2.028,-87.611,2.106,-6.109,100.393,3.831,-33.553,30.871,1.022,16.256,52.497,82.596,-5.137,-166.427,80.087,-24.656
0.3594276000003447,-17.561,3.836,-38.771,31.351,341.184,-113.484,196.622,23.437,23.75,-5.766,-95.193,15.331,1.303,-6.637,-83.937,8.251,-6.615,104.391,4.852,-31.47,35.451,10.755,25.974,59.105,88.149,3.577,-160.625,87.691,-18.484
0.3893078000000969,-9.346,18.689,-24.9,34.394,351.089,-108.248,205.647,30.074,38.583,8.072,-88.951,23.513,8.986,5.153,-80.267,17.977,5.174,116.07,11.507,-27.34,33.366,15.355,35.169,67.243,102.405,6.135,-147.145,100.924,-0.534
0.40442250000023705,-18.046,13.035,-30.51,23.601,341.004,-117.873,208.515,23.896,31.885,4.477,-92.96,17.854,7.952,8.734,-84.285,11.299,4.657,109.294,10.983,-32.949,23.599,5.606,27.962,59.491,96.155,-0.531,-148.022,90.577,-9.755
0.4060928000003514,-30.836,-2.859,-41.75,18.454,330.417,-126.977,202.159,12.602,16.996,-13.97,-106.187,5.541,-1.789,-5.619,-90.861,2.066,-8.155,102.012,3.287,-40.088,18.452,1.502,20.762,53.796,85.301,-7.703,-149.923,78.191,-26.14
0.40614040000036766,-17.997,7.39,-30.438,30.219,335.722,-121.215,198.37,15.663,20.565,-10.37,-101.982,10.658,3.848,-2.028,-88.721,12.31,0.562,113.181,9.944,-32.876,25.606,13.796,32.012,67.062,98.535,-2.059,-127.232,92.969,-11.256
0.41951030000018363,-6.708,20.19,-20.673,38.898,344.095,-116.995,201.246,20.77,30.791,1.936,-91.122,20.894,14.09,15.393,-80.435,22.544,17.468,122.289,22.23,-23.109,30.703,23.516,45.812,78.266,110.22,9.726,-108.662,105.172,4.124
0.41957470000033936,-18.485,8.899,-32.948,26.051,335.554,-124.05,206.68,17.676,24.1,-10.874,-101.789,10.627,5.879,8.205,-82.404,13.3,9.253,116.531,16.572,-27.184,20.939,17.345,36.032,68.454,97.302,6.13,-119.311,90.21,-7.663
0.43466090000038093,-27.688,-2.381,-47.26,15.779,323.948,-127.0,201.863,16.633,14.854,-21.109,-112.446,0.882,-1.299,-2.561,-90.519,2.528,-2.027,109.755,4.26,-34.842,9.647,8.618,21.652,55.578,85.421,-3.098,-133.537,75.775,-22.0
0.434725100000378,-24.586,1.72,-44.139,25.497,331.821,-120.725,189.365,20.203,22.524,-5.719,-101.575,10.103,7.924,8.712,-88.891,3.55,7.197,109.645,5.28,-34.294,9.125,9.122,24.704,55.01,88.41,-0.021,-128.792,77.748,-20.441
0.4495049000001927,-20.463,5.817,-32.312,33.156,343.272,-113.945,194.299,25.818,32.235,3.509,-89.178,18.802,14.064,13.314,-83.679,9.695,12.313,110.56,8.349,-32.211,11.165,12.186,26.728,56.492,90.883,2.028,-122.004,80.232,-13.761
0.4645236000001205,-20.955,4.274,-30.742,29.025,340.88,-113.318,199.74,28.354,31.178,-4.18,-89.089,17.246,12.513,4.079,-85.132,12.759,6.153,107.888,7.828,-33.203,10.13,12.174,21.066,52.337,85.157,-1.56,-127.517,76.053,-14.259
0.4662319000003663,-26.57,-1.365,-39.933,24.897,337.465,-117.304,182.634,20.128,31.147,-5.712,-94.123,17.229,13.012,5.612,-86.072,10.697,7.683,105.219,7.82,-34.707,8.582,11.137,23.094,52.284,80.461,1.003,-133.537,72.391,-17.831
0.4796046999999817,-31.154,-5.975,-42.455,17.7,335.591,-123.846,182.964,9.35,25.481,-10.83,-99.664,14.65,8.901,9.705,-87.523,5.563,8.188,104.089,5.763,-35.185,6.012,10.102,26.658,53.769,79.868,3.051,-128.793,70.27,-19.35
0.4796739000003072,-28.561,-5.457,-39.851,13.072,328.083,-126.284,205.835,9.853,11.111,-24.139,-103.151,7.976,2.232,5.084,-90.509,5.045,1.52,106.546,4.733,-35.662,4.469,8.042,25.094,49.617,80.301,2.024,-125.078,67.638,-21.38
0.4949757000003956,-30.069,-3.402,-40.835,20.231,327.242,-123.596,196.407,14.454,13.149,-24.627,-103.56,7.968,3.767,2.005,-88.882,7.089,3.567,112.075,8.314,-34.601,2.416,7.522,26.606,49.055,81.245,3.559,-129.564,66.546,-23.408
0.4950474000002032,-34.138,-0.837,-35.159,22.26,331.013,-125.522,175.206,9.316,21.845,-20.504,-102.432,10.009,6.837,5.077,-86.744,6.058,11.761,115.549,10.868,-33.03,-3.734,9.564,28.628,53.104,85.262,2.018,-133.02,67.504,-17.237
0.5095333000003848,-28.468,4.287,-27.439,20.188,332.219,-129.495,188.863,2.135,13.114,-24.07,-100.792,8.462,5.293,12.244,-91.78,4.515,13.798,115.946,9.832,-31.46,-4.755,10.579,29.112,52.027,88.251,-0.033,-131.863,69.485,-13.121
0.5095974000000751,-25.878,3.77,-30.998,28.365,336.498,-123.73,196.359,7.768,11.051,-21.996,-99.667,10.503,6.312,17.868,-92.2,6.047,14.809,114.293,8.798,-31.429,-0.652,10.568,31.645,49.925,86.113,4.578,-131.731,66.854,-17.207
0.5245472999999947,-33.537,-2.381,-37.627,23.726,334.624,-121.557,176.183,12.883,18.725,-20.95,-103.666,9.98,3.744,13.239,-87.497,5.016,14.282,111.105,7.764,-34.471,-5.262,11.582,29.051,51.412,82.953,6.11,-137.747,58.591,-18.726
0.5263273000000481,-36.065,-4.94,-42.2,4.235,322.507,-131.681,173.957,-1.474,8.46,-34.761,-113.808,-0.276,-4.969,8.103,-93.045,-2.673,8.632,109.969,3.658,-39.56,-14.478,9.521,24.924,46.75,83.895,5.592,-150.929,52.897,-21.781
0.5396087000003718,-31.418,-2.886,-49.843,6.28,327.307,-131.037,181.98,-11.207,2.304,-37.288,-114.719,-3.35,-5.988,11.681,-96.538,-5.232,7.599,111.396,1.605,-40.032,-12.927,4.901,26.948,41.068,83.811,8.66,-155.901,50.794,-31.493
0.5396709999999985,-23.702,2.752,-50.305,19.081,345.423,-115.537,172.577,6.735,15.622,-20.857,-97.698,8.437,1.702,16.28,-82.097,6.556,15.276,113.334,4.677,-32.308,-4.717,8.482,30.507,46.662,81.166,12.237,-141.913,51.256,-30.437
0.554661500000293,-16.506,6.336,-40.009,14.963,349.688,-112.348,171.892,19.536,20.729,-13.664,-88.891,16.625,4.775,18.825,-73.818,14.747,21.408,116.294,7.234,-27.665,-4.712,15.134,30.989,49.689,83.134,13.25,-133.574,53.254,-20.161
0.5547251000002689,-24.687,-0.843,-40.993,9.313,342.166,-125.555,180.942,4.66,14.048,-23.384,-102.635,9.949,1.184,19.319,-87.577,5.51,19.338,114.129,3.641,-36.346,-14.442,6.922,26.86,37.344,80.489,6.577,-145.736,45.516,-24.751
0.5696328000003632,-38.494,-12.113,-51.199,9.304,335.677,-134.139,175.125,-7.64,9.936,-32.582,-113.29,0.717,-3.428,12.639,-97.223,-4.741,10.609,103.769,-3.023,-46.044,-24.161,-2.307,19.661,27.573,68.113,-4.701,-156.349,32.663,-40.096
0.5696923000000425,-33.845,-11.076,-53.709,4.684,337.39,-128.37,167.778,-0.46,8.389,-31.525,-109.079,-0.308,-7.011,5.454,-88.417,-2.175,3.426,100.079,-4.044,-41.899,-25.161,3.843,24.764,34.206,71.631,0.427,-153.631,32.118,-40.056
0.5845210000002226,-30.737,-7.479,-55.704,-1.981,343.713,-123.118,167.61,8.249,9.405,-26.882,-107.433,3.278,-8.029,2.887,-84.23,-0.636,5.472,104.589,0.058,-36.734,-20.526,8.45,33.961,40.831,84.88,9.136,-151.428,34.647,-32.843
0.5861638000001221,-40.953,-13.619,-62.309,-4.028,340.295,-132.217,168.979,3.63,8.883,-30.954,-111.424,0.201,-8.533,1.86,-93.367,-5.246,8.028,100.386,1.595,-42.333,-23.579,4.856,30.853,37.717,78.647,0.93,-152.813,29.49,-38.446
0.5996721000001344,-39.375,-16.167,-60.197,1.099,335.856,-141.306,173.421,-7.644,4.264,-35.021,-110.8,-1.848,-5.963,4.932,-98.909,-3.704,8.02,95.675,2.618,-45.364,-26.629,8.949,30.822,39.216,71.908,-2.145,-152.661,31.509,-41.994
0.5997502000000168,-30.114,-8.466,-53.989,12.368,345.767,-134.505,168.637,-5.587,7.333,-26.79,-107.615,5.326,-1.858,3.902,-94.712,2.96,6.988,98.141,3.64,-40.708,-20.455,14.576,40.525,45.837,82.595,4.517,-155.069,37.626,-34.267
0.6146691000003557,-33.158,-4.359,-53.935,12.356,353.106,-124.636,159.759,9.788,13.474,-18.566,-100.848,10.956,-0.832,-2.762,-92.055,7.568,4.419,95.994,4.149,-38.106,-16.336,15.586,40.997,47.84,87.123,-1.123,-158.5,36.563,-31.159
0.6307482000001983,-32.612,-4.355,-51.32,5.684,351.728,-124.512,173.432,11.315,10.899,-19.06,-96.648,11.457,0.194,1.852,-93.5,9.609,5.439,96.41,8.243,-37.043,-18.369,21.718,40.444,51.378,84.987,-2.659,-154.244,40.625,-30.103
0.6308105000002797,-25.919,-0.252,-46.145,11.826,358.036,-126.436,180.431,0.545,9.863,-18.016,-96.552,15.544,2.243,10.559,-89.821,13.186,14.143,105.023,14.895,-33.42,-15.277,26.819,48.6,56.45,89.512,4.004,-145.38,46.22,-20.339
0.6446696000002703,-24.869,0.773,-42.513,21.035,364.85,-121.699,158.733,3.618,14.464,-12.875,-90.82,22.189,3.777,8.499,-83.071,21.882,18.227,102.356,15.905,-29.8,-12.7,25.768,51.113,56.906,91.472,-1.635,-143.698,42.588,-16.22
0.644731800000045,-22.283,-0.253,-38.372,22.039,366.535,-114.917,156.525,17.959,21.622,-6.714,-81.507,25.753,7.872,10.028,-84.012,29.032,15.648,94.057,12.815,-29.771,-15.761,26.254,46.451,55.825,91.381,-8.294,-146.116,43.57,-18.253
0.6597350000001825,-21.236,0.772,-38.846,25.091,363.607,-114.802,171.738,24.601,23.65,-4.658,-84.5,22.653,7.352,10.018,-87.002,21.319,13.07,93.451,8.191,-34.864,-19.844,22.642,41.282,50.133,88.728,-10.847,-142.896,45.575,-17.211
0.6598001000002114,-31.461,-4.352,-44.955,16.357,335.066,-119.811,164.906,13.306,11.331,-13.875,-95.686,11.36,-3.926,-1.775,-85.891,7.465,4.86,87.21,1.011,-40.464,-24.947,9.812,30.994,39.837,76.856,-20.57,-140.191,35.796,-19.755
0.6747789000000921,-36.552,-11.52,-43.885,-0.566,302.456,-119.691,156.032,-5.663,5.171,-21.034,-100.713,5.201,-8.021,-0.237,-87.342,4.384,-0.78,80.975,-2.576,-42.986,-32.606,4.679,23.791,35.186,71.656,-25.672,-143.637,27.051,-25.883
0.674844000000121,-31.393,-9.459,-42.817,7.632,306.252,-112.911,155.876,-1.559,20.536,-12.303,-96.002,13.905,1.209,9.498,-87.254,8.99,7.93,90.627,1.525,-42.43,-33.599,8.773,28.89,36.176,76.707,-23.598,-144.006,26.511,-23.808
0.6897458000003098,-29.824,-8.937,-47.385,22.481,318.241,-108.188,151.109,15.861,22.564,-6.143,-92.32,17.477,0.183,3.34,-82.556,9.493,12.021,95.148,4.085,-40.851,-29.466,9.276,30.91,34.09,74.069,-22.037,-139.251,25.973,-22.247
0.6898046000001159,-32.356,-15.076,-47.85,9.138,305.115,-113.715,163.766,3.038,2.562,-17.408,-102.474,5.164,-11.088,-3.323,-82.986,0.775,1.763,87.368,-1.043,-42.347,-32.511,6.193,25.756,33.544,72.971,-11.769,-139.624,26.459,-27.86
0.7047185000001264,-37.959,-18.135,-51.9,-8.802,293.027,-121.286,175.385,-13.871,-2.052,-27.124,-115.691,-5.087,-14.151,-3.32,-87.514,-12.546,-4.387,83.182,-10.263,-48.452,-41.188,1.576,24.706,32.998,74.947,-0.999,-146.144,20.797,-36.029
0.704774499999985,-43.556,-20.166,-67.218,-10.33,300.931,-120.14,151.131,2.536,10.246,-24.023,-115.063,-5.082,-12.6,-11.513,-90.5,-17.657,-3.87,79.513,-14.351,-50.453,-45.245,-0.987,23.657,27.842,66.675,-4.071,-149.072,8.481,-44.702
0.7198545999999624,-39.927,-24.244,-73.298,-9.807,318.048,-117.458,139.197,10.218,16.383,-17.339,-108.288,-2.003,-11.05,-8.94,-90.41,-9.954,-2.842,79.945,-6.14,-44.767,-41.101,4.649,19.022,24.74,63.534,-6.117,-150.46,4.374,-52.342
0.7199221000000762,-35.788,-22.683,-61.954,-7.748,338.735,-121.439,162.112,-6.698,14.318,-15.273,-104.594,4.659,-4.892,6.95,-88.27,-1.748,3.309,90.624,-1.523,-42.161,-38.498,10.28,20.028,27.277,69.619,-4.061,-157.482,4.37,-54.339
0.7348747000000913,-40.363,-20.611,-42.424,3.018,348.13,-124.392,164.511,-5.667,10.717,-17.819,-101.928,6.191,-3.35,4.894,-90.743,0.816,4.842,90.021,-8.182,-47.242,-42.046,7.196,23.082,26.738,63.401,-8.156,-164.497,-2.295,-47.625
0.734937500000342,-42.372,-20.59,-17.791,14.798,340.097,-125.292,155.638,4.585,7.12,-22.412,-105.924,0.037,-10.006,-7.406,-96.288,-0.21,-4.384,75.074,-8.173,-48.732,-42.516,5.139,21.522,25.686,57.19,-12.758,-162.283,-2.805,-34.257
0.7502260000001115,-37.207,-13.91,2.719,22.98,339.757,-127.728,164.703,6.118,8.65,-20.853,-107.867,2.086,-9.996,-3.3,-91.581,2.352,-4.38,76.024,0.544,-45.097,-38.375,11.282,23.037,32.321,68.404,-10.184,-157.51,4.37,-20.903
0.7503009000001839,-33.583,-4.162,9.376,28.08,352.225,-122.989,154.293,11.235,12.74,-14.172,-100.587,8.744,-3.839,2.338,-86.366,7.473,3.309,87.218,2.593,-43.515,-37.312,17.418,28.649,38.948,76.532,-6.588,-154.791,11.026,-12.685
0.7648361000001387,-37.136,-5.183,9.879,25.491,351.873,-120.817,136.72,7.125,10.166,-15.695,-102.536,3.612,-6.909,-3.812,-96.014,1.83,-2.842,82.52,-0.484,-46.033,-39.837,17.401,31.182,38.397,76.968,-5.556,-155.661,16.65,-6.525
0.7648943000003783,-42.734,-8.764,11.918,17.781,344.861,-130.943,153.489,-2.616,2.983,-22.339,-110.118,-2.027,-13.049,-5.857,-100.528,-3.807,-6.937,79.364,4.128,-45.987,-39.285,17.384,32.688,42.457,84.576,-6.576,-162.165,19.708,-0.883
0.7799452000003839,-38.081,-5.169,15.493,18.275,353.225,-128.762,168.705,11.731,1.443,-16.169,-101.811,7.197,-9.45,1.833,-89.157,6.955,7.414,92.092,11.296,-39.281,-33.61,27.1,37.266,52.148,89.102,-7.594,-162.003,21.737,1.167
0.7800139000000854,-30.87,-2.602,12.403,27.479,361.069,-116.338,158.802,26.576,7.589,-7.444,-91.975,13.85,-2.781,4.393,-84.457,13.096,12.018,97.123,11.797,-35.143,-29.99,35.782,38.766,53.121,83.89,-9.635,-151.082,25.301,-2.932
0.7949617000003855,-34.426,-6.185,0.096,31.55,356.609,-122.37,161.718,12.717,9.119,-13.584,-97.006,9.737,-3.803,1.827,-92.057,8.472,3.809,89.854,10.248,-41.255,-33.546,29.086,35.141,46.92,80.732,-18.847,-149.907,22.715,-10.102
0.795030300000235,-41.563,-9.253,-7.077,26.907,355.228,-131.469,170.265,3.483,6.036,-19.718,-99.983,9.728,-6.873,3.362,-92.99,14.099,7.903,91.813,11.775,-45.825,-35.05,22.91,33.569,45.849,78.602,-26.001,-159.491,18.081,-15.215
0.8102104000004147,-44.596,-11.805,-7.582,20.733,352.311,-125.702,154.726,9.627,6.03,-18.674,-99.883,9.206,-8.915,6.433,-91.36,12.035,11.994,93.771,7.152,-45.779,-36.551,21.35,30.461,43.241,69.302,-24.95,-162.917,12.428,-20.835
0.8102796000002854,-51.211,-18.454,-16.796,8.416,338.639,-127.113,138.177,4.495,2.95,-25.315,-107.468,-1.05,-14.029,3.865,-98.953,-4.883,1.224,85.48,-3.101,-51.881,-44.712,13.132,21.209,32.439,63.597,-24.925,-166.341,-0.392,-31.572
0.8250124000001051,-52.697,-20.484,-20.878,1.748,335.227,-134.158,142.137,-5.756,0.385,-29.388,-110.947,-1.561,-14.015,1.812,-102.44,-3.341,0.71,86.931,0.488,-51.829,-45.692,12.094,21.701,33.944,70.706,-21.826,-172.322,-4.491,-35.639
0.8250815999999759,-43.935,-13.292,-12.66,13.017,346.162,-131.463,143.02,2.447,6.02,-19.625,-102.639,10.736,-3.755,6.421,-96.19,10.495,12.492,100.165,13.808,-39.994,-37.449,23.352,32.95,45.693,78.832,-14.12,-167.539,4.223,-26.895
0.8400226000003386,-44.916,-13.278,-14.696,16.59,345.304,-131.331,134.68,12.69,5.502,-18.068,-102.024,8.164,-2.727,10.513,-94.557,4.849,14.017,99.552,9.183,-43.028,-39.973,21.792,27.794,41.037,72.606,-19.229,-166.347,0.121,-23.281
0.8550320000003921,-55.629,-22.487,-24.928,-0.845,331.638,-135.298,142.742,-0.642,-1.163,-28.296,-112.168,-6.189,-12.458,7.428,-101.635,-10.013,6.83,85.62,-6.195,-56.305,-49.155,9.475,9.835,27.676,63.824,-23.308,-180.525,-10.638,-30.43
0.8550979999999981,-57.11,-22.976,-20.292,-3.918,327.208,-133.626,160.53,-14.986,1.399,-28.78,-116.154,-7.72,-13.47,3.322,-106.144,-14.101,2.213,81.948,-7.214,-55.736,-49.106,9.978,12.387,31.234,67.346,-10.989,-183.931,-7.554,-30.912
0.8703829000000951,-52.443,-14.244,-12.587,9.918,334.566,-131.443,156.783,2.447,9.595,-19.53,-109.89,-1.052,-7.309,6.393,-99.89,-8.452,6.309,89.039,4.064,-47.996,-42.909,19.189,26.719,42.986,78.037,-3.806,-172.988,-3.96,-20.123
0.8704440999999861,-46.755,-11.156,-8.989,15.544,343.965,-125.164,146.38,21.4,9.585,-11.314,-101.071,4.072,-3.203,12.534,-91.081,2.315,18.598,94.585,10.72,-44.362,-34.157,26.342,32.328,50.628,87.181,-6.364,-167.18,0.655,-9.857
0.8849998000000596,-36.462,-3.973,-0.783,23.213,354.892,-113.768,154.943,14.719,6.502,-6.179,-93.286,12.777,-0.638,14.059,-88.941,9.997,22.678,95.515,12.246,-37.145,-23.364,32.464,37.931,57.237,94.778,0.815,-160.353,14.487,-3.187
0.8850594000000456,-31.815,5.765,2.292,32.924,360.685,-116.216,159.399,7.532,7.52,-9.759,-90.631,15.326,-2.175,11.483,-90.901,9.475,13.946,94.395,13.771,-36.084,-18.73,37.042,41.991,59.229,100.319,5.937,-149.434,19.083,-0.622
0.9000123000000713,-36.906,1.149,-2.833,27.255,353.152,-126.346,148.994,7.012,8.537,-16.922,-96.688,8.651,-4.734,9.422,-92.347,7.929,9.834,89.178,12.733,-42.707,-19.736,35.98,34.265,55.071,101.243,-0.216,-149.284,15.99,0.403
0.9016741000000366,-39.943,-2.439,-1.294,24.154,341.528,-125.707,145.771,-2.217,5.455,-17.929,-102.739,3.519,-1.655,7.876,-92.255,4.847,8.799,86.527,6.572,-44.202,-22.278,30.309,27.058,52.455,98.58,-1.753,-154.258,22.122,2.964
0.9151445000002241,-42.977,6.785,2.806,31.815,337.088,-126.606,153.31,-3.239,1.863,-19.961,-105.71,1.979,-3.191,1.208,-98.31,-2.843,2.13,86.953,2.467,-47.231,-23.792,25.156,25.494,48.304,95.408,-1.751,-152.055,30.296,2.961
0.9152138000004015,-45.495,9.34,4.34,30.758,339.824,-133.14,164.427,14.183,6.472,-23.015,-107.653,2.489,-5.749,-1.867,-102.823,-2.328,-1.97,84.816,7.588,-51.283,-21.207,27.692,23.932,46.718,98.386,-2.774,-147.292,36.926,0.909
0.9301548000003095,-34.691,12.917,5.873,31.24,351.268,-126.859,170.41,28.513,19.273,-12.233,-99.349,12.22,3.478,5.307,-91.961,7.409,0.593,89.342,13.728,-43.547,-13.501,34.837,28.006,54.356,105.46,3.376,-142.534,46.111,2.957
0.9302193000003172,-26.972,20.589,2.281,39.405,364.236,-117.51,164.604,31.558,26.939,0.075,-86.954,17.331,11.159,7.863,-85.722,9.963,-0.944,100.012,10.64,-36.331,-9.389,33.777,27.978,55.327,103.305,6.447,-141.367,49.651,2.442
0.9451536000001397,-34.117,14.933,-3.357,35.268,364.384,-125.077,167.001,35.113,25.375,-3.512,-90.453,12.191,7.562,3.245,-98.956,4.317,-5.042,102.473,7.556,-38.344,-9.892,29.645,18.729,44.513,97.054,0.805,-144.299,47.552,-5.245
0.9452159000002212,-27.935,15.43,1.257,37.794,362.995,-127.514,184.253,44.812,29.448,-2.996,-89.851,15.765,10.628,9.389,-96.808,8.924,-2.475,104.932,15.745,-34.719,-3.735,34.738,22.296,46.005,103.105,3.366,-139.032,52.627,-4.215
0.9601291000003584,-13.051,32.321,5.867,54.662,374.416,-109.968,179.458,47.328,39.664,8.278,-76.953,24.458,18.302,18.089,-78.78,17.112,2.138,112.0,21.365,-27.0,2.929,40.851,29.958,56.205,110.687,8.998,-130.696,59.747,5.011
0.9751887000002171,-24.308,25.116,-3.361,39.751,363.283,-111.395,158.274,31.4,30.403,-1.977,-87.635,12.138,8.55,9.362,-85.874,7.873,-4.524,106.252,10.073,-31.584,-4.246,31.077,18.145,45.903,102.891,0.279,-139.274,54.052,-1.654
0.9752599000003102,-41.703,2.549,-12.579,7.435,330.644,-139.973,153.505,18.048,3.221,-28.102,-110.601,-8.879,-8.364,-3.968,-103.719,-12.115,-16.815,93.85,-2.745,-41.798,-12.951,18.238,5.832,31.0,97.665,-8.942,-151.43,42.727,-12.923
0.9753061000001253,-32.439,11.256,-7.955,17.674,334.412,-145.468,147.716,23.665,-2.93,-26.025,-103.318,-7.333,-8.356,-4.476,-96.955,-13.639,-15.261,94.269,0.332,-40.732,-7.303,23.343,14.535,37.117,106.789,-2.786,-148.717,50.369,-3.177
0.9902102000000923,-15.501,29.688,1.786,43.784,366.865,-124.83,138.859,25.179,13.979,-3.457,-86.308,9.581,2.923,3.725,-86.099,5.33,-2.438,107.495,15.7,-27.371,5.512,39.713,27.328,48.863,115.392,7.975,-140.884,69.786,10.147
0.9902809000000161,-12.411,27.609,8.957,35.031,371.621,-124.706,153.065,19.006,18.575,0.645,-84.173,18.28,8.043,11.919,-89.087,20.693,4.737,118.658,26.955,-18.634,13.191,47.871,33.961,54.962,122.961,12.578,-135.62,76.377,14.747
1.0056597000002512,-15.985,21.946,10.485,22.701,359.979,-137.388,162.645,22.573,13.434,-6.016,-86.138,16.213,6.498,12.419,-92.072,19.136,6.781,118.027,25.392,-24.764,12.666,44.236,34.439,56.444,131.547,13.59,-134.46,72.202,17.806
1.005733599999985,-20.58,22.949,4.327,28.826,365.254,-133.153,147.114,19.989,21.617,-2.424,-88.101,13.123,5.979,6.259,-91.98,11.944,5.75,110.224,16.657,-32.423,4.969,36.508,27.233,52.289,128.854,11.015,-143.547,70.08,14.202
1.0201881000002686,-22.096,20.877,1.248,30.334,364.377,-127.896,146.454,10.747,25.182,4.239,-89.037,14.134,8.535,6.765,-90.863,10.908,0.109,108.065,13.054,-30.342,1.378,33.397,23.107,47.626,125.651,7.418,-150.576,67.449,8.553
1.0220383000000766,-19.513,19.319,12.006,30.816,359.914,-127.256,162.189,26.618,16.447,6.796,-82.801,15.657,12.625,11.369,-88.211,12.434,-0.916,111.031,16.115,-28.774,6.499,38.487,27.695,49.115,134.235,8.435,-145.302,66.869,15.716
1.0352096999999958,-20.005,17.763,16.604,33.347,365.189,-123.543,162.027,45.035,14.894,4.227,-83.743,13.08,10.051,7.771,-90.684,10.372,0.622,110.92,15.587,-31.82,5.468,39.985,26.642,47.017,133.588,7.914,-147.206,66.29,15.188
1.050252300000011,-29.207,6.474,-0.318,18.456,354.578,-132.641,154.693,30.133,15.391,-5.511,-95.442,5.382,1.844,1.104,-96.741,3.702,-8.6,104.149,7.374,-34.862,-3.759,30.212,15.857,37.748,118.086,-1.315,-159.867,55.465,-1.733
1.0503115000001344,-36.35,-0.705,-10.052,9.216,338.342,-141.73,145.316,16.783,9.228,-12.165,-98.42,-0.771,-0.207,-0.947,-99.718,-1.937,-16.789,98.921,3.78,-37.901,-7.854,27.62,12.255,33.1,113.357,-5.412,-161.756,47.213,-6.854
1.0652501000004122,-29.654,11.591,1.741,20.99,349.787,-127.756,133.9,33.16,13.83,-1.907,-92.174,2.816,5.941,4.177,-99.106,2.675,-8.575,103.433,9.412,-36.326,-4.26,36.301,18.903,38.19,123.49,3.303,-152.885,56.899,5.96
1.0653128000003562,-20.915,19.777,5.326,19.432,359.683,-124.042,137.353,39.786,17.915,2.194,-91.057,6.912,6.447,8.272,-94.909,9.845,-6.005,108.965,10.427,-32.703,-3.743,35.241,21.446,40.713,125.415,8.935,-150.17,64.527,7.491
1.080236700000114,-26.017,10.535,-11.073,5.068,346.516,-142.361,147.974,16.693,4.577,-13.69,-98.651,-1.804,-2.781,0.579,-95.326,1.638,-19.831,100.147,2.22,-36.769,-8.35,25.984,11.69,29.914,114.019,0.216,-159.242,55.753,-5.324
1.0802925000002688,-30.602,11.037,-18.747,11.723,344.12,-141.194,140.653,8.479,0.986,-15.213,-99.065,-4.876,-2.266,-5.057,-98.817,-2.974,-21.348,94.412,0.168,-38.269,-10.391,27.495,7.068,23.224,111.344,-4.907,-162.156,54.673,-6.856
1.09535249999999,-15.202,26.395,-5.408,26.568,351.46,-120.56,129.242,32.549,20.965,6.319,-83.084,12.035,13.106,6.731,-87.447,14.447,-7.495,106.613,10.927,-26.96,-5.257,38.738,19.868,36.008,125.065,5.856,-143.039,68.963,9.545
1.0954171000003043,-3.404,28.93,2.282,22.956,335.74,-113.78,132.699,40.714,27.092,11.948,-72.755,21.756,17.703,10.31,-72.503,25.704,-6.463,114.703,17.576,-19.761,1.92,41.261,30.095,46.731,132.112,14.048,-127.014,71.968,17.733
1.1103447000000415,-11.597,20.192,-8.479,11.662,312.862,-119.301,137.177,18.644,16.306,1.69,-82.928,12.001,8.976,-1.995,-77.041,13.895,-16.19,106.391,11.923,-26.913,-3.717,34.047,24.429,38.999,122.246,4.812,-135.597,60.113,4.395
1.110411699999986,-17.221,18.123,-14.618,11.65,313.574,-121.744,131.917,18.113,19.876,4.762,-84.894,8.403,8.967,-1.993,-87.21,9.783,-16.686,101.162,7.3,-32.522,-12.423,31.964,20.306,33.837,119.05,-0.316,-141.609,55.954,-1.757
1.1253804000002674,-11.056,23.74,-2.821,19.836,327.093,-118.036,133.834,41.148,25.491,10.905,-75.588,12.493,14.081,5.181,-83.025,14.896,-13.596,105.159,10.879,-30.44,-7.8,36.03,25.921,40.976,126.103,10.955,-131.221,62.558,7.978
1.12544330000037,-9.508,29.352,3.33,24.426,328.815,-113.819,149.069,38.546,12.146,3.722,-81.148,7.869,6.383,1.077,-79.868,7.196,-15.631,105.566,8.819,-28.36,-7.792,32.921,24.359,42.472,123.928,12.993,-128.016,63.52,11.044
1.1393777000002956,-12.06,27.785,-2.821,25.427,322.339,-118.828,150.97,27.749,8.035,1.156,-86.702,5.3,-1.308,-2.51,-85.936,3.091,-18.689,102.387,3.175,-29.357,-18.03,28.277,16.65,34.232,117.144,0.173,-133.523,57.309,3.861
1.1394438000002083,-9.486,22.635,-4.355,25.914,325.09,-122.296,135.962,38.992,21.347,6.278,-78.418,12.467,6.89,2.616,-87.387,15.895,-14.572,105.358,8.807,-28.815,-16.987,30.298,19.195,30.612,116.514,-2.901,-134.927,55.202,3.857
1.154435000000376,-9.989,21.587,-5.375,19.74,333.987,-120.637,137.363,38.953,19.277,3.71,-81.414,11.942,11.494,1.588,-87.812,17.929,-9.435,107.302,11.872,-28.274,-13.384,30.267,19.175,31.094,112.299,3.249,-138.89,52.073,3.853
1.1545005000002675,-21.762,12.344,-18.69,4.863,335.702,-129.225,144.398,16.372,2.351,-9.613,-98.751,-2.927,-1.838,-7.122,-97.458,0.492,-15.061,96.949,-4.534,-37.467,-31.814,21.016,5.324,20.304,99.379,-1.877,-146.436,37.164,-11.52
1.169440200000281,-35.573,-4.574,-33.016,-7.949,328.706,-141.391,123.761,5.085,-4.823,-22.924,-110.948,-15.731,-15.156,-14.8,-107.606,-12.316,-27.853,86.606,-16.825,-50.75,-48.688,10.236,-2.366,7.988,93.132,-11.609,-157.56,23.807,-29.952
1.1695041000002675,-40.66,-4.057,-34.008,-8.454,322.742,-140.738,109.293,4.568,-7.892,-27.511,-114.935,-17.765,-15.653,-16.834,-109.036,-13.841,-31.924,90.617,-9.635,-50.699,-45.566,8.177,5.321,12.079,98.162,-11.597,-167.649,26.345,-30.946
1.184382700000242,-38.058,2.607,-27.826,-3.322,324.981,-138.548,129.163,6.612,-10.446,-27.484,-110.209,-15.186,-14.1,-17.842,-106.877,-12.29,-31.38,93.601,-6.04,-45.013,-44.496,13.292,9.414,19.239,98.576,-9.024,-165.944,30.929,-22.206
1.18443920000027,-34.434,-2.519,-25.749,1.804,331.828,-141.483,143.379,19.413,-3.776,-23.87,-103.439,-13.633,-13.574,-19.361,-105.746,-11.253,-33.91,88.384,-11.157,-46.505,-50.086,14.303,2.745,11.535,89.768,-10.04,-162.192,27.825,-21.159
1.1993928000001688,-32.863,-1.492,-21.625,11.536,335.082,-140.317,136.575,26.054,1.864,-18.211,-103.336,-9.521,-9.462,-15.243,-104.103,-7.656,-30.29,93.419,-6.535,-44.921,-49.012,13.264,-0.844,8.962,89.166,-6.956,-164.591,31.383,-20.626
1.1994509000001017,-31.805,8.243,-12.894,17.672,337.309,-135.053,129.779,21.417,-0.7,-12.557,-98.109,-1.315,-3.817,-9.593,-100.413,2.086,-24.112,104.084,0.644,-38.216,-45.377,19.398,5.304,18.175,97.786,-1.826,-158.279,38.011,-11.896
1.2144812000001366,-29.212,4.649,-11.344,4.335,342.607,-132.357,124.014,23.957,0.326,-7.422,-87.765,3.809,-0.739,-9.583,-95.702,8.744,-24.6,103.467,-0.893,-38.691,-46.868,22.453,10.422,18.157,98.713,-1.312,-151.461,31.826,-11.372
1.2294783000002099,-26.109,0.034,-16.456,-8.477,343.289,-132.737,125.427,25.983,5.448,-2.291,-88.702,2.269,-0.226,-8.549,-92.532,7.711,-23.038,103.364,-0.38,-40.189,-47.334,18.844,8.875,13.015,95.028,-3.36,-152.846,28.208,-16.483
1.2295492000002923,-21.984,8.743,-12.853,6.9,346.532,-131.067,135.547,23.907,5.443,-1.777,-87.589,5.853,0.798,-3.417,-91.415,11.801,-17.38,112.482,6.792,-34.001,-43.188,24.973,11.427,20.175,97.495,-1.307,-146.546,40.987,-6.733
1.2448130000002493,-21.962,11.296,-10.791,17.14,351.821,-127.35,127.215,27.982,1.851,-4.849,-82.378,11.482,1.822,-2.902,-92.348,18.962,-17.363,114.419,8.835,-31.405,-44.169,30.071,16.027,23.228,97.91,-0.793,-142.301,46.069,1.471
1.2448769000002358,-28.6,-0.499,-24.612,-3.37,342.76,-133.37,113.768,20.782,-4.811,-9.455,-94.079,1.225,-3.815,-9.046,-98.916,9.209,-24.517,103.546,0.629,-39.571,-56.933,16.721,7.301,9.373,89.615,-6.428,-155.478,31.679,-15.437
1.2593860000001769,-33.695,-5.621,-34.322,-13.1,329.609,-139.897,119.289,5.392,-12.49,-17.642,-105.768,-16.195,-15.082,-17.747,-103.94,-7.194,-32.69,95.245,-9.618,-46.704,-65.585,5.434,-3.977,-1.907,80.816,-13.082,-162.495,22.425,-32.328
1.2594457000000148,-28.026,3.606,-28.652,4.331,335.94,-133.097,120.707,14.095,-9.916,-17.112,-97.977,-14.642,-14.042,-18.753,-100.25,-5.138,-33.682,99.249,-8.583,-43.071,-60.909,12.088,1.663,2.193,79.198,-9.995,-150.55,28.038,-27.172
1.2744485000002896,-19.288,10.775,-22.476,9.962,348.411,-127.329,115.463,28.426,-4.271,-7.361,-89.682,-4.381,-5.319,-10.025,-95.539,4.089,-26.476,104.785,-2.427,-37.905,-56.237,15.662,10.883,8.339,83.218,-2.812,-141.178,34.158,-17.924
1.2761582000002818,-19.781,6.153,-24.502,1.243,348.575,-133.349,126.106,15.59,-8.878,-8.891,-91.642,-6.426,-8.9,-12.065,-96.98,1.011,-28.499,99.045,-6.011,-41.965,-61.304,10.524,8.822,7.818,83.134,-3.834,-142.573,32.075,-19.443
1.2895236000003933,-25.909,-2.05,-35.236,-2.344,347.202,-136.802,121.881,6.865,-12.455,-14.005,-94.624,-12.055,-12.989,-23.836,-100.982,-4.113,-40.253,89.212,-11.64,-48.583,-64.316,9.488,3.178,1.662,75.879,-11.515,-147.554,22.821,-29.669
1.2895867000002,-24.346,-4.61,-46.984,-6.44,353.515,-134.103,95.12,17.617,-5.27,-6.819,-94.529,-6.92,-7.341,-19.713,-101.905,2.551,-37.139,92.709,-8.042,-44.436,-62.715,11.016,3.687,0.636,70.68,-12.016,-149.968,16.138,-38.349
1.3044638999999734,-17.15,1.03,-43.863,-7.458,362.895,-134.482,101.684,19.648,-4.24,-3.226,-88.287,1.796,-4.772,-10.472,-97.193,10.746,-27.88,101.837,-1.887,-36.195,-62.652,14.079,8.807,8.32,73.683,-4.319,-144.695,22.27,-33.187
1.3045200000001387,-20.206,5.128,-35.623,-4.889,365.606,-138.446,125.661,11.944,-12.945,-12.956,-86.15,0.258,-5.792,-18.659,-96.583,9.71,-32.463,98.149,-1.373,-39.745,-63.102,16.114,10.335,9.849,72.073,-2.778,-143.013,27.371,-25.982
1.3194634000001315,-30.945,-3.587,-44.296,-16.155,358.581,-145.992,111.703,9.883,-15.494,-20.628,-99.384,-9.989,-6.811,-25.812,-106.221,0.991,-40.628,88.83,-7.007,-47.39,-66.625,9.95,5.201,-0.92,61.242,-10.46,-154.141,13.511,-36.202
1.3195230000001175,-33.475,-8.706,-49.375,-18.701,356.685,-147.383,92.636,12.947,-7.794,-17.021,-103.383,-11.004,-10.39,-18.614,-110.213,-1.571,-39.562,91.303,-8.536,-43.756,-71.169,5.842,3.659,-2.456,59.132,-9.425,-158.085,5.3,-40.777
1.3344251000003169,-28.319,2.573,-34.469,4.884,365.55,-138.014,102.277,21.131,-1.638,-5.221,-89.447,-1.259,-7.306,-12.448,-101.906,7.139,-34.4,97.359,-2.38,-39.614,-68.024,13.52,9.291,8.305,64.195,-0.706,-146.144,18.615,-24.854
1.3361390000000029,-34.95,1.546,-31.36,6.416,359.037,-139.413,105.761,21.622,-8.297,-6.241,-93.968,-7.405,-5.249,-16.534,-103.853,3.546,-38.976,92.138,-6.989,-48.796,-71.03,7.872,3.134,4.198,54.91,-6.341,-148.047,16.547,-24.83
1.3495968000001994,-55.408,-20.484,-53.358,-24.841,331.013,-155.155,95.922,0.083,-22.633,-26.214,-120.514,-28.915,-19.589,-25.739,-120.655,-18.999,-51.233,82.312,-22.351,-58.993,-88.378,-15.19,-14.287,-16.81,34.363,-26.314,-166.855,-9.597,-47.859
1.3496610000001965,-60.988,-25.587,-63.039,-29.939,318.387,-158.073,97.363,-12.724,-25.172,-34.385,-125.005,-30.423,-27.254,-27.762,-127.195,-24.615,-51.694,83.255,-21.304,-55.348,-93.925,-17.224,-15.81,-21.917,30.742,-30.386,-166.688,-14.198,-54.471
1.364517700000306,-44.021,-7.631,-46.582,-2.245,334.974,-148.182,101.876,8.805,-11.314,-18.981,-105.412,-14.511,-13.394,-17.488,-113.747,-5.123,-36.785,91.368,-8.987,-45.046,-80.511,-0.301,0.087,-4.476,41.982,-14.475,-148.59,4.259,-39.559
1.3645839000000706,-37.317,-1.988,-37.826,9.028,345.398,-142.91,98.7,20.58,-3.618,-11.278,-97.622,-9.373,-7.233,-14.397,-103.9,1.542,-32.65,93.839,-8.978,-42.952,-75.819,0.724,6.747,2.188,43.989,-8.312,-145.368,5.792,-35.421
1.3799551000001884,-49.575,-15.818,-48.547,-13.01,335.831,-145.329,101.163,1.091,-12.324,-18.951,-109.307,-15.511,-14.91,-23.092,-112.505,-8.706,-41.326,90.671,-13.068,-48.032,-84.965,-7.474,0.08,-10.622,32.162,-19.063,-153.932,-8.559,-44.095
1.394533600000159,-49.013,-19.901,-54.133,-31.44,333.958,-149.282,111.82,-3.521,-17.947,-18.42,-110.223,-13.447,-11.822,-18.458,-117.516,-4.086,-35.65,97.24,-6.395,-45.935,-80.782,0.219,3.666,-11.123,28.544,-19.556,-148.142,-11.624,-45.076
1.3945901000001868,-32.57,-8.098,-46.395,-17.576,347.456,-142.985,113.758,14.926,-7.683,-8.155,-93.719,-1.138,-2.588,-8.193,-105.615,10.775,-23.319,110.463,6.419,-35.131,-65.332,12.514,18.52,5.282,40.811,-6.216,-132.113,-2.391,-36.834
1.409620900000391,-34.074,-5.528,-46.348,-4.751,348.646,-134.133,99.3,11.837,-0.503,-9.684,-92.6,-1.649,-6.684,-15.87,-99.874,6.153,-28.418,107.279,7.438,-37.145,-67.316,10.452,17.477,6.813,41.282,-6.722,-131.981,-1.364,-36.797
1.4096849000002294,-50.946,-19.867,-58.597,-20.628,332.416,-143.733,84.343,-3.544,-11.261,-24.531,-108.901,-18.041,-14.874,-22.514,-113.094,-8.197,-38.124,93.339,-6.402,-50.428,-82.617,-3.391,1.065,-7.538,22.798,-19.523,-145.169,-15.707,-45.982
1.424674600000344,-53.457,-22.921,-59.563,-27.267,325.936,-151.273,84.259,0.558,-22.52,-28.093,-110.842,-22.122,-15.372,-15.831,-118.104,-9.726,-34.5,92.221,-11.519,-50.377,-82.023,-7.998,-3.034,-10.604,17.14,-20.528,-147.073,-23.376,-48.497
1.4247383000001719,-46.744,-15.726,-49.258,-14.945,328.684,-142.925,92.884,-0.467,-23.01,-22.429,-105.096,-14.927,-15.356,-16.84,-108.252,-7.667,-30.367,96.74,-6.897,-43.155,-76.305,-2.867,0.555,-5.471,21.733,-16.409,-141.29,-18.229,-46.399
1.439601400000356,-52.332,-22.882,-52.795,-21.59,320.158,-146.881,92.791,-14.811,-22.987,-28.555,-110.626,-21.06,-19.44,-21.434,-110.193,-13.295,-35.459,91.52,-12.013,-48.747,-83.401,-7.475,-4.056,-7.002,14.539,-22.028,-147.297,-21.285,-49.939
1.4396639000001414,-53.304,-27.47,-59.402,-26.691,316.764,-154.931,87.063,-7.624,-20.915,-32.112,-109.491,-23.088,-16.859,-11.679,-117.255,-10.208,-34.912,90.916,-12.513,-51.26,-82.293,-11.566,-1.491,-4.434,12.988,-21.494,-154.834,-23.825,-44.766
1.4546298000000206,-44.03,-14.123,-48.584,-7.709,334.378,-143.505,92.099,8.777,-11.16,-19.273,-99.135,-7.696,-8.645,-3.983,-108.941,3.122,-22.581,100.559,-2.254,-39.938,-70.94,0.229,10.806,3.255,23.733,-12.763,-145.458,-13.555,-30.889
1.4546883000002708,-47.059,-14.621,-45.461,-5.14,340.191,-139.775,99.691,2.109,-7.051,-20.278,-101.085,-6.151,-8.124,-9.102,-102.172,3.119,-22.046,101.483,-6.863,-39.898,-76.504,1.253,7.209,-1.359,18.587,-16.337,-140.189,-15.591,-34.957
1.4697312000002967,-55.722,-27.414,-60.785,-21.016,327.556,-148.857,90.37,-6.09,-12.679,-32.553,-107.644,-18.44,-13.751,-16.265,-108.73,-7.642,-35.857,91.135,-16.59,-51.641,-87.699,-12.581,-4.581,-11.091,4.223,-25.03,-152.857,-25.821,-48.242
1.4697967000001881,-53.617,-25.85,-63.798,-22.532,327.228,-140.511,80.546,-0.449,-15.228,-26.885,-105.999,-17.91,-14.25,-19.835,-112.208,-11.733,-38.895,84.384,-15.549,-51.589,-82.488,-14.105,-5.089,-8.006,2.682,-22.443,-160.388,-25.283,-46.656
1.4847567000001618,-54.588,-26.336,-57.587,-26.608,327.926,-138.834,88.662,-5.572,-17.774,-23.784,-104.869,-15.843,-13.723,-19.815,-111.071,-12.234,-33.733,83.788,-17.582,-48.464,-79.332,-11.529,-2.522,-4.412,0.63,-21.908,-157.154,-33.455,-45.585
1.4848257000003287,-58.632,-35.019,-64.702,-37.852,316.839,-152.015,89.598,-14.787,-23.392,-34.007,-108.35,-19.413,-17.296,-18.258,-113.009,-14.783,-37.285,86.778,-17.052,-52.514,-83.863,-12.542,-2.007,-4.92,-0.907,-22.399,-155.972,-41.618,-52.2
1.500150500000018,-51.913,-27.812,-68.223,-29.617,321.645,-144.691,78.75,-4.527,-18.245,-27.313,-105.68,-14.27,-15.741,-18.24,-113.408,-10.157,-35.199,91.302,-6.277,-47.85,-78.656,-0.747,8.241,4.307,9.34,-13.667,-153.767,-25.183,-47.537
1.5002134999999726,-47.25,-19.075,-60.982,-18.317,334.644,-129.689,80.208,5.212,-7.981,-15.502,-98.402,-7.084,-7.016,-15.66,-110.733,-1.438,-25.43,93.26,-3.197,-39.606,-69.868,6.939,16.942,11.987,11.892,-9.043,-151.052,-17.473,-43.903
1.5147670000001199,-50.789,-26.228,-66.045,-23.934,328.161,-136.732,78.591,-2.99,-10.534,-24.196,-97.791,-9.126,-4.96,-9.497,-107.036,-3.998,-26.941,91.117,-8.317,-43.664,-73.385,-2.802,8.728,3.778,0.097,-16.206,-156.024,-31.288,-56.154
1.514827200000127,-50.738,-29.276,-72.639,-33.644,323.222,-142.743,59.045,-5.549,-12.573,-29.295,-101.28,-10.654,-10.591,-10.512,-104.88,-11.166,-32.549,87.952,-9.845,-50.281,-78.947,-7.41,0.522,-2.374,-5.026,-17.727,-157.405,-35.355,-61.221
1.5299284000002444,-50.688,-22.074,-66.931,-34.123,332.633,-138.502,51.814,0.604,-7.437,-22.606,-99.129,-9.106,-12.629,-14.088,-108.361,-8.594,-30.468,87.352,-10.348,-47.669,-75.794,-3.817,6.669,3.777,-3.484,-14.123,-153.149,-31.734,-53.476
1.5299962000003688,-51.149,-20.003,-63.79,-24.867,334.35,-139.9,70.205,-6.056,-15.115,-27.706,-96.981,-9.609,-10.567,-11.512,-111.839,-4.999,-28.9,91.875,-7.264,-45.06,-70.083,-1.251,13.835,8.384,-2.456,-13.596,-153.508,-30.165,-50.86
1.5451231000001826,-44.95,-17.421,-61.677,-15.108,322.745,-139.248,83.455,-10.149,-27.395,-32.801,-98.933,-8.063,-9.532,-8.939,-104.043,-6.019,-27.847,93.32,-1.109,-44.502,-67.963,4.898,13.821,9.912,1.645,-11.021,-145.67,-21.938,-44.662
1.5451874000000316,-39.782,-13.305,-57.517,-19.192,305.003,-129.375,70.564,0.62,-21.732,-28.67,-97.297,-8.567,-11.06,-16.102,-94.717,-5.5,-32.942,84.005,-3.669,-39.335,-67.383,5.405,10.221,11.951,-0.918,-9.473,-132.716,-19.867,-36.42
1.5598726000002898,-44.866,-18.415,-62.582,-30.443,284.206,-126.684,57.685,-5.528,-17.612,-35.302,-99.249,-15.731,-16.684,-26.332,-100.258,-10.105,-44.692,74.188,-9.813,-37.759,-70.389,-4.334,5.6,4.255,-14.75,-14.075,-138.219,-31.63,-42.019
1.5748279000004004,-50.456,-24.032,-63.032,-32.462,280.848,-134.242,64.288,-20.892,-23.742,-42.951,-106.835,-17.764,-20.766,-25.794,-106.305,-19.317,-44.135,77.7,-9.803,-40.795,-72.881,-5.354,4.058,-2.922,-20.883,-16.11,-147.302,-34.672,-45.051
1.5748867000002065,-46.82,-19.91,-49.137,-20.646,295.424,-131.034,70.371,-8.063,-16.034,-30.612,-101.092,-10.062,-12.036,-16.546,-99.027,-13.662,-29.746,87.356,-6.72,-37.68,-67.172,1.311,10.201,2.717,-18.813,-13.02,-141.007,-27.978,-35.785
1.5898153000002821,-42.674,-15.279,-48.063,-6.281,302.301,-121.169,72.862,10.388,-5.771,-22.897,-89.208,-6.466,-3.314,-10.382,-95.341,-6.476,-24.594,89.318,-6.713,-34.568,-64.031,1.822,12.753,5.788,-21.868,-10.957,-139.33,-26.925,-36.773
1.5914897000002384,-49.292,-20.387,-61.335,-9.349,297.388,-123.609,77.912,4.742,-14.475,-33.121,-95.267,-12.607,-8.946,-10.372,-104.98,-18.765,-29.692,87.179,-10.805,-42.219,-72.164,-2.278,6.08,-1.903,-24.92,-13.508,-148.924,-30.996,-49.032
1.6048846000003323,-58.976,-26.002,-66.396,-25.733,292.48,-131.17,65.539,-2.947,-20.096,-38.723,-106.442,-18.742,-14.061,-11.386,-109.998,-28.48,-28.638,87.604,-13.868,-50.373,-81.826,-7.911,1.463,-6.512,-25.407,-20.667,-152.361,-38.138,-50.52
1.6049494000003506,-60.966,-26.488,-66.842,-33.392,287.576,-127.965,49.592,-6.531,-13.928,-39.709,-106.848,-20.773,-12.51,-9.325,-106.302,-23.841,-22.974,87.517,-11.292,-46.737,-83.281,-8.928,5.048,-4.456,-24.357,-21.671,-152.721,-43.223,-46.371
1.6209657000003972,-58.856,-25.949,-63.702,-33.359,289.338,-125.276,63.887,-15.746,-14.426,-44.28,-103.155,-15.629,-14.546,-6.242,-102.609,-18.694,-18.852,89.478,-4.109,-39.005,-79.099,0.815,14.777,2.721,-16.136,-13.964,-153.593,-41.13,-42.738
1.621032600000035,-54.187,-20.8,-51.343,-26.665,303.393,-124.126,75.094,-11.119,-15.949,-39.625,-96.904,-4.855,-12.483,-6.236,-97.384,-9.966,-17.809,93.487,3.068,-34.868,-71.336,8.498,23.471,16.551,-3.824,-9.34,-148.316,-31.355,-33.474
1.6349444000002222,-46.448,-13.095,-45.144,-11.269,313.336,-118.366,56.576,-1.374,-12.859,-33.95,-93.221,-2.288,-7.347,-8.279,-93.188,-3.296,-19.84,89.808,3.065,-34.833,-68.19,5.416,22.935,21.145,-0.747,-9.33,-146.119,-24.664,-26.268
1.6350098000002617,-49.475,-15.643,-51.758,-11.771,309.949,-123.371,48.322,-13.668,-20.531,-44.674,-101.837,-12.02,-18.098,-12.881,-98.73,-14.051,-26.48,79.472,-8.209,-39.409,-75.294,-0.225,13.691,7.804,-11.504,-11.37,-153.145,-29.762,-30.341
1.6499399000003905,-57.11,-22.288,-53.244,-23.542,305.028,-132.981,52.372,-21.339,-30.757,-55.9,-107.883,-19.18,-28.326,-19.529,-102.73,-25.308,-30.04,74.269,-16.398,-42.956,-81.879,-7.397,6.505,1.136,-25.325,-16.994,-154.529,-38.954,-37.482
1.6517164000001685,-49.881,-19.191,-51.141,-19.932,302.162,-128.238,43.611,-9.535,-25.09,-50.721,-99.578,-15.575,-19.589,-17.46,-96.479,-21.697,-26.936,77.269,-11.258,-38.814,-77.699,-10.976,8.035,7.282,-28.886,-16.465,-145.665,-38.403,-36.933
1.6650048999999854,-46.245,-22.246,-56.725,-25.035,293.15,-127.085,40.493,-17.21,-23.016,-49.134,-101.528,-15.559,-18.544,-10.782,-94.334,-24.236,-24.348,80.265,-7.661,-38.775,-75.06,-4.305,9.052,4.714,-26.808,-12.862,-142.446,-39.389,-35.871
1.6650664000003417,-62.592,-36.568,-65.89,-57.286,280.049,-136.692,46.088,-39.222,-37.338,-62.917,-115.771,-26.302,-31.334,-14.87,-101.924,-35.483,-27.397,78.136,-11.239,-45.909,-83.181,-2.251,4.944,-4.513,-34.466,-21.559,-150.5,-51.645,-45.569
1.6800402000003487,-69.19,-43.192,-72.997,-73.622,275.671,-139.629,40.919,-31.498,-42.423,-66.44,-116.68,-28.325,-28.741,-13.318,-107.457,-36.472,-25.321,80.107,-8.667,-46.375,-87.197,-7.372,3.402,-3.484,-43.14,-28.197,-157.01,-57.741,-56.794
1.6801073999999971,-62.461,-40.075,-82.145,-67.401,283.592,-137.44,31.657,-16.61,-30.598,-52.541,-108.879,-20.1,-19.49,-3.059,-109.399,-33.362,-18.123,83.613,-6.096,-41.206,-87.11,-8.389,2.887,-0.919,-46.171,-25.607,-159.926,-57.683,-62.373
1.6950359000002209,-70.595,-45.158,-89.748,-79.629,283.821,-139.864,32.137,-29.913,-28.006,-50.952,-112.356,-22.641,-22.032,-10.228,-110.314,-38.964,-21.691,72.259,-15.824,-46.288,-95.219,-15.041,-6.85,-9.627,-55.859,-34.291,-165.402,-65.31,-70.507
1.6950994000003448,-76.16,-46.137,-84.535,-91.332,272.779,-135.626,44.913,-36.543,-31.052,-59.098,-115.317,-28.254,-20.986,-18.927,-105.593,-43.023,-27.817,61.94,-22.468,-50.852,-96.149,-22.71,-10.429,-12.179,-58.877,-39.892,-162.675,-66.27,-67.875
1.7100232000002507,-62.251,-32.259,-64.47,-67.675,277.117,-121.658,57.163,-16.526,-19.75,-49.305,-104.444,-15.93,-13.28,-7.637,-99.34,-33.246,-19.592,74.174,-14.761,-42.605,-80.683,-11.929,0.852,3.203,-43.961,-24.995,-148.168,-50.834,-44.241
1.7118657000000894,-58.603,-27.104,-51.086,-46.603,294.258,-118.975,46.348,-9.85,-13.07,-37.985,-99.728,-7.717,-12.755,-3.531,-100.265,-27.066,-11.376,81.272,-9.111,-37.439,-79.578,-6.282,6.486,12.933,-42.892,-21.384,-148.019,-44.636,-31.902
1.7250899000000572,-72.377,-39.372,-59.232,-62.437,291.402,-132.688,36.567,-27.259,-25.865,-52.804,-110.899,-20.517,-18.89,-13.774,-107.85,-37.797,-18.537,66.334,-13.2,-44.061,-93.331,-16.009,3.406,6.26,-55.657,-32.634,-161.704,-51.251,-39.554
1.7251551000003928,-73.841,-42.406,-65.832,-75.695,277.278,-143.314,53.949,-35.428,-34.036,-64.022,-116.424,-26.645,-22.969,-11.198,-111.328,-46.468,-20.055,61.656,-14.724,-47.604,-91.188,-12.919,10.063,9.84,-45.868,-29.015,-162.567,-50.175,-37.978
1.7401431000002958,-66.595,-30.068,-57.57,-60.762,277.514,-139.072,62.092,-27.708,-27.854,-54.736,-112.721,-21.495,-23.458,-4.527,-107.631,-43.86,-11.326,65.693,-13.173,-43.97,-83.925,-6.759,13.126,24.175,-27.891,-20.277,-158.818,-43.977,-30.255
1.755498500000158,-63.455,-26.965,-55.463,-50.455,280.822,-130.224,51.272,-19.484,-24.752,-52.632,-110.047,-26.596,-22.41,-11.183,-103.937,-48.94,-14.901,52.82,-16.746,-44.438,-92.038,-16.486,3.892,22.102,-33.498,-21.281,-161.733,-45.47,-38.422
1.755559600000197,-58.78,-32.061,-62.58,-55.016,281.566,-122.921,58.905,-13.829,-24.215,-53.604,-107.888,-31.181,-24.949,-17.832,-101.271,-58.112,-21.546,43.033,-21.852,-47.467,-93.483,-18.006,1.326,15.419,-43.199,-20.747,-152.862,-52.085,-49.142
1.7556024000000434,-57.697,-32.541,-67.128,-61.108,286.407,-119.212,68.58,-14.839,-21.629,-47.403,-105.731,-28.588,-27.998,-16.277,-101.682,-56.005,-18.963,48.626,-22.855,-45.883,-87.241,-12.865,-0.212,16.941,-46.229,-21.751,-140.926,-57.156,-52.679
1.7701144000002387,-66.349,-38.656,-74.745,-70.269,282.535,-127.802,53.142,-24.046,-26.219,-53.503,-111.26,-33.682,-27.458,-13.699,-106.704,-56.461,-18.944,49.089,-23.344,-45.837,-97.4,-23.611,-13.019,6.678,-60.016,-30.951,-151.031,-60.172,-56.725
1.7719374000002972,-72.942,-46.302,-78.257,-73.785,276.105,-139.457,42.843,-25.559,-30.291,-63.184,-114.735,-34.161,-24.869,-11.124,-108.646,-58.454,-16.875,48.016,-23.833,-50.402,-106.012,-27.173,-15.056,-3.063,-73.276,-36.555,-162.663,-58.063,-56.156
1.7851921999999831,-67.746,-39.596,-67.932,-60.391,285.05,-135.219,47.923,-17.337,-18.99,-51.85,-107.448,-18.758,-15.623,-3.94,-102.902,-45.588,-3.026,59.751,-16.637,-46.766,-96.685,-13.314,-2.745,5.137,-72.69,-34.982,-157.89,-50.32,-48.415
1.800197400000343,-59.994,-33.408,-65.303,-57.257,293.474,-127.399,50.437,-16.295,-11.798,-43.601,-97.607,-8.493,-6.386,8.871,-97.164,-31.198,7.223,71.986,-4.325,-32.374,-87.366,-6.641,2.893,13.841,-71.08,-30.336,-151.072,-40.024,-43.756
1.8002570000003288,-52.249,-30.301,-65.75,-63.859,293.693,-129.834,60.633,-16.791,-18.447,-48.68,-90.337,-2.849,-3.818,21.158,-89.382,-22.969,12.339,82.16,6.95,-20.559,-78.57,2.075,12.624,23.561,-62.3,-19.035,-141.187,-22.565,-34.491
1.815299600000344,-37.852,-11.316,-46.729,-46.889,305.695,-125.093,73.892,-4.478,-11.256,-37.873,-79.488,14.06,3.359,27.797,-75.46,-7.065,24.622,97.447,17.702,-14.391,-62.61,21.541,29.005,46.079,-43.795,-5.184,-126.701,5.634,-12.427
1.8153627000001507,-32.179,2.528,-36.948,-28.912,317.684,-118.308,64.596,2.186,2.588,-27.077,-76.847,16.608,10.527,23.67,-74.873,-3.984,24.597,95.301,15.122,-15.913,-63.059,20.495,26.415,52.181,-42.726,-5.179,-130.161,18.949,-4.73
1.8301789000001918,-48.541,-12.844,-53.817,-44.764,301.998,-134.071,50.7,-15.747,-9.71,-45.493,-93.164,-5.95,-2.291,7.765,-92.216,-30.108,3.568,68.053,-1.799,-25.631,-78.878,-0.018,9.994,31.124,-63.176,-19.006,-148.986,4.585,-23.168
1.8302408000004107,-56.689,-18.979,-53.251,-52.404,288.888,-147.769,59.358,-21.879,-17.898,-56.206,-100.756,-13.117,-10.485,-0.952,-97.247,-40.836,-3.096,58.251,-4.359,-28.167,-75.725,-1.555,12.546,25.458,-68.236,-23.085,-152.935,-1.055,-29.805
1.8452890000003208,-39.214,2.557,-28.607,-22.638,311.653,-129.179,78.254,5.295,7.223,-34.633,-81.699,6.876,7.968,7.758,-82.805,-19.278,10.74,69.976,8.966,-16.356,-56.182,12.791,25.341,41.314,-54.847,-13.841,-145.098,19.438,-12.869
1.8453546000000642,-25.343,16.899,-20.382,-1.098,335.42,-106.508,81.762,20.659,23.098,-16.155,-65.224,18.14,19.231,11.337,-75.038,-10.55,12.266,65.808,9.469,-10.192,-47.929,13.291,24.803,42.809,-52.743,-11.265,-145.465,28.128,-5.684
1.8602856000002248,-23.268,19.444,-23.947,-1.61,337.133,-105.889,71.946,12.954,17.952,-17.676,-64.134,15.561,14.089,7.739,-74.45,-14.638,6.618,56.52,6.386,-12.743,-46.856,9.691,20.68,36.107,-59.351,-12.279,-142.758,24.514,-9.264
1.8603503000003911,-11.974,24.548,-17.263,1.978,340.895,-107.832,70.85,19.601,22.032,-17.146,-59.459,19.643,18.173,15.416,-64.642,-4.377,14.809,69.271,18.163,-9.144,-38.1,19.415,26.807,42.731,-56.217,-5.094,-131.345,32.686,-4.644
1.8756520000001728,-4.277,21.449,-16.222,-1.61,344.14,-106.7,80.513,23.68,22.522,-15.079,-57.35,22.698,20.204,22.061,-63.041,0.751,22.478,74.325,22.243,-6.061,-30.377,23.494,29.854,44.737,-53.6,-4.064,-130.189,32.141,-5.664
1.8757127000003493,-12.47,11.694,-26.964,-16.465,328.939,-110.692,74.797,5.725,11.229,-21.212,-66.515,14.99,9.938,16.403,-74.761,-9.496,20.407,65.542,15.561,-10.666,-29.322,14.762,23.677,32.909,-59.182,-11.745,-136.718,17.252,-16.417
1.8902981000001091,-17.581,7.072,-35.134,-22.084,321.438,-113.143,54.742,2.134,11.73,-25.801,-70.547,10.877,7.366,18.948,-78.272,-9.487,23.46,71.112,16.57,-13.217,-28.781,10.648,20.067,28.266,-58.61,-14.807,-136.582,12.112,-19.987
1.8903568000000632,-17.563,-0.62,-42.271,-28.722,327.776,-113.542,48.027,11.353,10.181,-26.288,-72.013,10.866,8.896,25.077,-73.583,-8.453,28.047,75.651,14.504,-13.716,-28.752,5.515,16.461,27.725,-57.527,-19.403,-139.519,8.514,-25.602
1.9053358000001026,-22.156,-9.329,-52.987,-42.013,316.178,-117.014,49.516,-5.052,-4.686,-31.385,-80.65,5.22,2.739,19.929,-74.534,-16.129,26.995,64.305,5.78,-17.288,-26.162,-4.737,9.272,20.525,-61.568,-26.043,-146.552,2.357,-35.823
1.9054017000003114,-20.085,-8.295,-56.52,-44.021,296.394,-116.385,42.807,-23.49,-3.144,-33.403,-81.082,4.19,4.273,18.884,-73.947,-10.477,29.529,62.704,10.385,-13.172,-12.303,-0.634,16.435,23.578,-55.358,-19.357,-139.745,7.99,-33.225
1.9194373000000269,-14.942,-10.336,-56.976,-43.464,294.048,-115.244,41.227,-8.61,4.544,-27.222,-72.804,14.432,11.954,25.013,-68.75,1.828,35.135,70.325,21.133,-3.938,-0.508,10.638,28.714,32.776,-43.008,-10.629,-128.847,11.056,-32.168
1.9195109000002049,-18.513,-16.473,-63.067,-47.007,296.316,-115.641,53.481,13.94,-2.633,-24.633,-70.169,20.053,11.942,24.476,-66.12,1.827,37.662,68.206,23.161,-4.446,-1.02,9.602,26.636,30.694,-42.965,-14.717,-127.694,4.385,-41.869
1.934379600000284,-19.519,-11.334,-61.979,-35.689,301.143,-107.328,52.403,14.951,1.468,-19.997,-63.952,22.594,15.516,22.915,-63.492,3.362,37.112,69.675,26.212,-7.003,1.031,12.154,27.634,29.639,-42.409,-11.628,-123.467,11.553,-35.68
1.9344433999999637,-8.229,0.973,-46.548,-19.772,316.723,-95.438,29.297,9.813,20.422,-4.608,-52.105,31.281,25.234,28.015,-59.33,12.58,36.05,74.728,32.333,-2.898,11.788,23.413,40.926,36.782,-35.707,-0.346,-117.196,25.886,-18.226
1.949356500000249,-1.048,9.681,-34.206,-19.24,326.14,-95.855,21.071,13.389,17.328,-2.042,-49.491,32.274,25.209,32.597,-55.685,13.592,38.575,71.067,33.838,1.204,13.313,23.39,44.471,38.794,-38.233,1.192,-116.567,29.959,-13.597
1.9494168000001082,-6.17,8.135,-33.66,-23.832,318.642,-104.981,41.03,7.74,-3.182,-22.02,-58.663,21.484,16.475,29.491,-57.166,5.381,41.098,66.898,29.706,-2.384,7.665,17.731,37.767,32.608,-46.392,-2.908,-115.938,29.929,-13.071
1.9645408000001225,-11.799,1.467,-34.138,-22.783,312.175,-113.073,46.112,-10.198,-12.913,-33.781,-68.85,13.265,6.724,20.24,-63.769,-0.259,33.885,66.318,22.504,-8.529,8.169,18.225,34.655,29.501,-49.419,-0.856,-115.822,28.362,-7.935
1.9794434000000365,-7.689,5.051,-31.03,-14.051,317.498,-112.959,24.549,-11.725,-10.338,-26.063,-67.245,14.789,2.107,15.609,-67.804,1.278,29.753,58.055,18.895,-9.545,12.772,16.67,33.596,30.496,-52.956,0.17,-118.268,27.309,-7.927
1.9795130000002246,-4.608,9.145,-30.487,-5.84,322.816,-108.748,18.376,2.119,-5.717,-21.426,-60.005,20.409,6.716,20.716,-65.687,4.35,35.871,49.8,18.876,-8.511,14.808,12.555,28.952,28.416,-58.026,-2.392,-115.588,26.257,-8.431
1.9943731000003027,-13.312,-0.598,-35.067,-13.519,319.42,-114.275,28.092,-3.006,-5.199,-27.552,-60.97,23.975,11.32,23.257,-65.621,3.321,36.347,52.824,15.271,-10.552,12.232,7.419,23.8,21.728,-66.165,-5.976,-114.96,16.497,-11.496
1.9944302000003518,-16.885,-9.819,-46.303,-28.875,316.026,-116.722,26.014,-11.712,-2.632,-25.988,-63.47,24.976,10.796,24.259,-67.604,8.441,36.311,57.895,14.231,-9.004,9.146,2.289,18.14,16.071,-78.906,-11.093,-122.017,2.136,-26.854
2.00980490000029,-10.721,-11.346,-59.577,-32.944,322.37,-106.359,20.865,-0.942,1.981,-15.203,-56.235,29.562,16.421,29.87,-65.488,17.142,46.008,58.349,19.34,-6.434,8.624,-0.275,13.512,10.419,-89.074,-16.717,-123.432,-8.625,-42.709
2.009864000000107,-9.685,-12.359,-63.103,-27.276,331.27,-105.74,22.894,3.67,0.954,-10.065,-51.568,35.167,23.064,32.914,-64.397,15.076,50.061,61.364,20.858,-8.989,5.03,-0.787,12.473,6.311,-96.669,-19.262,-117.673,-14.252,-50.863
2.0244986000002427,-10.7,-7.736,-55.868,-21.101,334.012,-110.245,16.723,1.617,1.466,-10.055,-53.053,34.108,18.943,33.905,-64.845,13.524,47.961,67.963,21.349,-8.467,1.951,0.751,18.609,12.452,-98.622,-17.194,-120.117,-8.602,-46.714
2.0268134000002647,-11.714,-5.167,-51.201,-21.592,334.19,-107.574,18.756,10.837,6.587,-11.069,-54.537,29.463,14.825,36.433,-70.928,17.609,52.524,68.407,24.914,-4.873,-0.1,5.361,22.688,21.149,-85.203,-16.152,-129.731,-1.933,-31.81
2.039567000000261,-22.461,-15.408,-53.199,-33.354,327.709,-115.151,40.766,4.166,0.945,-20.792,-63.704,22.261,13.273,33.835,-81.103,8.369,51.959,61.679,21.815,-11.016,-7.785,4.843,21.641,19.078,-71.286,-19.722,-133.7,-9.104,-27.68
2.039633600000343,-33.197,-22.053,-52.634,-39.98,316.622,-125.794,40.213,-14.281,-8.789,-29.993,-76.448,11.48,5.063,28.678,-82.047,-5.984,42.686,56.494,13.596,-19.202,-13.413,0.74,23.156,18.547,-73.263,-22.264,-132.029,-16.267,-36.361
2.054552600000079,-36.237,-20.494,-51.556,-36.866,311.183,-121.057,11.484,-8.119,-9.805,-30.475,-82.007,5.321,-0.577,25.576,-79.403,-7.002,36.495,51.827,10.509,-21.232,-9.813,0.227,26.207,24.164,-74.727,-22.241,-134.971,-14.201,-32.739
2.054615100000319,-39.787,-22.01,-49.456,-37.854,310.872,-119.912,13.521,2.135,-11.332,-33.006,-82.949,5.316,0.448,18.378,-85.472,-8.02,31.848,44.091,7.425,-23.772,-8.266,-1.823,25.156,26.189,-64.919,-22.731,-138.934,-10.601,-19.386
2.069561700000122,-40.26,-19.427,-43.771,-36.279,309.536,-125.94,42.709,-0.429,-11.833,-33.486,-81.842,3.261,-2.114,13.236,-85.899,-13.647,28.742,40.973,3.319,-25.797,-7.233,-4.895,25.131,29.237,-60.243,-20.659,-138.283,-1.369,-16.293
2.069622800000161,-36.633,-15.309,-44.752,-30.608,308.714,-124.789,42.667,0.596,-7.723,-30.378,-81.248,1.721,-3.649,12.711,-80.69,-12.609,25.64,38.37,2.803,-24.747,-0.566,-3.353,25.106,28.183,-69.404,-19.102,-135.583,0.682,-23.449
2.0845007000002624,-35.572,-20.416,-53.928,-30.577,311.992,-123.64,27.255,1.62,-7.715,-30.348,-78.093,6.842,0.966,10.649,-83.683,-7.986,25.102,35.258,2.8,-25.234,4.557,-0.788,20.982,18.933,-78.556,-20.62,-132.374,-12.127,-33.159
2.086306600000171,-31.95,-20.908,-52.85,-23.374,322.95,-118.393,33.888,7.766,0.489,-21.608,-66.744,16.057,8.649,18.835,-83.599,2.269,33.786,45.469,8.433,-20.086,13.262,4.336,25.572,19.426,-74.379,-16.501,-127.118,-13.139,-36.712
2.099626000000171,-27.82,-15.764,-43.575,-14.642,329.8,-109.565,45.637,22.103,11.76,-10.828,-61.042,20.652,12.739,32.136,-76.855,12.0,43.486,60.28,18.158,-12.381,28.106,12.528,34.256,27.604,-66.62,-11.361,-130.065,-6.978,-33.089
2.1146254000000226,-31.891,-20.872,-46.093,-21.799,323.322,-116.628,43.542,11.835,2.526,-20.551,-69.177,18.07,8.628,32.616,-79.34,9.427,42.418,61.757,20.702,-14.931,38.836,14.565,31.148,22.453,-67.578,-14.936,-139.157,-14.144,-35.106
2.1146849000001566,-27.248,-20.851,-51.17,-20.753,324.024,-121.122,33.252,-3.034,-2.599,-26.678,-66.547,19.588,8.619,33.096,-80.285,13.003,47.499,67.843,24.779,-13.379,50.58,16.6,34.191,20.894,-65.461,-11.335,-136.968,-11.056,-33.021
2.11472780000031,-13.901,-8.535,-41.385,-3.314,337.532,-109.218,26.559,13.363,9.186,-15.381,-54.697,30.327,17.32,44.846,-71.496,28.36,59.747,82.632,35.001,-0.558,67.948,28.879,52.087,36.242,-50.539,-0.565,-124.024,5.862,-18.131
2.1306956000003083,-12.862,-3.403,-33.659,-2.286,337.194,-112.183,29.606,16.936,2.517,-17.415,-57.716,30.297,14.741,43.264,-70.912,27.819,56.613,81.012,34.966,-0.045,71.467,31.924,53.572,40.304,-41.779,-0.052,-119.289,8.93,-13.502
2.1446713000000273,-15.411,-0.326,-39.773,-9.968,329.172,-123.853,24.454,-1.524,-10.805,-25.594,-63.806,21.557,4.992,27.34,-74.94,17.033,43.236,68.124,27.246,-10.803,66.272,23.695,45.834,34.629,-45.324,-3.638,-124.293,8.408,-20.661
2.144738899999993,-7.199,10.433,-40.246,-2.273,336.016,-113.996,12.134,4.113,0.989,-18.396,-57.082,26.659,10.623,25.775,-73.84,19.577,40.119,67.543,30.293,-8.743,71.841,28.794,56.034,42.279,-41.18,1.489,-120.582,18.646,-14.493
2.1596942000001036,2.542,20.157,-26.886,9.512,347.463,-101.074,23.392,19.478,11.234,-11.206,-49.853,35.854,17.785,32.922,-69.668,28.779,44.178,73.623,35.386,0.487,76.38,39.011,69.81,55.556,-26.282,10.709,-106.117,31.947,1.403
2.159761100000196,9.2,29.87,-17.125,17.699,352.751,-99.436,38.738,22.532,10.71,-7.608,-43.655,37.867,17.254,31.352,-61.401,35.41,43.621,72.013,37.399,3.048,72.205,41.022,73.327,64.21,-18.059,19.919,-98.326,46.26,15.234
2.174748500000078,8.166,34.451,-22.231,17.682,351.373,-94.214,27.941,27.633,17.872,-1.453,-41.05,40.391,21.848,27.734,-57.241,35.375,40.504,67.842,37.362,-0.029,65.473,40.981,74.278,67.22,-19.577,19.387,-102.326,48.263,21.879
2.1748130000000856,-7.724,18.023,-39.627,-1.804,333.091,-101.804,22.278,17.359,12.731,-10.673,-54.329,33.691,18.24,28.219,-68.455,23.556,34.828,66.238,29.128,-9.25,51.063,30.181,66.519,56.394,-26.73,6.56,-109.909,27.21,5.463
2.1896927000002506,-24.622,-3.0,-59.567,-26.393,310.729,-121.682,25.329,-7.761,-7.262,-27.569,-72.206,12.652,1.828,24.092,-80.169,11.238,27.621,61.561,16.291,-20.512,29.495,8.634,50.571,40.456,-41.048,-4.205,-121.582,4.641,-18.621
2.189752600000247,-30.233,-9.657,-70.779,-36.612,302.733,-122.585,14.033,-10.315,-9.816,-29.59,-77.769,4.443,-1.76,17.408,-81.114,4.054,21.445,54.327,12.176,-24.077,15.633,0.941,43.348,35.805,-51.253,-9.324,-134.268,-5.609,-20.651
2.204670700000406,-34.301,-16.307,-73.782,-39.65,294.746,-116.827,11.97,-4.669,-6.22,-33.147,-81.79,5.975,0.291,17.903,-84.619,-0.561,23.985,57.858,13.189,-23.029,12.544,-0.597,43.817,36.281,-49.153,-14.95,-134.134,-12.776,-20.118
2.2047295000002123,-40.414,-25.0,-77.806,-42.684,283.181,-127.469,23.229,-14.399,-14.411,-47.458,-89.392,-1.203,-5.857,23.008,-92.219,-0.56,28.572,63.436,12.151,-27.617,12.019,-10.33,42.236,35.22,-49.104,-15.96,-132.463,-16.349,-31.369
2.2197918000001664,-37.3,-21.901,-74.142,-43.154,288.02,-130.927,16.033,-17.458,-12.86,-44.337,-89.303,-3.251,-5.339,22.985,-91.102,2.514,24.957,56.713,10.089,-30.15,18.667,-12.881,42.706,39.284,-53.665,-11.333,-134.892,-10.698,-24.165
2.2198575000002165,-26.504,-10.609,-61.773,-36.963,301.052,-118.501,9.357,-9.756,-3.625,-29.948,-78.455,5.461,0.814,15.79,-84.351,5.073,19.809,50.508,10.079,-26.534,32.48,-6.209,45.738,46.417,-50.025,-7.735,-129.121,1.096,-5.186
2.2347701000003326,-20.843,-4.45,-56.588,-22.581,303.313,-114.284,18.057,-3.086,-9.769,-30.943,-71.204,9.042,1.838,12.188,-83.754,11.728,21.839,56.093,12.119,-27.02,41.669,-4.153,47.229,54.567,-44.34,-5.166,-124.382,8.78,-1.594
2.2348305000000437,-21.334,-2.909,-51.408,-11.288,307.108,-117.756,22.137,8.188,-13.858,-33.473,-69.084,11.594,5.422,15.25,-81.621,18.376,23.354,59.623,18.254,-24.944,46.751,-1.587,50.768,64.759,-38.66,-1.575,-126.306,10.308,0.456
2.250183200000265,-12.091,3.242,-39.062,-9.227,323.195,-108.417,24.164,16.889,-0.012,-17.558,-60.306,22.854,13.614,21.895,-73.855,26.555,26.917,63.662,25.408,-13.136,60.024,9.685,58.914,72.891,-23.765,4.062,-114.909,18.494,11.727
2.25024730000041,0.216,13.485,-34.412,-3.583,336.192,-100.624,33.874,14.31,7.161,-10.368,-50.512,31.028,18.211,31.094,-71.22,37.799,38.161,75.381,26.92,-11.073,73.796,17.36,63.978,76.404,-15.544,10.718,-101.474,26.16,17.35
2.2648479000004045,-4.907,14.496,-36.427,7.179,332.269,-108.208,40.5,7.636,-0.019,-21.116,-52.51,28.947,18.193,35.674,-76.784,40.323,42.733,80.429,22.794,-21.308,73.21,13.244,58.279,71.717,-21.164,8.658,-110.082,20.499,14.259
2.2649089999999887,-18.734,3.723,-34.341,4.611,318.617,-115.272,40.46,1.993,-4.63,-26.731,-62.192,21.234,10.49,30.515,-84.392,29.524,36.543,75.226,15.599,-25.898,65.965,4.009,45.925,58.838,-27.29,-2.109,-123.292,11.257,8.609
2.2799294000001282,-27.425,-4.99,-37.38,-9.226,308.052,-115.157,28.636,-3.644,-6.674,-30.802,-72.888,10.454,0.233,25.874,-89.943,19.761,32.408,74.126,8.924,-30.483,62.313,-0.093,37.17,48.02,-34.948,-7.23,-131.366,4.073,0.916
2.279991400000199,-33.545,-7.034,-46.565,-12.291,301.596,-117.603,12.214,-5.69,-8.204,-37.944,-80.5,6.345,-0.792,28.922,-90.877,16.155,31.863,76.101,7.89,-38.649,63.787,0.931,39.182,48.997,-39.011,-6.71,-141.48,-5.665,-2.671
2.2949654000003648,-36.585,-8.564,-50.104,-7.668,299.246,-117.485,14.763,-3.123,-4.098,-34.32,-76.833,9.413,1.771,29.917,-89.25,18.188,29.27,75.0,10.956,-37.074,66.797,4.004,44.266,50.485,-30.775,-7.216,-139.29,-7.708,-6.767
2.2950284000003194,-35.012,-10.605,-52.616,-14.32,298.946,-114.294,33.704,2.003,-5.118,-29.675,-73.17,7.354,2.281,28.351,-92.746,23.805,30.265,74.413,10.433,-34.987,69.292,6.562,40.123,45.824,-26.646,-7.209,-133.515,-7.188,-17.518
2.3098587000004045,-33.44,-9.057,-57.174,-21.478,299.16,-116.741,44.941,3.026,-9.724,-33.231,-76.171,7.347,6.377,30.884,-94.191,26.855,34.333,74.851,7.861,-37.514,75.37,7.068,37.009,43.216,-31.742,-8.226,-143.115,-12.304,-22.624
2.324884099999963,-30.845,-2.901,-59.678,-14.284,303.984,-117.649,36.187,1.486,2.581,-29.612,-68.922,17.073,11.494,33.414,-91.535,27.341,32.25,74.264,7.853,-32.866,84.517,7.573,41.071,44.198,-29.661,-11.292,-145.534,-10.242,-16.966
2.324939600000107,-30.814,-2.385,-68.328,-18.368,306.754,-117.019,21.293,-0.052,8.726,-25.484,-64.242,15.007,9.946,28.258,-96.566,29.875,22.996,70.091,5.796,-33.345,88.018,10.127,40.005,41.08,-27.583,-10.768,-137.704,-7.158,-18.486
2.339890500000365,-34.882,-10.068,-82.604,-37.818,299.275,-125.611,21.272,-8.762,-9.726,-35.192,-75.961,4.746,7.886,24.131,-99.544,33.431,18.874,65.41,5.278,-37.922,91.004,14.215,37.916,38.477,-32.678,-7.171,-141.664,-13.299,-27.177
2.3415774000000056,-31.261,-9.545,-87.644,-36.755,298.975,-126.51,24.325,-11.314,-11.765,-34.132,-71.787,12.426,11.977,26.156,-90.223,39.033,23.466,68.418,10.908,-29.688,101.159,21.373,46.587,46.123,-28.035,-4.602,-138.961,-11.749,-27.662
2.355029000000286,-27.131,-0.314,-82.946,-23.911,306.873,-118.699,14.054,-0.545,5.665,-24.364,-61.981,20.098,12.99,26.643,-89.108,44.117,24.98,73.473,12.946,-25.559,106.693,28.012,51.151,51.712,-18.273,-3.573,-126.015,-5.077,-24.56
2.355091200000061,-34.789,-1.339,-75.691,-29.01,301.443,-124.728,20.188,-4.642,-2.025,-36.123,-76.776,6.758,6.317,24.054,-101.826,35.876,21.369,72.887,8.835,-37.829,103.513,27.984,44.952,48.587,-13.131,-4.082,-128.45,-9.17,-22.999
2.370374200000242,-37.828,-3.899,-65.881,-26.932,293.969,-130.751,43.222,-15.909,-18.929,-48.895,-85.921,-0.934,1.187,27.616,-105.311,26.619,22.372,72.814,10.875,-41.378,109.045,27.956,46.444,51.612,-5.946,-0.492,-130.883,-4.55,-12.217
2.3704382000000805,-30.617,5.327,-51.983,-7.437,300.848,-122.936,43.178,0.501,-12.763,-40.137,-76.101,3.166,0.674,29.638,-97.009,30.178,22.35,72.229,11.889,-35.701,127.379,34.076,55.107,64.368,1.745,6.681,-119.482,13.897,5.726
2.3850280999999995,-30.587,10.444,-42.197,-0.77,302.084,-123.838,31.864,12.796,-9.164,-40.609,-80.636,-0.936,-1.888,23.973,-99.985,32.197,15.667,62.935,7.266,-40.788,140.571,36.603,55.564,66.353,4.817,6.674,-118.337,18.494,13.917
2.385121100000106,-33.63,8.897,-36.52,0.256,294.609,-127.3,33.369,-1.049,-17.351,-49.277,-87.727,-6.57,-5.985,17.801,-105.521,26.53,10.528,54.676,6.234,-45.358,146.579,33.493,51.922,59.114,7.373,4.618,-126.416,15.402,15.44
2.399983600000269,-31.035,14.524,-29.823,11.014,297.901,-118.463,29.238,-2.073,-15.797,-38.982,-78.931,-5.027,-3.417,14.71,-98.755,24.966,7.444,51.547,3.667,-47.362,154.117,30.385,46.235,57.006,3.78,5.126,-125.265,18.972,17.474
2.401812300000074,-36.639,11.947,-31.33,11.003,297.603,-117.32,21.524,7.663,-12.708,-33.308,-79.876,-7.071,-0.852,10.597,-99.681,25.966,2.314,44.836,-7.608,-55.512,162.159,24.72,33.894,50.289,-8.519,-4.613,-130.263,12.806,9.772
2.415054500000224,-48.386,-2.409,-42.057,-0.791,286.547,-126.937,23.039,-2.078,-20.379,-48.131,-89.018,-12.187,-5.462,8.024,-112.901,20.817,-2.3,37.106,-12.723,-60.579,167.633,18.035,27.2,37.431,-16.708,-13.83,-142.94,-0.015,-3.558
2.4151153000002523,-47.313,-2.407,-39.454,1.771,287.797,-126.297,19.43,-7.199,-27.531,-49.62,-86.367,-13.712,-8.018,10.066,-113.813,18.234,1.801,40.655,-8.1,-57.445,170.539,19.041,31.271,37.394,-15.154,-8.693,-143.822,-0.527,-1.505
2.430080800000269,-40.093,6.817,-27.119,12.015,294.682,-122.585,13.775,3.566,-26.479,-38.3,-84.744,-11.136,-3.912,15.179,-106.527,21.29,11.533,49.836,-6.043,-57.387,172.93,21.584,35.338,42.992,-11.04,-7.147,-142.141,2.035,8.23
2.430143600000065,-40.565,2.2,-27.604,8.93,294.387,-122.975,21.446,4.075,-20.305,-38.774,-88.245,-7.027,-1.347,22.336,-106.933,25.367,19.206,53.885,-3.475,-56.818,179.929,20.025,37.352,40.899,-6.419,-13.8,-147.634,-0.528,7.709
2.4450857000001633,-37.963,1.173,-28.089,5.847,298.704,-117.216,31.158,3.559,-15.674,-38.222,-82.522,-1.897,0.704,24.875,-104.777,32.002,19.699,58.442,3.189,-50.101,188.459,27.178,43.975,43.932,0.76,-7.126,-148.511,3.571,7.702
2.445148500000414,-31.778,13.467,-17.815,9.427,306.09,-115.562,28.566,4.58,-17.195,-37.16,-79.365,-2.407,2.753,19.215,-100.573,36.068,16.606,57.871,0.624,-50.051,191.856,34.835,45.98,48.499,4.346,1.078,-147.338,7.153,15.891
2.4600994000002174,-37.893,9.867,-21.895,4.295,300.148,-127.23,18.291,-6.183,-20.764,-48.393,-89.02,-10.089,-3.91,15.609,-108.157,29.372,10.954,45.005,-11.16,-59.222,188.078,25.579,35.688,36.668,-2.831,-6.608,-156.925,-3.613,12.801
2.4618224000000737,-44.516,-3.975,-31.607,-0.32,295.749,-130.176,13.15,-7.714,-18.694,-49.882,-92.517,-14.178,-8.517,17.643,-115.222,23.195,4.283,36.763,-15.76,-63.261,186.353,18.893,26.431,30.483,-9.488,-12.237,-165.989,-11.294,3.055
2.4751564000002872,-38.323,5.251,-18.768,11.463,307.749,-119.8,21.333,8.688,-9.966,-37.024,-82.691,-9.041,-1.849,17.625,-111.008,28.807,4.791,39.8,-13.182,-59.612,191.802,27.584,31.527,40.699,-3.331,-5.052,-161.213,-2.061,13.298
2.4752242000004117,-32.137,18.053,-2.868,17.599,316.151,-117.631,24.898,9.704,-5.346,-33.913,-78.51,-6.47,0.203,15.046,-107.823,29.291,8.372,36.174,-15.731,-61.602,193.66,28.068,37.131,41.17,2.82,-2.998,-156.441,6.651,30.191
2.490171100000225,-35.691,11.375,-1.84,6.311,306.101,-124.686,12.066,-5.163,-15.586,-42.076,-86.116,-15.685,-7.482,11.957,-111.301,17.991,3.753,28.454,-23.912,-70.249,186.806,19.331,28.385,31.395,-1.794,-8.63,-156.797,2.546,28.623
2.4902345000000423,-37.193,10.339,3.797,5.792,297.085,-124.049,2.832,-11.818,-26.842,-47.157,-89.103,-20.792,-15.159,6.31,-112.215,11.825,-3.423,25.351,-25.425,-69.667,189.693,20.849,25.795,32.901,-3.841,-6.06,-149.98,-0.019,26.546
2.5055123000001913,-29.471,22.112,20.187,17.569,307.034,-117.265,12.051,-5.658,-21.692,-43.012,-79.793,-12.062,-13.095,8.353,-105.442,21.035,2.728,28.4,-15.153,-59.863,208.459,31.586,38.064,42.09,4.872,3.167,-141.121,7.666,42.913
2.505572700000357,-24.318,21.578,38.098,22.163,316.461,-114.586,24.846,8.18,-12.961,-32.723,-71.004,-2.829,-3.348,23.201,-97.652,35.358,20.144,41.691,-3.355,-52.119,217.984,41.801,45.711,46.658,12.039,4.189,-139.442,13.806,58.239
2.5200833000003513,-29.417,12.847,52.404,21.116,306.923,-117.545,30.457,14.831,-16.534,-32.178,-74.519,-2.826,0.754,30.351,-101.141,37.885,27.296,51.384,-0.79,-49.505,215.717,42.271,39.005,41.489,5.88,-2.475,-140.84,9.182,62.792
2.5217538000001696,-40.146,9.248,57.475,16.996,292.784,-123.575,27.865,5.083,-24.202,-42.392,-83.154,-7.434,-7.444,19.562,-113.335,28.113,17.535,42.111,-9.499,-55.603,217.038,27.884,26.671,27.615,-10.52,-10.67,-145.822,-2.611,63.754
2.5353784000003543,-49.327,1.554,60.491,10.832,287.368,-130.112,12.98,-5.681,-29.301,-46.96,-89.218,-12.037,-15.121,9.296,-116.808,21.425,8.296,28.749,-23.834,-66.306,213.235,13.0,14.861,12.73,-24.854,-19.368,-158.996,-14.904,57.542
2.550231900000199,-55.938,-6.132,65.554,8.772,285.544,-133.055,-0.865,-12.335,-33.37,-48.45,-94.764,-15.611,-15.618,11.336,-114.13,17.305,10.337,27.695,-28.421,-66.752,199.702,10.425,10.748,6.058,-29.44,-23.447,-167.034,-21.549,52.874
2.550291500000185,-56.907,-3.565,63.439,7.738,289.869,-130.873,4.259,-17.958,-33.849,-53.524,-95.694,-18.157,-16.627,15.935,-116.577,13.189,18.011,28.18,-21.732,-62.075,199.502,15.025,16.372,11.175,-26.849,-19.838,-165.33,-19.99,58.456
2.5652084000003015,-49.678,0.537,60.814,8.243,300.338,-129.718,13.988,-12.305,-32.79,-48.348,-89.963,-15.578,-18.66,16.944,-117.997,14.2,22.092,26.102,-19.149,-62.525,211.086,19.621,20.967,23.971,-20.162,-12.646,-164.14,-12.798,60.447
2.5652721000001293,-43.992,3.611,65.876,16.431,305.673,-129.588,11.413,-1.022,-30.196,-40.615,-86.799,-11.464,-15.567,13.853,-115.83,14.186,18.996,23.002,-25.79,-62.975,210.874,20.114,21.458,30.095,-13.482,-8.022,-161.927,-7.662,58.337
2.5801871000003302,-45.485,7.193,63.761,20.001,302.293,-127.921,8.328,-1.533,-27.092,-45.697,-90.811,-17.087,-14.015,8.716,-117.251,6.487,12.829,14.783,-30.375,-64.961,202.467,14.971,22.974,25.966,-15.518,-9.039,-156.642,-8.679,61.865
2.5802473000003374,-49.538,5.137,51.914,13.321,292.769,-127.281,13.442,-7.167,-29.114,-53.336,-94.819,-24.755,-18.099,5.121,-119.696,0.333,11.792,8.108,-29.832,-69.507,199.703,11.369,24.488,22.354,-17.039,-14.665,-154.436,-12.256,60.779
2.5952738000000863,-48.464,6.669,46.739,15.869,284.28,-126.129,21.626,-4.086,-25.499,-47.648,-93.187,-19.607,-16.032,7.166,-114.965,0.333,17.415,11.686,-24.679,-63.802,198.991,12.895,26.0,25.406,-9.85,-14.65,-152.232,-10.195,55.083
2.59534450000001,-39.707,19.47,47.717,27.637,288.094,-116.782,30.826,7.701,-13.69,-35.305,-83.872,-9.854,-5.258,16.892,-107.165,3.919,28.156,24.482,-16.458,-55.541,197.255,15.956,32.122,31.528,-3.18,-9.0,-141.322,0.574,58.101
2.610277700000097,-35.568,23.036,42.034,25.56,294.466,-112.566,31.307,14.866,-14.701,-33.22,-78.665,-9.332,-2.691,26.097,-108.083,3.915,34.788,34.703,-15.929,-60.609,191.422,17.477,34.139,32.009,-5.226,-8.479,-136.57,9.795,55.482
2.610343499999999,-43.217,12.767,28.672,11.702,289.56,-121.675,18.981,5.117,-23.908,-41.384,-88.32,-13.933,-9.348,20.948,-112.586,-5.823,26.044,31.595,-21.036,-65.671,183.546,15.41,31.031,25.829,-7.27,-11.544,-142.069,9.785,41.082
2.626325800000359,-38.051,17.877,23.52,13.739,293.369,-120.529,11.277,2.038,-14.663,-37.244,-84.134,-8.796,-5.753,11.193,-106.325,-3.768,22.944,31.563,-12.306,-54.847,187.973,22.055,38.172,34.0,-5.214,-6.41,-136.291,18.997,45.139
2.626387600000271,-20.082,35.79,31.694,32.169,309.47,-108.113,19.975,14.332,-0.303,-19.276,-63.557,6.07,7.573,18.866,-93.924,17.753,33.167,45.876,5.125,-39.935,199.568,39.451,51.454,54.458,-4.696,6.404,-121.81,44.081,61.488
2.6402931000002354,-20.062,39.341,34.224,34.698,307.623,-110.054,39.423,10.731,-6.451,-18.232,-64.006,12.724,10.127,28.581,-88.707,25.932,29.548,53.515,8.706,-36.821,198.344,45.047,49.866,54.404,-1.618,12.033,-120.151,53.771,58.865
2.640357000000222,-23.628,36.74,33.165,25.954,299.631,-117.117,55.777,6.622,-12.592,-27.435,-71.626,9.637,6.019,24.967,-87.593,22.32,22.346,51.925,5.624,-35.76,198.146,43.978,51.865,47.177,15.803,12.533,-120.031,54.741,58.806
2.6553179000002274,-7.723,50.023,47.476,39.76,312.139,-105.729,51.11,31.206,2.277,-17.162,-56.698,15.263,12.673,25.966,-80.846,33.568,38.205,60.582,13.815,-26.503,209.219,56.229,66.158,63.012,32.693,21.742,-108.64,76.204,80.776
2.6553842000002987,-5.154,58.17,52.04,53.041,319.512,-99.988,36.202,36.298,8.935,-12.534,-55.104,15.248,14.197,27.989,-77.691,33.535,37.142,60.009,13.289,-29.038,203.886,54.636,60.456,65.51,17.803,24.282,-112.118,85.861,79.671
2.6703377000003456,-24.616,41.206,27.397,32.495,302.286,-118.843,32.58,3.986,-12.591,-36.087,-81.689,-7.821,-6.822,7.981,-87.859,5.837,5.855,36.895,-8.241,-48.476,181.653,28.453,35.805,36.243,-9.879,4.278,-132.498,64.258,47.316
2.670401800000036,-28.178,27.332,14.562,16.581,287.127,-129.995,29.986,-7.801,-29.997,-49.371,-89.292,-22.158,-20.135,-6.371,-99.042,-4.928,-1.836,29.686,-18.479,-50.989,179.422,22.79,31.158,22.374,-7.82,-8.022,-140.05,52.923,38.559
2.685287799999969,-17.391,36.014,28.379,28.348,295.549,-119.106,26.37,7.064,-19.72,-38.051,-72.809,-7.279,-7.82,7.98,-88.697,10.959,15.584,48.099,-3.604,-34.544,192.563,37.111,42.91,35.672,6.532,7.356,-132.226,61.067,57.988
2.6853508000003785,-14.812,43.15,31.425,30.881,304.987,-110.278,33.516,5.52,-8.43,-32.378,-68.125,3.999,-0.127,17.706,-75.289,16.071,17.618,57.785,2.547,-31.436,189.809,35.025,43.892,37.173,0.378,10.934,-131.069,61.006,57.418
2.6993477000000894,-20.945,31.836,21.147,19.067,292.387,-115.803,34.507,-1.658,-16.106,-36.444,-78.303,-4.714,-7.812,8.979,-84.435,4.272,8.891,49.018,-10.775,-37.552,177.836,26.281,34.114,24.328,-10.381,-5.983,-138.11,54.285,40.967
2.699408100000255,-24.51,25.657,21.126,23.659,282.361,-121.323,27.3,6.028,-18.652,-33.846,-79.25,-7.784,-3.705,6.408,-93.06,0.681,7.858,45.383,-14.863,-34.953,178.17,27.791,29.982,20.206,-12.932,-8.026,-138.484,51.669,42.463
2.7144046000003073,-14.752,35.365,27.765,37.467,296.935,-114.029,33.42,16.781,-3.776,-22.541,-64.314,7.081,9.618,12.037,-80.671,10.927,12.461,54.047,-3.065,-30.308,188.238,30.325,35.587,25.821,-11.894,2.228,-129.124,55.204,50.105
2.729452100000344,-6.028,35.33,28.25,36.405,308.934,-103.669,34.924,21.375,3.912,-15.346,-54.515,16.296,11.146,12.538,-75.467,16.039,17.059,58.091,-0.5,-30.79,192.148,32.344,37.601,26.307,-11.37,1.201,-125.409,56.173,43.395
2.7295185000002675,-13.194,25.561,21.049,26.123,304.526,-106.127,14.397,19.304,-4.288,-20.454,-62.658,9.107,6.524,12.013,-85.638,8.851,16.53,50.349,-9.721,-32.296,186.321,34.361,32.44,22.183,-16.994,-2.898,-129.382,47.408,34.13
2.7447696000003816,-19.329,26.56,12.831,24.047,302.173,-113.193,5.673,10.063,-8.895,-25.557,-70.28,3.463,6.517,14.562,-83.503,4.231,12.415,49.786,-11.249,-34.825,182.036,30.228,30.871,21.136,-23.125,-2.895,-133.351,43.774,33.071
2.7448268000002827,-20.847,23.971,3.597,23.511,292.136,-114.104,13.352,1.856,-10.423,-28.605,-72.771,2.947,0.875,11.986,-79.834,-0.384,12.914,55.371,-11.237,-38.376,178.268,23.026,27.254,17.016,-24.639,-8.528,-139.365,42.706,24.329
2.7594393000003947,-32.609,7.041,-10.752,11.704,265.717,-120.138,10.265,0.318,-19.122,-39.335,-83.969,-5.765,-6.81,8.9,-90.0,-12.167,11.365,49.168,-18.398,-42.436,168.868,19.929,19.542,7.265,-32.811,-15.179,-143.837,28.319,8.935
2.759498700000222,-33.088,3.448,-14.327,4.52,253.156,-124.116,7.693,1.854,-20.64,-40.832,-86.447,-8.321,-4.242,11.965,-90.422,-11.13,10.329,49.632,-14.794,-40.345,168.187,26.057,28.231,13.918,-36.877,-11.066,-134.984,25.729,8.926
2.774470199999996,-15.637,16.252,-4.066,12.201,257.001,-113.234,22.03,1.852,-10.373,-26.959,-72.016,5.519,1.398,14.515,-77.524,4.25,18.003,65.463,0.078,-28.009,180.314,39.35,45.109,32.86,-20.958,0.216,-123.578,44.658,20.188
2.776278700000148,-8.449,22.384,-4.575,16.799,254.695,-103.899,31.742,6.461,-4.215,-21.809,-64.259,13.711,3.446,12.963,-71.811,11.931,20.034,66.423,7.762,-21.321,186.794,50.07,47.626,39.487,-5.056,8.413,-120.893,50.762,24.779
2.7895581000002494,-7.416,25.948,-7.132,18.319,254.952,-100.209,27.099,19.262,-0.624,-20.763,-62.145,15.234,9.077,13.975,-67.129,17.554,17.965,59.184,11.341,-23.861,187.632,53.093,50.14,43.033,2.122,15.064,-114.112,50.198,25.779
2.7896208000001934,0.276,31.045,0.56,25.473,261.87,-91.399,22.461,22.317,2.963,-12.545,-54.399,18.805,11.118,14.986,-59.377,25.734,23.07,66.809,13.379,-22.3,190.006,55.602,59.823,52.212,7.243,18.636,-107.338,60.394,29.851
2.8045685000001868,-1.773,30.501,-2.002,24.423,259.559,-93.357,19.365,10.512,-4.725,-17.143,-55.881,14.175,1.373,11.897,-62.391,18.536,19.461,69.304,6.193,-23.815,183.156,52.472,56.177,49.598,3.137,13.494,-116.452,60.846,30.334
2.804631800000152,-10.481,24.835,-12.758,14.153,252.639,-106.072,12.686,5.89,-13.942,-29.422,-67.096,1.866,-5.289,7.786,-70.013,8.271,7.658,58.989,-0.985,-35.062,172.726,40.637,45.875,41.352,-1.477,5.283,-125.557,52.589,29.279
2.8195638000001964,-13.032,17.126,-16.844,10.04,245.214,-110.064,1.402,5.372,-18.539,-33.491,-73.177,-7.358,-8.357,2.656,-75.579,3.652,3.552,50.22,-8.157,-45.273,166.406,30.862,41.218,38.236,-1.475,0.155,-123.382,47.413,21.053
2.819625100000394,-20.703,7.375,-29.635,1.833,236.26,-112.003,-9.87,-8.466,-27.229,-39.093,-78.227,-13.498,-14.497,-2.47,-83.188,-5.573,0.987,43.51,-20.444,-48.814,155.481,24.171,32.468,29.489,-14.282,-8.042,-129.919,34.045,4.125
2.8345210000002226,-27.855,-0.317,-43.95,-12.513,239.609,-120.088,-7.299,-18.191,-30.788,-45.201,-83.271,-13.484,-11.921,2.143,-85.666,-4.543,-0.039,45.516,-20.424,-48.253,144.567,20.049,24.751,21.262,-26.05,-11.62,-143.109,21.204,-6.125
2.836163800000122,-26.29,-4.415,-44.931,-13.013,256.788,-125.091,4.492,-12.025,-22.048,-42.082,-83.188,-7.323,-1.15,8.801,-86.093,9.806,9.183,56.741,-10.157,-45.643,144.422,23.103,27.8,24.315,-22.438,-6.998,-148.601,22.719,-9.705
2.849619800000255,-28.313,-2.361,-52.57,-8.389,268.315,-123.941,2.95,-6.89,-17.415,-37.942,-81.056,-5.267,-0.124,6.231,-91.642,13.382,11.735,57.709,-7.585,-45.597,141.204,28.715,31.871,26.34,-26.514,-4.429,-149.99,20.647,-18.917
2.8496815000003153,-28.285,1.739,-61.227,-8.893,270.096,-120.744,-2.176,0.289,-16.373,-33.293,-76.364,-0.138,2.437,5.712,-92.575,15.931,9.162,55.602,-5.528,-44.527,133.891,29.199,33.888,23.752,-32.635,-4.425,-148.303,14.991,-23.509
2.8646253000001707,-28.769,-1.336,-59.117,-10.421,271.875,-121.647,9.61,11.047,-9.697,-29.673,-76.288,3.448,8.583,11.342,-89.921,24.112,12.739,62.206,-3.474,-40.896,126.072,25.583,34.366,21.679,-24.918,-4.42,-149.179,16.513,-23.485
2.864683900000273,-39.499,-11.069,-71.353,-19.633,239.327,-118.964,11.137,2.839,-10.2,-32.718,-85.433,-7.314,-0.648,5.695,-86.245,12.304,6.066,58.558,-13.204,-42.392,111.089,15.311,27.672,16.022,-29.504,-14.662,-144.419,8.3,-36.269
2.8800473000001148,-24.09,-20.279,-90.237,-36.519,206.813,-86.058,-8.342,-10.996,-7.116,-21.926,-77.663,-11.405,-5.77,-6.606,-53.371,-4.102,-9.309,47.229,-13.703,-27.493,118.15,7.612,23.034,7.297,-42.795,-23.357,-111.487,-6.053,-47.504
2.8946273999999903,8.722,-25.382,-90.659,-43.143,174.33,-53.184,-14.481,-0.226,20.556,10.883,-44.797,6.025,12.679,-9.673,-20.53,1.025,-11.861,45.132,5.778,5.322,150.82,15.801,28.134,3.191,-39.678,-16.673,-78.588,-6.047,-42.846
2.894686200000251,41.501,-22.283,-88.519,-39.513,141.881,-20.343,-5.245,12.582,42.052,41.099,-13.502,21.388,23.425,-11.201,12.278,8.709,-12.362,42.526,23.703,38.104,183.457,27.568,30.155,0.626,-39.126,-9.997,-45.722,-3.992,-37.68
2.909693700000389,33.775,-19.699,-92.529,-42.035,144.813,-30.057,-5.752,3.348,32.277,39.008,-12.976,20.342,15.717,-18.362,2.532,6.651,-22.083,34.286,24.192,33.968,163.293,22.417,21.928,-7.059,-47.284,-17.671,-61.045,-8.086,-40.203
2.909760600000027,17.859,-29.925,-94.486,-47.629,177.456,-62.302,-14.968,-2.291,21.998,28.723,-20.648,17.76,13.652,-23.979,-29.746,5.62,-27.696,29.641,13.921,15.491,137.515,9.075,9.61,-17.81,-49.798,-25.338,-93.259,-9.615,-46.311
2.9247698000003766,21.94,-35.531,-97.977,-46.044,170.618,-60.703,-23.15,2.322,25.05,28.182,-20.627,17.742,14.663,-24.467,-24.593,6.126,-27.669,27.05,6.223,14.963,127.643,5.992,1.404,-26.502,-57.433,-24.801,-90.605,-12.679,-51.9
2.9248474000000897,23.967,-26.274,-95.83,-37.801,203.235,-68.327,-26.201,1.295,21.951,27.129,-21.631,17.725,14.136,-22.906,-30.204,9.194,-25.592,28.56,8.266,14.948,110.097,8.548,0.89,-25.963,-63.523,-23.239,-107.42,-12.154,-48.774
2.9396762000001218,13.697,-22.149,-86.0,-31.103,235.82,-100.534,-16.953,-1.268,15.781,18.905,-23.659,20.781,17.195,-14.686,-62.449,17.894,-18.394,36.728,8.77,5.199,90.519,10.588,3.451,-19.277,-52.701,-22.191,-139.588,-6.507,-43.602
2.939736499999981,0.363,-29.811,-88.988,-32.097,268.372,-132.196,-9.764,-4.34,10.643,6.591,-31.832,19.223,15.129,-4.425,-88.514,21.975,-10.179,43.864,3.126,-6.589,73.523,10.578,3.96,-16.696,-43.427,-18.583,-164.552,-9.574,-46.12
2.954697699999997,-20.129,-33.368,-91.973,-37.188,300.891,-164.339,-20.0,-16.632,-3.713,-10.834,-51.268,11.007,7.429,0.703,-119.164,17.342,-3.508,53.041,0.049,-19.39,47.834,8.006,7.542,-17.704,-40.31,-18.564,-196.662,-15.2,-46.587
2.954754800000046,-39.577,-27.699,-81.635,-33.564,333.378,-196.45,-30.226,-20.201,-15.492,-26.705,-66.073,7.41,3.836,1.726,-151.32,14.763,1.618,62.722,1.073,-34.74,27.806,8.51,15.219,-12.051,-30.535,-20.082,-228.741,-6.475,-39.88
2.9698100000000522,-45.685,-17.938,-74.381,-19.699,365.832,-225.968,-24.048,-5.324,-9.329,-28.727,-64.47,7.915,4.344,6.848,-174.223,22.433,6.227,64.196,2.097,-47.001,23.68,16.698,26.474,-1.28,-20.259,-13.915,-256.689,6.851,-33.18
2.969876800000293,-50.25,-5.624,-64.061,-5.847,398.254,-246.746,-1.483,8.001,2.976,-24.6,-62.357,9.956,7.926,12.989,-198.127,33.681,14.418,66.694,6.706,-56.687,17.508,27.952,40.793,7.942,-5.894,-1.605,-285.122,17.09,-21.876
2.984854499999983,-63.007,5.14,-44.529,6.455,430.643,-276.726,22.085,18.24,6.559,-26.113,-70.491,8.921,11.504,12.976,-228.155,31.598,17.99,72.775,4.137,-68.926,5.708,29.974,45.875,13.057,9.481,3.519,-317.112,24.758,-9.047
2.9849255000003723,-72.166,7.184,-40.898,13.621,463.0,-288.232,29.235,28.467,2.454,-30.697,-78.618,-0.309,5.857,6.815,-234.587,21.833,8.238,64.505,-7.138,-80.128,-0.446,22.259,39.681,12.02,9.472,-0.583,-328.066,22.172,-8.525
3.0002163000003748,-78.754,-1.02,-51.616,8.484,447.168,-285.382,23.058,24.341,-5.745,-39.376,-81.613,-8.506,-2.346,-0.364,-236.402,18.737,-2.016,47.534,-15.327,-86.708,-4.544,14.552,36.055,4.323,2.802,-6.73,-331.836,12.416,-19.275
3.000282200000129,-89.433,-10.241,-54.638,-1.259,464.139,-299.442,13.814,8.947,-12.912,-49.07,-86.142,-9.009,-5.417,-8.048,-252.047,17.182,-3.551,42.364,-24.534,-94.306,-9.662,7.365,27.31,-5.415,-0.274,-13.383,-352.509,7.28,-27.453
3.0148235999999997,-94.979,-15.354,-60.219,-8.942,488.266,-315.024,-2.082,-1.308,-18.534,-52.607,-91.691,-10.025,-10.022,-11.114,-254.869,12.554,-5.597,40.785,-37.829,-101.384,-11.702,-5.962,7.815,-16.68,-13.082,-23.103,-365.989,2.662,-28.45
3.014882200000102,-92.835,-17.387,-67.331,-14.568,482.142,-317.27,-19.498,-8.479,-27.225,-58.19,-94.161,-11.552,-15.136,-1.881,-252.052,15.103,-3.03,40.231,-37.279,-100.77,-8.616,-13.128,4.221,-25.373,-20.241,-26.667,-367.672,-0.414,-27.909
3.0299684999999954,-86.082,-13.784,-60.091,-10.455,492.419,-317.978,-19.991,-11.032,-31.296,-61.718,-90.993,-3.856,-7.436,12.977,-254.362,29.432,11.318,55.048,-23.922,-90.423,5.225,2.254,22.148,-14.077,-5.364,-13.32,-359.62,8.295,-22.246
3.030036200000268,-73.701,-0.962,-50.297,1.338,514.468,-311.0,-16.897,-4.873,-28.191,-52.947,-81.168,6.906,2.818,21.674,-242.324,43.747,23.089,72.412,-14.676,-81.624,22.638,24.281,34.421,4.38,7.962,4.112,-337.743,22.632,-11.465
3.0449063000000933,-69.529,5.186,-54.345,1.337,511.392,-304.541,-27.126,-8.455,-32.261,-51.87,-78.013,6.387,-2.82,17.553,-235.934,40.63,20.505,67.728,-17.735,-85.64,20.054,20.671,30.8,-0.747,3.855,2.059,-334.844,22.609,-10.941
3.044973100000334,-78.681,-0.967,-64.025,-6.349,506.27,-316.019,-35.808,-23.303,-42.475,-65.138,-88.694,-4.89,-13.576,11.388,-252.604,24.708,12.8,55.878,-23.865,-93.239,8.251,5.281,22.573,-14.066,-2.809,-7.677,-352.952,14.902,-19.127
3.0599057000003995,-79.627,1.084,-56.788,-0.195,514.473,-320.314,-32.186,-24.305,-42.433,-64.56,-92.191,-6.422,-11.513,13.426,-257.475,26.732,15.861,61.457,-18.206,-89.048,13.878,14.497,26.649,-5.343,1.805,-2.547,-349.525,22.571,-12.961
3.0748717999999826,-73.399,9.792,-37.776,10.051,519.081,-310.772,-31.642,-14.546,-38.804,-56.811,-82.365,1.269,-6.379,19.048,-246.459,38.488,25.066,69.593,-11.015,-83.323,21.036,25.753,34.307,0.298,6.414,2.067,-338.417,30.233,0.372
3.0749273999999787,-82.547,-0.464,-39.788,3.894,511.39,-314.048,-34.684,-16.069,-39.79,-62.902,-84.844,-1.806,-9.446,15.955,-250.311,28.204,20.431,62.351,-19.714,-92.461,11.281,9.334,20.44,-18.146,-6.4,-10.743,-352.936,16.883,-6.8
3.089896299999964,-97.322,-16.858,-60.753,-9.43,498.071,-320.906,-34.65,-20.663,-39.75,-68.474,-95.518,-9.489,-12.51,9.279,-257.745,16.393,10.676,50.505,-30.965,-99.541,3.585,-5.533,3.001,-30.423,-23.3,-19.954,-363.341,1.497,-24.212
3.091747100000248,-98.761,-15.304,-66.327,-15.056,494.499,-317.511,-37.176,-16.032,-37.149,-65.844,-93.886,-7.43,-10.449,9.27,-257.488,21.499,13.227,49.942,-30.421,-96.88,5.119,-0.916,7.096,-27.319,-20.203,-17.885,-358.367,-1.578,-29.823
3.104977599999984,-100.712,-12.727,-62.162,-16.066,500.152,-321.805,-38.164,-12.43,-36.6,-66.291,-93.792,-6.398,-7.877,10.798,-261.841,20.453,16.8,54.503,-31.928,-101.906,3.577,-3.477,7.602,-30.365,-16.597,-20.941,-364.157,-5.675,-33.379
3.105042200000298,-106.247,-20.399,-67.736,-15.025,500.676,-325.581,-24.806,-9.344,-35.026,-67.249,-100.358,-11.002,-6.332,10.787,-266.19,14.797,15.246,52.912,-33.945,-110.001,1.012,-13.207,-4.701,-37.507,-26.826,-27.067,-371.989,-12.842,-41.031
3.1199962000000596,-104.091,-20.378,-72.279,-11.424,503.762,-317.571,-15.047,-1.137,-28.843,-66.157,-97.184,-10.479,-6.838,13.337,-266.948,19.393,17.793,46.199,-30.325,-106.305,2.548,-11.145,-2.135,-38.494,-29.361,-26.016,-370.08,-13.854,-45.088
3.120057699999961,-99.376,-12.161,-69.645,-9.363,516.578,-319.303,-19.13,0.913,-23.691,-67.116,-93.5,-7.395,-8.88,12.812,-266.169,20.398,18.8,44.103,-29.27,-100.564,5.107,-6.523,7.601,-33.845,-20.622,-22.403,-366.637,-10.254,-41.457
3.136145800000122,-95.691,-7.538,-65.477,-8.842,521.697,-325.131,-11.939,-2.162,-23.155,-66.536,-93.407,-5.85,-9.384,9.213,-260.267,19.866,16.219,47.646,-27.192,-98.414,10.225,0.656,12.716,-23.053,-12.405,-16.233,-359.098,-5.12,-33.219
3.1362115000001722,-89.447,-4.969,-55.677,-3.71,522.2,-318.146,-2.193,-1.135,-25.694,-64.421,-89.727,-4.308,-8.862,11.253,-255.909,25.994,15.178,48.11,-19.992,-95.754,14.825,11.414,19.876,-13.296,-1.121,-10.069,-348.492,-1.017,-28.575
3.150098700000399,-86.284,-4.964,-45.376,1.929,533.461,-316.803,-14.999,-2.158,-29.254,-65.381,-89.125,-5.84,-9.366,12.779,-261.8,26.992,13.114,44.476,-18.948,-95.658,13.273,12.939,23.442,-12.77,6.052,-7.498,-348.144,-1.016,-27.009
3.151830300000256,-79.538,1.701,-38.158,10.637,550.858,-317.511,-22.156,1.942,-28.713,-60.705,-86.987,-4.298,-7.819,11.229,-260.514,29.527,15.15,49.555,-16.367,-93.001,14.285,16.0,25.98,-8.147,8.095,-3.392,-346.259,3.084,-16.736
3.165032300000348,-69.724,12.97,-28.386,24.458,564.14,-306.435,-5.228,15.26,-22.024,-50.91,-76.654,1.854,-5.762,10.705,-250.007,36.67,22.82,57.702,-9.691,-89.322,16.32,23.669,34.151,1.083,17.309,0.198,-338.74,11.79,-5.961
3.165100600000187,-77.852,6.809,-31.944,24.434,565.112,-306.641,4.511,14.733,-20.465,-52.396,-80.163,-0.197,-6.781,7.621,-251.294,31.51,18.186,48.935,-18.903,-95.38,5.033,14.936,33.093,-4.553,20.877,-3.901,-343.525,8.192,-14.664
3.180091600000196,-93.143,-9.591,-50.867,7.503,556.863,-318.117,0.921,1.91,-28.129,-61.565,-90.841,-8.393,-9.848,2.49,-260.777,24.306,5.872,37.103,-28.618,-101.432,-8.293,2.625,22.813,-13.77,8.049,-8.508,-355.476,-9.747,-29.506
3.1801547000000028,-94.587,-12.656,-63.624,-3.263,555.281,-319.336,-0.617,0.884,-28.613,-61.504,-86.14,-6.336,-8.814,6.074,-263.59,26.331,8.428,41.677,-23.466,-98.769,-12.895,7.234,20.229,-14.269,-0.668,-9.524,-360.244,-22.545,-40.235
3.195040600000084,-95.517,-15.205,-68.683,-3.259,559.337,-317.992,-7.277,3.444,-19.363,-57.344,-82.98,0.843,-4.706,14.265,-263.839,27.842,15.08,46.758,-23.955,-101.232,-18.005,7.226,19.184,-21.939,-3.742,-14.638,-363.47,-24.059,-49.929
3.195102399999996,-100.032,-20.312,-68.102,-2.744,560.314,-316.137,-15.466,0.367,-13.708,-55.749,-87.508,-0.183,-3.165,16.3,-267.673,29.863,15.577,45.174,-28.542,-103.693,-26.696,-0.465,16.603,-28.577,-10.398,-17.697,-364.131,-22.498,-48.342
3.2100540000001274,-99.42,-14.657,-58.3,-0.692,561.291,-312.747,-16.475,6.002,-16.769,-55.694,-86.396,-4.281,-3.162,14.234,-268.942,30.858,16.074,46.154,-22.878,-101.54,-32.817,0.047,16.587,-23.426,-8.338,-18.191,-359.668,-19.914,-39.072
3.2117682000002787,-100.857,-11.568,-51.07,1.358,559.193,-322.681,-13.897,11.119,-25.461,-63.835,-90.408,-8.887,-7.257,8.072,-268.673,18.531,11.959,43.034,-27.466,-106.049,-41.494,-4.564,11.959,-24.939,2.429,-18.685,-360.846,-18.357,-36.984
3.2251515000002655,-102.806,-13.606,-49.482,2.381,551.461,-326.969,-9.273,-2.212,-33.633,-70.943,-99.539,-18.1,-15.447,2.941,-270.966,9.291,6.824,38.38,-36.147,-113.627,-49.137,-11.219,9.898,-26.451,9.598,-16.105,-366.12,-13.728,-29.774
3.2401934000004076,-101.678,-4.371,-43.285,7.502,549.885,-314.859,-9.263,-15.017,-37.185,-69.848,-99.439,-27.303,-21.579,0.376,-275.306,10.307,7.329,38.854,-29.963,-114.026,-52.674,-5.572,16.036,-16.691,15.224,-12.503,-364.73,-8.079,-20.011
3.2402593000001616,-108.749,-4.879,-46.315,6.47,550.36,-319.667,-20.013,-8.342,-39.197,-75.413,-104.975,-29.838,-24.631,-3.722,-278.617,4.149,2.199,32.155,-31.47,-116.474,-60.818,-7.616,11.922,-21.285,14.184,-18.126,-364.877,-11.145,-27.163
3.2403026000001773,-114.275,-19.218,-53.954,-1.733,549.809,-335.229,-22.042,-1.674,-37.621,-79.949,-112.042,-26.734,-26.656,-4.743,-279.875,2.608,-4.463,25.975,-40.66,-118.919,-69.979,-14.781,7.811,-32.534,6.998,-22.206,-369.635,-18.818,-33.284
3.2555309000003945,-109.038,-20.224,-52.363,-2.244,558.481,-328.234,-15.36,-7.82,-31.948,-70.135,-103.221,-21.584,-22.018,2.946,-279.083,12.851,3.738,36.195,-32.423,-112.14,-70.934,-5.032,14.976,-26.354,8.528,-19.11,-367.216,-19.312,-31.713
3.2555930000003173,-113.54,-22.253,-63.581,-8.902,555.873,-324.319,-24.054,-14.472,-36.014,-72.626,-103.118,-23.612,-17.898,4.48,-281.878,8.74,5.784,34.622,-30.341,-114.077,-73.936,-4.515,13.424,-30.426,9.032,-22.677,-366.849,-25.44,-45.002
3.2702774000003956,-122.648,-35.551,-80.424,-26.311,533.288,-334.753,-36.837,-14.97,-46.737,-87.411,-115.823,-32.297,-21.466,-2.184,-286.207,-3.052,-4.981,19.218,-42.094,-121.135,-80.523,-20.392,7.263,-41.667,0.313,-27.265,-373.142,-36.686,-56.227
3.2852802000002157,-111.254,-25.781,-67.023,-19.625,535.829,-328.783,-29.628,-10.857,-37.469,-77.589,-106.998,-27.142,-22.469,0.892,-278.236,7.197,1.172,27.908,-32.83,-110.255,-75.319,-10.125,18.526,-28.817,8.51,-16.992,-369.183,-26.915,-41.314
3.28534400000035,-96.799,-6.288,-48.001,0.375,559.884,-315.134,-14.742,-8.797,-28.21,-64.704,-91.521,-15.332,-15.787,7.551,-265.15,21.535,13.979,43.762,-18.965,-99.899,-68.071,8.84,26.705,-15.468,24.895,-8.778,-360.617,-9.47,-27.441
3.300242000000253,-101.825,-11.405,-52.051,-2.187,555.225,-316.356,-8.067,-9.3,-43.038,-76.422,-99.627,-20.44,-17.82,2.42,-268.983,15.365,4.743,35.521,-30.729,-105.947,-73.126,-3.976,19.506,-25.187,21.284,-14.917,-363.842,-10.485,-26.389
3.3003005000000485,-105.821,-14.467,-49.95,-6.284,542.887,-319.626,-11.645,-6.729,-53.754,-81.469,-107.724,-29.128,-28.561,-4.755,-277.424,7.665,-2.946,29.85,-39.408,-108.915,-80.225,-17.292,16.412,-29.26,15.115,-17.464,-367.065,-14.573,-24.313
3.315319900000304,-103.666,-8.305,-49.388,-1.154,547.467,-320.331,-22.904,-7.235,-47.552,-76.265,-102.493,-30.636,-31.094,-3.725,-275.097,7.145,3.204,34.944,-40.393,-108.806,-82.707,-15.738,8.711,-29.743,18.174,-18.471,-366.698,-18.657,-29.924
3.3153872000002593,-113.809,-22.641,-74.954,-16.522,538.723,-325.134,-32.103,-20.548,-52.628,-83.361,-109.563,-35.216,-30.55,-4.746,-280.97,-0.034,-0.897,26.199,-54.185,-119.455,-92.87,-31.604,-8.716,-49.693,6.885,-32.284,-377.602,-40.155,-52.436
3.32926580000003,-123.429,-34.914,-92.81,-32.387,523.327,-325.833,-32.071,-25.65,-56.674,-86.351,-117.65,-38.255,-29.495,-7.303,-290.422,-6.694,-4.995,21.563,-58.229,-121.898,-100.462,-44.38,-12.293,-61.939,-2.856,-38.912,-387.47,-53.435,-66.216
3.329338700000335,-115.621,-26.682,-84.52,-23.133,531.001,-319.36,-29.477,-14.354,-43.297,-76.019,-106.262,-27.458,-19.732,-1.66,-279.374,3.047,4.232,33.836,-41.777,-109.48,-89.091,-27.429,-1.523,-49.582,10.467,-27.603,-380.423,-45.697,-61.539
3.3444014000001516,-105.259,-22.557,-81.874,-15.938,535.593,-314.43,-25.861,-7.167,-36.081,-69.283,-94.885,-14.111,-9.978,8.075,-264.237,21.487,11.912,41.487,-30.465,-100.149,-74.145,-10.496,10.774,-36.212,19.166,-18.353,-368.259,-41.04,-56.354
3.344464600000265,-97.982,-17.924,-79.743,-14.897,535.057,-309.504,-22.762,-3.061,-35.533,-61.016,-89.155,-2.314,-7.919,16.264,-260.899,34.785,20.097,49.643,-17.114,-92.364,-63.824,-0.239,27.67,-24.393,21.708,-11.163,-355.083,-29.728,-48.613
3.359359100000347,-86.613,-2.536,-62.757,-3.612,549.892,-304.072,-23.763,5.651,-24.227,-50.197,-77.795,9.984,-1.251,21.371,-251.929,46.021,31.348,61.376,-0.703,-79.977,-52.49,16.667,44.548,-6.95,36.031,3.705,-341.921,-5.62,-30.634
3.3594239000003654,-85.502,-3.046,-56.034,-0.022,553.952,-303.255,-27.326,3.084,-22.666,-50.147,-75.668,9.974,1.824,17.763,-247.066,50.074,25.169,56.192,-2.752,-77.335,-51.413,20.237,50.651,0.229,43.68,8.825,-341.579,-3.053,-22.918
3.374725000000126,-94.638,-13.802,-61.613,-7.707,540.591,-305.001,-32.934,-3.579,-34.426,-55.22,-84.301,1.767,-7.912,7.499,-257.065,41.827,14.385,47.426,-7.36,-84.943,-59.046,12.532,52.137,-1.82,38.513,3.181,-349.434,-12.784,-29.043
3.374782900000355,-91.981,-5.591,-55.916,-2.576,544.661,-300.598,-30.339,6.67,-31.318,-53.115,-80.118,2.79,-9.953,8.004,-255.271,41.272,21.031,57.625,1.869,-82.296,-56.425,19.692,56.184,5.866,45.135,6.251,-347.548,-4.574,-25.94
3.3893498000002182,-82.156,7.735,-47.151,9.722,558.973,-292.1,-10.841,14.348,-22.577,-47.939,-69.792,7.398,-3.283,14.656,-242.721,50.453,28.694,61.153,0.33,-78.115,-51.246,25.82,55.103,11.496,52.262,15.466,-340.54,3.627,-18.23
3.389407800000299,-79.0,7.727,-47.104,14.836,558.414,-289.247,-1.097,10.236,-25.628,-46.354,-70.747,2.268,-5.841,9.519,-242.99,45.279,23.543,47.772,-14.015,-84.185,-56.318,13.498,43.777,-1.323,41.963,12.377,-340.2,-1.499,-21.285
3.4044941000001927,-80.457,3.621,-47.057,16.358,555.807,-292.544,-18.002,15.348,-25.091,-45.795,-73.75,-3.37,-8.397,3.874,-248.895,33.963,17.371,37.991,-16.562,-88.199,-59.335,3.239,31.95,-12.593,30.651,2.119,-345.495,-4.572,-27.412
3.404565100000127,-82.426,0.031,-48.035,13.78,555.251,-293.276,-21.058,21.993,-18.918,-45.75,-73.164,-0.805,-2.241,10.017,-248.646,36.491,17.866,35.391,-15.521,-85.549,-58.764,3.236,30.381,-14.63,25.497,-1.47,-349.76,-10.715,-35.069
3.419526700000006,-82.344,-2.531,-53.11,10.692,550.085,-288.884,0.48,17.36,-18.386,-43.142,-73.091,0.22,0.323,10.52,-249.934,36.966,21.947,31.77,-19.092,-87.001,-63.316,0.158,30.351,-19.226,21.373,1.093,-344.8,-20.95,-44.768
3.4195975000002363,-79.188,-0.991,-52.544,16.829,546.973,-283.984,0.992,19.904,-18.368,-39.001,-73.018,-1.317,-0.702,5.898,-250.709,30.27,24.486,33.275,-19.072,-89.475,-66.326,-4.965,24.173,-21.768,21.352,-0.957,-337.282,-20.929,-46.26
3.434450100000049,-80.645,-0.99,-49.93,18.861,542.328,-282.163,-18.989,27.057,-16.813,-39.474,-74.994,-2.852,-1.214,8.454,-249.946,27.678,21.388,39.389,-20.59,-89.898,-65.747,-5.472,24.661,-15.599,29.015,-5.567,-338.482,-17.322,-41.603
3.4494159000000764,-86.712,-4.575,-55.516,9.621,525.904,-284.955,-18.458,19.345,-20.382,-47.119,-83.628,-11.559,-6.848,5.884,-256.868,21.502,17.268,38.837,-24.668,-92.882,-70.805,-6.491,31.296,-12.509,37.695,-4.537,-345.828,-17.305,-41.049
3.449477399999978,-92.773,-7.645,-59.558,3.464,504.886,-293.379,-8.193,6.518,-26.509,-55.269,-93.791,-22.306,-12.476,-1.294,-261.735,11.235,16.739,36.749,-25.156,-96.888,-76.369,-14.682,31.777,-13.521,47.391,-5.044,-349.581,-14.726,-41.008
3.464463799999976,-100.878,-11.223,-60.524,1.923,495.672,-301.795,-14.332,5.487,-32.118,-58.8,-100.869,-24.845,-12.976,1.269,-260.448,7.637,14.673,42.348,-24.106,-99.865,-78.342,-20.815,32.258,-11.458,55.541,-12.724,-352.817,-12.662,-39.942
3.4663185000003978,-107.949,-15.31,-69.172,-5.251,495.176,-304.055,-20.978,6.506,-37.209,-61.303,-104.355,-26.869,-18.599,3.317,-264.286,2.507,12.097,48.453,-24.082,-102.839,-80.825,-18.232,35.3,-12.984,54.461,-17.322,-359.637,-15.723,-45.538
3.4795280000003004,-105.28,-16.32,-76.275,-8.832,493.144,-305.288,-15.834,-0.16,-37.684,-62.266,-103.738,-34.015,-24.728,-2.834,-265.559,-3.131,5.424,44.306,-23.546,-99.15,-81.257,-18.726,32.19,-16.045,50.308,-14.743,-362.863,-12.634,-49.078
3.4795930000000226,-94.416,-9.131,-69.027,-1.138,496.237,-307.032,-13.257,-1.185,-27.913,-54.007,-94.925,-27.321,-14.457,0.755,-255.047,6.606,-0.216,41.188,-19.424,-87.78,-73.491,-19.732,32.158,-9.369,55.893,-10.118,-351.742,2.748,-41.857
3.494926200000009,-86.124,-0.413,-66.396,2.961,507.524,-299.552,-15.293,10.087,-17.639,-44.731,-83.559,-11.924,-1.122,8.951,-246.595,19.919,5.419,50.881,-10.695,-81.032,-65.221,-9.979,40.323,-1.162,65.571,-5.497,-337.046,16.065,-37.204
3.494999800000187,-91.161,-6.048,-80.674,-9.337,505.479,-299.253,-14.765,9.565,-23.769,-51.347,-86.55,-13.962,-7.269,3.819,-253.009,16.825,7.463,53.904,-10.684,-86.586,-67.717,-10.993,35.672,-8.334,56.796,-9.077,-340.807,12.463,-45.364
3.509504800000286,-99.267,-19.874,-89.815,-20.598,488.068,-315.86,-14.238,-2.74,-37.065,-62.054,-99.783,-27.78,-18.02,-5.407,-259.416,7.587,-5.352,39.505,-22.457,-90.598,-74.309,-25.839,21.804,-20.108,37.271,-18.29,-355.323,3.229,-54.54
3.509569499999998,-91.996,-15.755,-77.942,-10.332,488.604,-314.519,-18.322,5.459,-30.368,-55.332,-96.609,-24.678,-10.318,-0.278,-254.545,11.678,-3.81,37.929,-21.409,-83.848,-69.624,-23.764,23.831,-18.039,36.722,-14.685,-350.357,7.324,-52.436
3.5244582000000264,-81.145,-4.469,-66.081,2.486,501.435,-293.2,-24.964,17.749,-15.481,-44.005,-83.193,-12.358,0.964,7.407,-247.631,20.888,10.539,54.285,-10.117,-77.104,-59.308,-14.007,33.541,-12.386,44.37,-6.474,-337.199,16.539,-44.187
3.5262135000002672,-85.162,-8.563,-70.626,-2.127,496.836,-294.444,-28.525,-0.199,-18.027,-44.986,-83.622,-13.883,-2.624,2.276,-248.408,18.818,4.893,56.792,-15.23,-80.613,-63.348,-21.677,29.409,-18.009,37.153,-12.615,-343.522,13.961,-43.631
3.5395336999999927,-90.713,-16.239,-77.728,-8.273,486.605,-307.982,-20.812,-12.494,-24.669,-46.99,-89.174,-20.017,-8.769,-2.849,-248.672,12.651,-2.797,49.051,-22.9,-83.094,-70.457,-28.316,22.72,-24.138,32.505,-17.725,-352.912,10.36,-50.759
3.5395980000002965,-89.597,-15.198,-78.162,-8.777,485.606,-305.625,-12.594,-0.699,-22.083,-45.919,-91.646,-19.997,-5.174,3.302,-245.862,10.589,3.866,52.588,-15.704,-80.449,-68.849,-26.238,27.308,-21.04,41.694,-14.122,-347.949,12.912,-52.245
3.5545529000000897,-92.582,-16.208,-79.109,-14.915,477.948,-305.831,-21.803,-3.772,-27.184,-49.971,-97.19,-24.587,-5.681,3.298,-252.276,5.455,0.788,55.097,-13.127,-81.906,-71.342,-30.823,31.379,-19.482,46.263,-17.694,-346.576,11.874,-50.656
3.554615200000171,-90.44,-15.167,-76.98,-13.364,474.396,-307.062,-33.564,-10.94,-32.279,-50.434,-92.994,-27.124,-10.286,-5.927,-255.61,3.913,-6.897,49.406,-16.7,-83.873,-74.344,-31.304,31.348,-16.901,48.778,-17.676,-346.742,13.399,-51.118
3.569499000000178,-77.029,-4.393,-65.12,3.044,489.291,-293.435,-26.359,4.44,-21.489,-37.063,-77.532,-13.777,-3.103,-3.359,-241.522,15.692,-1.255,52.431,-10.024,-76.104,-66.585,-21.539,39.001,-4.077,60.513,-6.387,-334.1,23.12,-42.358
3.5695564000002378,-71.829,1.247,-56.346,9.188,496.999,-285.97,-13.012,14.681,-14.295,-29.854,-73.356,-5.566,3.56,2.792,-232.571,22.849,1.308,58.014,-1.817,-67.319,-61.908,-16.907,47.159,4.124,68.137,-1.77,-327.106,28.732,-32.581
3.584530700000414,-77.393,-5.927,-60.9,0.982,487.793,-294.905,-18.122,5.445,-21.965,-39.045,-79.943,-11.196,-2.591,-1.822,-238.486,19.24,-4.329,52.32,-4.889,-70.838,-66.969,-17.914,41.476,-0.491,66.532,-4.33,-332.414,24.092,-38.696
3.5995707000001858,-78.34,-13.093,-70.061,-3.63,481.669,-299.221,-30.399,-0.196,-26.042,-42.593,-83.961,-14.259,-8.737,-6.943,-239.272,18.196,-9.96,44.583,-10.519,-74.353,-69.976,-17.896,34.775,-2.027,62.879,-4.326,-331.569,18.433,-48.904
3.5996367000002465,-76.725,-11.031,-75.626,-7.212,478.626,-300.459,-31.906,-4.806,-26.528,-36.915,-84.902,-12.195,-9.752,-6.424,-235.959,16.641,-13.536,47.1,-9.484,-70.18,-71.955,-17.366,38.326,0.537,61.279,-3.809,-324.578,16.877,-47.318
3.599679500000093,-75.623,-6.409,-76.575,-10.279,474.049,-302.72,-30.849,-8.9,-29.063,-39.439,-83.792,-11.159,-10.255,-5.393,-239.822,15.6,-10.449,54.225,-5.376,-71.135,-73.42,-15.3,39.313,1.048,61.73,-3.293,-320.667,19.422,-43.685
3.6146363000002566,-70.425,-6.403,-77.523,-8.732,479.21,-294.732,-35.429,-2.231,-22.374,-37.351,-77.048,-5.0,-3.585,5.371,-238.557,22.244,-1.217,58.782,-2.809,-73.625,-69.761,-13.747,35.687,0.535,59.107,-0.728,-315.735,23.501,-41.592
3.6147040000000743,-57.547,0.776,-72.835,-1.038,491.539,-280.093,-29.246,10.579,-9.032,-18.87,-61.09,8.838,10.251,22.784,-221.925,35.03,11.08,68.457,5.903,-60.744,-60.469,-8.611,45.385,7.194,59.56,6.957,-301.587,33.212,-30.279
3.630622399999993,-44.169,13.071,-58.93,12.283,500.269,-270.079,-11.286,22.351,-2.875,-7.58,-44.635,22.661,20.487,28.397,-207.358,49.339,23.364,85.807,18.705,-47.363,-55.798,3.181,57.123,18.97,73.333,17.709,-288.478,47.011,-15.904
3.644610499999999,-50.273,8.959,-52.723,17.906,494.133,-271.346,-15.886,25.915,-7.995,-14.233,-52.787,18.028,16.368,18.635,-211.762,44.167,17.705,84.184,11.001,-58.074,-68.55,-3.482,45.283,17.414,75.309,10.519,-296.386,44.914,-18.962
3.6446750000000065,-70.715,-1.808,-59.331,8.154,471.098,-279.272,-34.825,19.742,-16.184,-24.465,-73.739,-5.044,3.032,5.296,-225.894,16.458,-2.805,63.608,-7.965,-73.385,-88.462,-22.434,31.918,2.54,56.278,-4.349,-312.996,32.062,-31.239
3.6596064000000297,-71.668,3.829,-52.611,8.658,459.356,-281.554,-17.884,18.185,-19.242,-28.027,-73.153,-11.187,-1.07,-0.345,-228.23,9.781,-6.388,57.909,-5.908,-69.214,-89.91,-20.875,37.521,6.124,51.611,0.266,-308.585,36.128,-23.523
3.659685999999965,-60.326,10.997,-37.19,22.994,467.093,-276.661,7.749,19.704,-18.198,-27.486,-66.42,0.095,1.493,-0.344,-220.83,22.579,-0.234,60.413,-0.267,-65.046,-86.746,-15.731,39.533,18.925,53.609,7.438,-299.567,48.9,-6.593
3.6747081000003163,-64.364,12.011,-37.665,26.045,468.163,-273.311,-8.14,16.61,-16.643,-24.897,-74.038,-4.004,-2.607,-0.344,-220.609,15.384,-6.381,51.131,-6.926,-70.104,-95.881,-23.912,35.395,14.808,30.501,0.771,-304.39,45.777,-8.636
3.674777400000039,-64.3,20.196,-38.652,24.994,467.183,-268.427,-17.866,22.741,-13.552,-20.262,-71.402,-9.123,-4.141,0.169,-220.9,10.758,-10.473,54.666,-1.284,-65.423,-98.859,-19.277,42.019,15.818,14.077,4.356,-304.598,44.707,-10.677
3.689630400000169,-55.526,24.274,-32.465,31.117,474.912,-265.085,6.743,28.866,-10.977,-16.655,-62.622,-0.917,1.498,-0.856,-214.532,20.481,-7.901,62.808,6.402,-61.259,-97.735,-12.598,44.539,26.048,22.26,12.037,-301.732,51.322,-5.543
3.6896911000003456,-62.131,15.541,-39.605,27.5,468.802,-268.918,3.662,19.616,-12.503,-17.151,-71.781,-3.989,-0.553,-7.515,-218.928,11.752,-12.504,51.987,-6.412,-70.419,-108.909,-26.93,34.76,18.85,18.139,3.315,-308.603,40.512,-16.296
3.7046400000003814,-67.704,9.377,-51.349,18.763,456.55,-269.161,-19.395,15.498,-14.54,-19.183,-77.857,-11.67,-5.163,-10.582,-227.931,0.981,-17.615,46.299,-11.529,-72.911,-116.997,-34.588,31.652,7.56,3.776,-3.348,-307.782,24.078,-32.161
3.704701500000283,-57.39,10.393,-48.223,17.207,459.68,-263.257,-7.081,21.63,-11.964,-17.627,-67.533,-6.023,-1.059,-4.423,-220.53,10.714,-14.523,54.45,-1.271,-64.641,-116.367,-26.868,33.157,11.139,4.285,0.754,-299.277,23.541,-33.666
3.7198127999999997,-50.673,15.505,-40.491,23.338,466.905,-258.383,9.32,23.658,-1.193,-10.949,-58.756,3.717,7.651,3.778,-208.015,20.437,-6.312,57.469,2.316,-60.478,-116.251,-19.669,37.222,21.374,11.453,6.901,-295.392,28.641,-30.558
3.7198811000002934,-46.524,25.224,-37.888,35.098,475.147,-248.391,-2.472,34.392,9.566,-0.18,-51.012,12.422,13.791,11.971,-203.708,27.589,3.941,70.219,7.949,-55.294,-111.524,-8.891,49.481,34.672,19.126,16.628,-285.363,33.223,-26.941
3.7347959000003357,-48.526,20.075,-48.097,26.353,472.623,-249.679,-11.179,37.432,-0.177,-2.229,-52.498,9.336,8.142,10.422,-202.992,28.074,0.863,79.883,11.528,-53.702,-116.023,-8.882,50.456,37.711,22.181,16.611,-280.979,33.702,-26.915
3.7348587000001316,-65.896,0.075,-67.516,-4.924,447.559,-270.434,-12.192,12.291,-21.694,-23.743,-70.889,-10.653,-5.699,-4.445,-212.523,7.554,-16.557,59.311,-1.804,-66.968,-140.498,-27.316,37.598,24.354,11.912,3.787,-295.555,20.348,-38.671
3.7501438000003873,-68.392,-1.974,-66.937,-5.943,438.915,-274.774,-17.303,4.082,-24.746,-27.818,-73.892,-14.229,-6.205,-10.076,-217.946,1.398,-18.077,51.055,-3.851,-69.463,-145.993,-27.801,40.122,26.891,11.901,2.758,-299.358,19.303,-36.583
3.7502064000000246,-54.491,10.323,-54.062,16.092,453.333,-255.544,-17.798,23.033,-10.889,-7.298,-58.449,3.716,5.584,-1.357,-205.432,19.328,-5.763,70.984,12.034,-55.049,-130.99,-12.404,54.426,43.258,29.819,10.953,-288.812,38.24,-19.128
3.7647556000001714,-62.634,3.141,-60.156,3.78,440.584,-256.313,-17.268,17.887,-11.903,-9.34,-64.026,3.2,4.554,1.206,-205.739,18.284,-7.807,69.888,11.51,-54.481,-138.543,-15.466,52.322,40.653,28.765,5.818,-292.622,33.078,-22.695
3.764816200000041,-74.354,-10.695,-67.268,-15.179,420.676,-269.889,-15.202,3.525,-25.211,-28.286,-79.843,-6.537,-2.623,-0.844,-218.341,6.482,-12.41,58.035,5.35,-62.624,-152.75,-20.573,48.172,36.514,17.465,4.788,-297.452,18.188,-32.918
3.779857500000162,-60.447,-3.512,-56.954,1.742,435.624,-259.886,-9.039,17.354,-20.575,-20.573,-71.566,-0.895,2.503,3.767,-208.901,15.185,-5.737,69.76,16.104,-53.852,-143.888,-9.282,58.37,49.285,27.694,16.566,-287.421,35.076,-20.59
3.779922700000043,-57.313,1.103,-55.873,7.888,443.386,-250.916,-10.054,23.484,-10.82,-10.306,-63.298,0.131,5.574,5.813,-200.496,15.682,-6.756,72.764,16.087,-48.675,-145.793,-10.297,61.897,48.724,27.666,14.501,-286.621,42.726,-17.495
3.794871100000364,-77.748,-15.292,-67.088,-15.686,422.45,-269.621,-13.63,3.48,-24.642,-26.178,-78.092,-14.726,-5.702,-3.414,-219.763,-4.313,-19.557,55.785,-2.884,-64.508,-166.652,-29.755,43.905,28.695,2.023,-1.395,-300.167,16.043,-37.458
3.7949366000002556,-84.843,-25.011,-69.07,-20.281,413.831,-282.159,-17.203,-5.232,-37.425,-33.836,-88.26,-21.372,-12.869,-12.12,-227.228,-15.067,-25.173,48.557,-11.59,-73.665,-174.17,-39.459,31.053,18.932,-5.663,-7.029,-304.477,7.318,-44.081
3.809866300000067,-78.098,-13.203,-60.291,-2.842,423.663,-269.069,-26.407,4.507,-27.654,-23.556,-79.974,-19.301,-9.27,-10.059,-214.193,-14.028,-22.586,50.558,-8.505,-68.98,-173.995,-36.346,34.608,23.012,4.076,-6.51,-302.636,18.069,-36.352
3.8248421000002963,-80.069,-3.456,-53.571,0.235,427.338,-259.579,-22.795,6.039,-23.527,-25.069,-75.796,-22.356,-9.261,-9.024,-216.028,-16.575,-22.051,46.409,-12.083,-73.01,-182.018,-39.383,33.037,22.476,-0.026,-9.577,-305.92,10.878,-34.266
3.8249007000003985,-77.427,-3.965,-53.518,-2.839,423.324,-262.905,-9.964,0.91,-30.164,-32.217,-80.843,-24.895,-14.887,-16.7,-220.422,-19.633,-27.665,41.752,-15.144,-78.06,-181.836,-43.954,25.831,18.868,-4.125,-9.568,-302.54,5.232,-32.695
3.8398659000004045,-68.128,-1.399,-50.903,4.848,422.389,-261.618,-15.59,1.421,-29.621,-31.16,-78.713,-22.308,-16.921,-19.757,-210.981,-19.101,-29.174,38.636,-12.568,-71.834,-176.531,-40.837,26.83,22.435,-0.534,-6.997,-290.454,11.887,-30.613
3.841612200000327,-71.134,-0.373,-48.29,3.306,419.917,-263.917,-29.919,-2.166,-30.616,-34.203,-74.536,-19.725,-18.441,-11.54,-211.794,-17.545,-22.485,41.159,-12.555,-68.176,-180.966,-39.259,25.266,23.95,-8.731,-6.477,-290.676,7.777,-35.706
3.8549097000000074,-77.723,-2.934,-51.828,-4.382,417.96,-267.752,-30.401,-6.775,-32.635,-33.656,-73.437,-14.582,-16.886,-6.406,-220.292,-13.429,-15.29,53.413,-8.444,-68.62,-180.785,-36.658,24.216,20.34,-16.407,-5.959,-297.558,2.646,-38.744
3.8549706000003425,-70.473,0.142,-51.264,5.869,422.153,-256.214,-25.76,5.527,-19.282,-21.327,-65.679,-4.833,-7.135,-4.862,-210.337,-4.706,-11.176,60.532,1.811,-62.916,-172.919,-25.863,36.488,24.93,-9.218,-0.83,-287.014,10.84,-34.094
3.870386200000212,-67.841,-0.882,-47.114,12.011,420.194,-249.297,-20.611,15.768,-16.189,-19.256,-63.052,-4.829,-2.517,0.266,-201.93,-5.214,-10.141,55.348,2.833,-61.829,-177.87,-25.325,39.525,26.954,-11.258,-3.903,-278.53,8.78,-33.548
3.8704483999999866,-83.655,-14.201,-56.288,-6.957,404.917,-264.93,-15.98,-1.154,-35.128,-31.533,-75.284,-17.631,-11.736,0.778,-216.073,-21.09,-17.303,48.633,-6.391,-71.501,-191.524,-41.693,26.678,15.144,-22.005,-16.706,-286.961,-6.086,-42.736
3.8849387000000206,-90.743,-22.384,-66.478,-17.196,393.753,-272.349,-22.111,-14.473,-39.704,-34.575,-78.283,-25.811,-18.384,-6.908,-225.591,-32.34,-25.995,46.535,-9.971,-73.991,-195.431,-47.799,24.602,10.518,-18.909,-18.739,-288.723,-9.153,-46.279
3.8849998000000596,-82.968,-18.263,-64.363,-10.519,395.921,-260.806,-30.286,-0.626,-25.832,-26.343,-68.47,-24.76,-15.292,-8.438,-216.656,-29.746,-24.944,48.538,-8.936,-69.306,-193.186,-42.628,29.188,18.705,-11.206,-12.06,-279.213,-1.972,-38.036
3.8999330000001464,-85.447,-18.757,-66.348,-15.631,392.964,-259.521,-27.182,2.961,-27.343,-26.317,-70.451,-25.248,-14.764,-6.892,-215.415,-31.765,-22.87,50.026,-10.976,-70.261,-196.579,-47.709,23.523,17.149,-10.682,-18.196,-283.544,-4.019,-34.412
3.90161100000023,-95.607,-26.936,-73.453,-22.276,384.886,-267.458,-21.519,-10.874,-39.611,-32.438,-79.09,-29.321,-20.897,-14.57,-225.445,-39.93,-25.921,47.927,-13.527,-75.314,-203.555,-54.321,19.401,9.447,-12.209,-26.887,-290.945,-10.163,-37.451
3.915015100000346,-91.925,-26.396,-68.257,-14.056,383.989,-263.604,-23.035,-10.351,-37.01,-32.406,-75.425,-28.779,-22.926,-18.142,-223.171,-38.866,-26.407,46.342,-11.977,-73.702,-203.351,-51.193,20.919,11.999,-14.758,-20.712,-282.97,-5.03,-34.852
3.915078800000174,-82.1,-15.099,-59.479,-8.407,386.679,-255.656,-26.598,-0.095,-30.313,-29.3,-69.202,-25.164,-17.267,-13.001,-212.189,-37.29,-26.381,44.759,-11.452,-68.505,-197.0,-46.531,23.46,18.647,-16.28,-11.47,-273.465,3.685,-28.67
3.9300538000002234,-79.968,-9.961,-60.445,-8.399,387.829,-253.351,-25.547,-1.119,-31.82,-29.27,-70.157,-24.115,-14.176,-15.549,-209.928,-37.765,-27.891,41.64,-12.465,-68.437,-194.242,-44.435,28.047,20.166,-13.19,-10.946,-275.241,3.681,-30.69
3.9301311000003807,-80.401,-14.049,-64.995,-6.341,388.978,-251.561,-26.034,-2.655,-29.739,-26.68,-67.525,-22.041,-15.187,-18.607,-214.328,-30.555,-24.277,41.599,-9.891,-69.905,-195.072,-42.342,29.556,17.584,-11.64,-14.009,-278.552,1.116,-38.344
3.9450056000000586,-79.296,-15.06,-65.442,-8.384,387.565,-253.871,-32.155,-2.652,-24.586,-22.042,-62.847,-16.896,-12.098,-9.88,-213.089,-25.914,-18.105,41.557,-8.857,-65.737,-193.34,-42.812,24.915,13.468,-13.677,-14.508,-275.712,-0.422,-42.917
3.945065700000214,-77.167,-11.459,-64.352,-8.375,385.64,-255.154,-32.635,-7.261,-26.61,-22.532,-63.296,-12.781,-8.499,-5.259,-207.753,-28.449,-16.55,35.88,-10.385,-64.134,-193.659,-43.281,23.866,11.918,-15.713,-11.931,-269.801,-1.959,-42.361
3.9599754000000758,-72.479,-8.374,-61.726,1.367,390.377,-247.214,-28.504,-5.716,-28.633,-22.51,-64.77,-11.743,-12.077,-5.766,-204.472,-21.761,-14.997,34.82,-6.788,-65.095,-193.465,-37.09,26.404,14.979,-16.21,-8.333,-263.383,3.166,-36.684
3.961805600000389,-70.87,-5.291,-59.615,3.927,392.549,-243.893,-29.5,3.511,-25.018,-19.414,-64.193,-14.293,-14.114,-2.174,-204.78,-19.69,-11.396,42.982,-2.683,-62.468,-190.198,-32.442,24.84,12.915,-12.607,-5.764,-260.046,9.311,-31.524
3.975046700000348,-78.484,-11.434,-64.679,-9.397,378.324,-252.359,-31.52,-0.079,-31.141,-24.517,-67.715,-21.964,-16.149,-6.783,-207.649,-38.113,-17.532,40.89,-11.39,-68.041,-194.619,-41.631,17.643,4.705,-14.644,-7.807,-265.421,-0.432,-36.103
3.975106300000334,-86.602,-25.255,-74.348,-22.708,362.064,-254.668,-35.075,-11.862,-40.331,-33.714,-78.918,-34.237,-25.867,-20.608,-213.076,-53.444,-33.396,26.504,-20.088,-78.219,-205.695,-52.348,11.478,-4.009,-24.363,-17.533,-273.865,-17.85,-47.85
3.990147900000011,-84.978,-27.279,-73.249,-20.636,360.677,-251.339,-41.187,-14.411,-37.729,-33.168,-82.938,-40.35,-30.452,-21.612,-217.986,-52.879,-34.9,25.453,-14.432,-75.579,-206.514,-47.173,16.077,-5.541,-22.289,-22.126,-276.153,-18.857,-49.339
3.990211300000283,-82.332,-21.616,-64.467,-13.955,363.39,-257.236,-42.683,-11.835,-36.667,-31.086,-79.269,-38.261,-26.835,-19.029,-217.768,-53.85,-25.131,35.161,-10.832,-70.893,-201.697,-39.953,23.746,1.636,-10.484,-14.42,-274.34,-11.154,-40.068
4.005514100000255,-91.471,-27.742,-65.939,-20.089,355.342,-261.589,-48.276,-18.996,-44.315,-37.715,-84.825,-40.272,-30.395,-27.207,-216.526,-59.432,-34.327,32.052,-15.944,-77.994,-202.519,-47.086,19.111,3.172,-12.011,-14.405,-279.701,-18.827,-40.028
4.005575800000315,-96.503,-35.399,-73.558,-27.753,348.327,-257.229,-55.4,-26.149,-44.783,-41.775,-90.375,-44.842,-33.438,-31.278,-217.846,-57.835,-47.101,19.213,-16.44,-77.404,-204.366,-54.211,10.895,-5.028,-16.609,-24.637,-288.643,-28.03,-46.136
4.020137100000284,-88.209,-31.265,-70.923,-23.627,356.688,-252.361,-36.901,-19.975,-36.541,-34.049,-78.502,-30.965,-22.646,-20.488,-213.018,-47.019,-36.807,19.193,-11.301,-68.105,-202.113,-47.497,11.909,-3.486,-11.982,-22.051,-290.403,-19.805,-38.918
