Timestamp,Cz,Fz,Fp1,F3,C1,C3,T7,C5,CP5,CP3,CP1,P1,P3,O1,CPz,Pz,Oz,O2,P4,P2,CP2,CP4,CP6,C6,T8,C4,C2,F4,Fp2
0.0,-17.097,-20.309,-22.791,12.495,0.785,6.714,-39.045,-1.092,1.07,-7.292,-11.482,-13.945,-10.59,-13.741,-5.625,-44.586,-19.493,8.12,-24.631,-13.066,-2.861,-25.168,-20.281,-28.265,-26.628,-25.637,70.468,-27.671,26.484
6.480000001829467e-05,-26.813,-27.973,-30.453,3.774,-15.61,-4.052,-41.055,-13.387,-6.615,-20.604,-24.79,-24.177,-21.85,-19.362,-14.841,-54.788,-27.158,-0.597,-32.803,-22.786,-6.444,-31.291,-26.408,-33.872,-32.749,-31.759,63.738,-33.791,22.36
0.014853799999855255,-37.033,-31.019,-34.521,-5.452,-21.23,-14.806,-40.502,-26.181,-13.269,-24.682,-35.524,-34.911,-28.488,-27.54,-25.584,-68.566,-26.619,-7.769,-34.819,-26.35,-11.049,-31.259,-25.869,-32.814,-24.519,-30.19,52.915,-33.245,20.8
0.029834800000116957,-27.774,-24.328,-22.703,4.8,-8.913,-15.816,-36.363,-24.618,-14.792,-24.657,-31.39,-32.315,-27.947,-31.099,-24.022,-64.911,-24.543,-4.687,-28.637,-20.176,-10.013,-25.08,-14.573,-19.461,-13.736,-21.451,59.01,-21.429,31.538
0.029912399999830086,-21.086,-17.131,-12.434,15.554,-8.904,-9.14,-35.302,-18.445,-10.679,-24.12,-27.772,-28.696,-24.845,-28.506,-14.776,-58.186,-24.006,1.465,-22.973,-19.643,-3.343,-20.445,-8.411,-9.708,-9.111,-14.257,73.808,-12.698,39.703
0.044824099999914324,-29.262,-15.065,-15.496,11.44,-17.605,-6.569,-35.266,-19.452,-9.644,-20.51,-30.818,-32.254,-25.845,-25.404,-11.175,-64.275,-25.007,3.513,-23.462,-24.234,-4.877,-20.424,-11.988,-14.309,-9.102,-15.267,74.759,-15.247,37.102
0.04488480000009076,-33.331,-21.198,-23.165,7.842,-16.05,-10.149,-34.719,-21.481,-12.196,-23.051,-32.837,-36.832,-28.381,-30.501,-21.41,-71.896,-32.154,-0.077,-29.586,-26.772,-12.556,-25.014,-18.636,-21.467,-12.679,-22.424,68.024,-24.453,29.38
0.05986620000021503,-31.761,-26.3,-24.679,7.834,-9.886,-9.114,-34.684,-19.411,-8.085,-25.59,-30.755,-36.795,-24.766,-33.032,-27.024,-70.287,-38.27,-3.663,-31.606,-24.183,-12.031,-26.526,-19.642,-20.933,-15.228,-24.963,65.907,-28.015,24.74
0.059932499999831634,-29.168,-23.712,-20.555,7.826,-4.753,-5.519,-31.576,-15.293,-2.954,-17.879,-25.089,-31.123,-16.032,-25.315,-16.751,-63.044,-32.084,-2.122,-25.939,-19.548,-5.872,-20.352,-12.45,-16.814,-13.676,-22.377,67.89,-20.302,27.277
0.0749562999999398,-20.429,-17.54,-15.924,16.528,4.985,-5.513,-31.544,-8.105,2.172,-11.202,-15.842,-21.358,-11.918,-22.216,-11.099,-54.272,-23.855,5.052,-20.278,-14.918,-3.817,-13.159,-6.29,-9.625,-11.613,-16.719,74.482,-12.085,33.397
0.07502079999994749,-14.261,-11.887,-14.884,25.22,13.177,-1.922,-31.512,-1.437,9.342,-9.653,-10.191,-13.652,-10.881,-26.804,-13.137,-44.996,-21.782,11.195,-17.696,-11.829,-2.276,-8.536,-6.796,-3.467,-10.065,-11.067,82.092,-11.048,35.413
0.09026829999993424,-14.759,-10.851,-21.016,22.121,17.262,1.154,-24.309,-3.485,8.821,-8.107,-10.693,-12.102,-8.821,-24.728,-7.488,-41.365,-19.711,7.597,-17.678,-10.793,-0.737,-9.039,-8.326,-8.075,-11.079,-13.617,83.547,-13.599,31.279
0.09033099999987826,-12.183,-11.865,-22.02,19.538,22.368,-0.896,-25.821,-3.994,4.713,-9.636,-10.17,-13.114,-10.862,-18.043,-5.944,-40.811,-13.031,7.077,-19.71,-12.319,-1.248,-9.543,-8.318,-10.628,-13.63,-16.678,82.951,-12.56,31.248
0.10491300000012416,-8.072,-6.217,-12.264,24.129,24.395,2.691,-35.017,2.67,10.344,-7.577,-9.135,-12.589,-13.925,-15.976,-12.086,-38.721,-9.432,15.78,-19.69,-12.819,-0.735,-6.972,-6.773,-3.445,-8.493,-10.001,87.479,-10.499,40.951
0.10497110000005705,-14.212,-6.211,-9.178,22.568,14.125,2.688,-30.371,-1.943,7.26,-7.569,-15.274,-18.724,-16.985,-20.571,-13.611,-46.88,-13.009,15.764,-22.232,-13.318,-5.857,-14.649,-10.864,-5.491,-3.874,-12.04,90.978,-14.587,45.521
0.12006060000021535,-24.956,-20.037,-13.78,14.348,-0.234,-10.122,-24.705,-18.847,-9.141,-21.394,-27.042,-31.513,-24.652,-26.186,-16.671,-60.665,-18.631,3.965,-29.894,-19.965,-14.56,-26.93,-17.514,-18.293,-12.067,-25.348,86.788,-23.794,35.229
0.12013579999984358,-29.03,-26.677,-11.717,11.772,-6.894,-15.235,-38.001,-23.439,-12.206,-30.594,-32.138,-34.043,-31.288,-28.209,-19.728,-63.678,-20.661,0.375,-32.426,-24.556,-15.058,-24.341,-15.447,-20.836,-18.202,-26.347,74.406,-28.381,30.071
0.1350428999999167,-25.927,-19.478,-8.119,13.81,-4.838,-6.511,-49.746,-14.194,-5.021,-23.391,-28.519,-28.886,-29.207,-26.644,-17.147,-63.615,-20.129,4.985,-28.807,-19.921,-12.994,-17.657,-12.87,-15.692,-14.598,-20.686,55.377,-25.791,36.7
0.13510859999996683,-21.802,-17.41,-10.672,15.845,2.852,-4.967,-42.524,-11.619,-4.504,-17.732,-23.88,-28.345,-23.03,-27.129,-18.154,-63.551,-21.133,3.956,-26.729,-16.827,-14.518,-18.664,-17.98,-16.189,-14.071,-21.69,42.001,-26.277,35.639
0.15004600000020218,-25.879,-25.589,-16.809,9.682,5.41,-9.573,-33.26,-16.73,-3.475,-17.715,-22.319,-26.267,-20.958,-27.614,-19.673,-57.852,-22.136,-0.659,-27.215,-21.421,-14.503,-21.207,-18.987,-19.759,-19.692,-23.717,41.959,-34.96,25.357
0.15011219999996683,-37.636,-39.908,-30.112,-11.332,-7.403,-15.711,-39.374,-20.812,-6.545,-19.234,-26.908,-24.192,-23.498,-24.001,-18.629,-58.819,-26.213,-2.708,-33.335,-24.473,-18.075,-26.309,-22.042,-25.887,-24.796,-30.353,41.405,-49.782,14.574
0.16503310000007332,-40.16,-49.602,-42.89,-22.592,-20.203,-24.405,-53.679,-24.377,-16.273,-26.387,-33.541,-28.778,-24.5,-21.927,-23.221,-65.932,-30.285,-2.193,-38.937,-23.936,-26.254,-33.455,-33.29,-33.033,-28.869,-38.52,33.679,-58.954,3.288
0.16509210000003804,-30.899,-40.843,-34.138,-6.688,-16.597,-20.282,-55.163,-25.377,-13.183,-26.873,-29.409,-25.675,-19.352,-19.344,-18.587,-58.694,-21.546,2.42,-33.263,-20.839,-22.641,-28.811,-30.183,-29.414,-28.841,-30.797,39.793,-51.21,4.31
0.1806218000001536,-22.671,-23.384,-1.828,11.762,-13.506,-6.942,-47.423,-19.204,-3.436,-19.161,-19.133,-16.941,-15.234,-13.177,-4.224,-47.365,-10.253,8.053,-26.057,-14.67,-12.885,-20.585,-16.321,-20.163,-21.639,-17.958,49.999,-31.179,32.994
0.18069139999988693,-13.939,-11.578,30.961,21.484,-18.616,-0.787,-47.375,-10.988,-0.358,-16.581,-17.577,-18.461,-17.268,-13.676,-1.658,-50.391,-12.292,5.484,-27.568,-11.582,-11.335,-18.515,-13.743,-16.557,-12.909,-16.916,24.334,-16.803,65.749
0.19510189999982686,-4.191,-3.369,46.3,31.709,-20.134,5.362,-45.791,-9.44,3.741,-14.515,-18.072,-23.565,-19.3,-20.835,-1.656,-55.464,-18.94,-4.256,-28.053,-14.644,-11.324,-17.472,-17.315,-17.053,-10.334,-17.924,-7.966,-13.2,79.516
0.19516900000007809,-8.798,-5.415,40.106,25.017,-26.262,7.405,-32.938,-19.165,3.225,-15.013,-17.029,-26.103,-21.842,-23.888,1.932,-58.482,-23.019,-11.424,-30.074,-18.728,-10.288,-20.528,-19.859,-19.085,-15.959,-18.93,-10.519,-15.749,67.653
0.21011799999996583,-18.523,-14.119,31.868,3.987,-34.945,-5.922,-29.318,-26.318,-6.513,-22.17,-22.135,-30.688,-24.894,-24.888,-2.681,-64.059,-28.119,-9.875,-34.655,-19.734,-14.888,-24.094,-20.352,-20.09,-18.505,-21.985,7.934,-18.294,62.462
0.22551160000011805,-10.82,-11.031,30.3,9.619,-29.274,-5.404,-37.486,-15.533,-4.457,-17.537,-19.552,-25.022,-19.234,-23.839,-1.141,-58.36,-27.579,-4.742,-28.985,-16.128,-9.75,-13.824,-11.622,-11.873,-11.314,-15.303,9.975,-13.153,70.085
0.22557770000003075,-1.587,-6.921,25.146,27.028,-25.659,14.069,-41.547,-2.197,5.794,-6.761,-7.749,-13.214,-12.555,-21.766,9.106,-47.543,-22.941,-3.713,-18.71,-9.964,2.043,-3.051,-3.926,-4.689,-8.741,-5.554,11.502,-10.578,68.478
0.24016309999979057,-11.319,-15.624,17.437,13.168,-37.416,13.031,-46.116,-8.343,-0.36,-11.877,-9.79,-18.323,-16.128,-27.379,7.047,-51.081,-25.479,-7.296,-19.203,-8.929,-2.57,-7.659,-8.021,-10.832,-12.831,-10.672,19.688,-21.839,60.212
0.24184550000018135,-20.017,-22.268,15.37,-3.751,-41.99,-0.815,-49.144,-19.605,-9.581,-19.038,-19.514,-27.014,-22.26,-31.963,1.405,-56.666,-28.528,-7.288,-22.77,-11.994,-11.789,-14.824,-13.648,-17.481,-12.818,-18.858,18.131,-29.501,57.59
0.25522300000011455,-16.923,-22.758,12.281,3.937,-33.238,-0.302,-47.046,-17.537,-7.01,-14.92,-16.933,-21.352,-22.238,-27.32,2.428,-50.461,-22.351,-2.158,-23.26,-12.495,-9.216,-15.834,-19.782,-16.952,-16.391,-17.814,15.039,-27.935,53.947
0.2552872999999636,-19.468,-26.321,9.195,7.52,-30.131,-0.814,-54.171,-15.982,-5.466,-13.881,-14.867,-17.744,-20.679,-21.145,-4.746,-47.337,-17.718,2.455,-27.335,-15.044,-12.793,-20.428,-28.471,-24.619,-28.158,-22.92,15.537,-33.542,51.331
0.27023959999996805,-25.596,-26.295,10.722,4.438,-27.54,-6.96,-66.924,-21.089,-6.485,-17.453,-16.902,-19.776,-21.17,-18.562,-9.865,-50.363,-18.213,4.502,-30.382,-19.127,-23.026,-27.068,-28.955,-32.279,-31.204,-30.581,17.57,-42.73,50.255
0.27030180000019755,-24.034,-23.707,11.224,15.192,-20.852,-6.441,-63.271,-20.043,-5.966,-16.411,-15.348,-17.195,-21.149,-15.47,-1.658,-48.776,-16.145,6.547,-28.814,-20.645,-19.417,-28.066,-25.852,-25.587,-24.512,-27.477,41.631,-40.126,45.082
0.28520380000009027,-26.571,-29.831,2.503,8.517,-25.442,-12.07,-56.036,-23.097,-12.108,-20.493,-23.017,-24.862,-25.226,-15.455,-6.267,-52.314,-14.08,5.515,-35.958,-24.723,-17.348,-31.624,-30.95,-25.561,-24.488,-27.449,70.279,-42.135,40.938
0.28526479999982257,-38.328,-37.486,-10.307,-18.132,-38.224,-25.378,-63.152,-37.419,-21.83,-32.768,-39.9,-41.231,-32.886,-16.976,-23.167,-66.606,-15.603,1.411,-46.168,-33.919,-30.139,-39.789,-36.042,-36.294,-27.537,-35.619,66.11,-51.827,37.824
0.3002182999998695,-40.339,-32.838,-13.37,-13.503,-37.674,-24.328,-74.36,-37.894,-17.709,-34.272,-40.885,-38.116,-31.316,-15.934,-22.119,-69.613,-15.587,3.972,-40.999,-33.373,-33.182,-35.651,-27.809,-29.598,-19.825,-30.972,54.773,-47.677,35.224
0.3021342000001823,-30.565,-22.046,-3.111,12.126,-23.291,-12.521,-76.847,-18.388,-7.445,-23.479,-27.524,-24.758,-21.551,-14.382,-9.802,-58.273,-15.059,14.214,-28.662,-23.606,-20.342,-20.758,-14.461,-13.687,-10.584,-18.134,64.452,-35.846,42.361
0.3152383000001464,-28.997,-23.049,0.478,5.454,-18.657,-10.459,-66.012,-16.833,-8.463,-19.357,-21.861,-25.245,-18.968,-16.929,-11.841,-53.604,-18.118,12.663,-27.097,-21.021,-16.735,-19.713,-13.934,-15.21,-11.086,-19.653,67.462,-37.347,45.393
0.3302898000001733,-30.505,-28.661,-7.207,-8.384,-24.786,-17.108,-50.064,-29.111,-13.577,-21.9,-25.425,-26.245,-23.047,-19.986,-14.903,-53.038,-17.076,6.502,-26.557,-21.512,-17.743,-22.255,-16.482,-16.732,-12.611,-23.219,63.296,-41.408,35.101
0.33035229999995863,-22.278,-17.874,-3.101,10.58,-19.639,-12.481,-46.94,-19.348,-6.904,-15.218,-19.765,-16.485,-18.926,-16.892,-4.642,-42.226,-10.398,14.18,-17.309,-12.269,-3.893,-5.838,-2.633,-2.883,-5.426,-10.388,75.015,-28.559,43.263
0.3303937999999107,-13.034,-1.462,8.173,24.914,-8.348,0.34,-53.041,-6.009,1.3,-5.981,-8.474,-12.37,-12.759,-15.338,2.535,-32.963,-10.9,18.265,-12.681,-6.109,7.894,3.901,7.103,3.78,0.727,1.405,85.699,-16.235,60.638
0.34635190000017246,-14.045,-6.584,2.529,9.008,-16.024,0.339,-51.963,-18.298,-2.287,-7.512,-11.539,-16.456,-16.332,-20.958,-1.054,-35.491,-15.5,10.049,-16.767,-11.226,0.202,-6.861,-5.711,-5.445,-2.86,-3.719,83.564,-24.928,53.405
0.3603720000000976,-16.08,-16.311,-4.133,6.95,-28.816,-5.809,-50.374,-23.403,-7.92,-12.115,-17.163,-15.415,-18.878,-17.863,-3.614,-37.505,-14.46,11.064,-18.799,-15.826,-7.483,-11.465,-11.341,-14.149,-9.517,-11.912,85.53,-36.686,44.643
0.3604352000002109,-15.04,-9.635,1.506,23.849,-28.787,-0.68,-60.57,-10.572,-2.789,-7.492,-10.486,-14.887,-16.297,-11.698,-1.049,-35.93,-14.958,14.127,-19.293,-14.273,-3.89,-10.429,-6.207,-15.672,-15.143,-12.925,86.981,-32.551,51.258
0.36211009999988164,-20.148,-8.601,-0.032,18.702,-37.98,0.345,-63.071,-12.098,-0.737,-5.948,-13.549,-19.483,-17.306,-18.858,-2.073,-39.481,-23.14,3.867,-25.421,-15.796,-5.423,-19.128,-15.422,-17.193,-21.788,-17.011,81.771,-32.518,45.059
0.3753938999998354,-28.325,-21.4,-7.717,0.752,-53.311,-7.852,-45.077,-23.357,-6.884,-16.188,-23.782,-23.562,-18.313,-25.499,-7.194,-45.077,-27.215,-4.847,-31.544,-25.001,-12.59,-25.256,-25.14,-22.299,-24.84,-24.678,81.689,-43.757,33.231
0.3754573999999593,-29.321,-22.915,-6.684,7.412,-51.721,-5.795,-33.761,-18.211,-4.828,-17.709,-20.172,-22.514,-16.245,-20.863,-5.65,-46.568,-25.651,-3.305,-33.561,-28.562,-10.015,-23.694,-20.505,-26.887,-23.791,-23.629,84.169,-46.275,35.247
0.39039229999980307,-29.292,-19.306,-3.092,17.65,-46.034,-2.203,-48.072,-8.459,2.349,-6.933,-17.59,-19.93,-15.204,-17.768,-1.546,-47.034,-24.601,0.797,-33.015,-23.411,-4.882,-23.67,-18.947,-23.787,-24.279,-20.019,79.986,-43.667,38.285
0.4052765999999792,-38.484,-28.509,-6.675,4.313,-51.623,-9.885,-55.196,-11.012,-0.727,-8.463,-25.77,-22.984,-17.238,-17.751,-10.253,-48.012,-25.089,6.944,-31.445,-23.387,-9.488,-23.647,-22.002,-20.177,-27.329,-24.098,78.369,-52.845,31.587
0.4053374999998596,-46.642,-35.652,-9.742,-5.938,-55.67,-11.925,-41.821,-18.173,-7.899,-19.213,-29.33,-30.133,-20.295,-19.27,-18.952,-52.574,-27.625,4.888,-32.439,-28.999,-13.577,-24.648,-21.468,-24.767,-27.814,-27.66,79.316,-60.476,25.92
0.42023909999988973,-39.423,-29.981,-4.097,6.364,-54.59,-7.814,-42.804,-18.155,-4.817,-16.632,-26.739,-31.64,-23.349,-23.861,-11.249,-53.546,-29.134,-1.777,-32.919,-25.897,-7.928,-24.111,-19.397,-23.206,-22.663,-23.534,82.31,-53.756,30.505
0.4202971999998226,-27.601,-23.804,3.08,13.529,-52.998,-8.319,-54.544,-12.501,-0.714,-8.931,-22.614,-23.923,-19.227,-22.813,-2.016,-44.784,-23.982,5.397,-25.201,-20.748,0.789,-14.865,-10.668,-11.399,-15.98,-18.387,92.986,-45.505,40.721
0.43530409999993935,-28.086,-23.78,2.052,4.294,-48.847,-6.773,-45.78,-15.05,-4.812,-9.946,-19.005,-20.313,-15.109,-19.716,-3.551,-38.079,-18.835,12.051,-20.565,-20.727,2.837,-11.776,-6.047,-9.339,-13.915,-17.344,98.016,-46.484,41.705
0.4353676999999152,-31.131,-25.805,-2.561,3.778,-43.163,-2.156,-38.562,-18.621,-5.319,-11.473,-23.085,-23.879,-18.68,-22.77,-7.133,-42.139,-22.915,5.892,-29.254,-20.706,-1.776,-19.962,-14.238,-17.014,-14.413,-18.863,90.234,-49.512,37.052
0.4503743999998733,-26.489,-21.681,-1.534,15.045,-34.41,-2.154,-46.721,-9.894,1.346,-10.437,-24.086,-24.368,-20.198,-22.748,-6.102,-44.146,-25.453,5.374,-34.347,-22.735,-3.824,-20.966,-17.81,-17.509,-16.448,-18.845,87.582,-46.901,39.577
0.4504369000001134,-22.877,-16.536,5.64,15.03,-27.716,-3.176,-42.576,-6.298,2.882,-12.476,-16.89,-20.757,-19.154,-19.651,-6.608,-40.516,-25.428,4.344,-32.264,-29.372,-4.332,-19.408,-15.743,-14.93,-20.53,-19.338,90.056,-43.268,42.611
0.46575140000004467,-26.44,-20.106,10.245,10.404,-32.299,-3.173,-34.336,-16.025,-0.195,-12.464,-17.898,-20.736,-20.159,-22.193,-9.163,-42.013,-28.476,-0.784,-36.842,-30.879,-5.352,-28.098,-20.338,-19.014,-24.096,-24.442,87.404,-45.786,41.544
0.4658089999998083,-26.926,-20.598,9.723,18.59,-37.902,-0.608,-46.085,-10.886,2.879,-8.353,-20.441,-21.228,-16.04,-22.171,-6.592,-44.02,-29.472,5.365,-39.367,-28.799,-3.298,-29.095,-21.854,-20.532,-23.047,-25.442,90.391,-45.74,45.601
0.48035399999980655,-26.387,-15.967,7.152,23.695,-39.401,1.954,-57.31,-4.215,3.389,-8.857,-17.859,-23.256,-15.512,-20.099,-2.487,-46.025,-28.931,8.945,-36.766,-31.332,-4.319,-23.43,-22.345,-19.486,-24.561,-21.83,94.399,-43.133,46.58
0.48041079999984504,-34.557,-22.611,-0.028,9.327,-46.534,-6.245,-54.178,-24.191,-7.373,-18.069,-25.526,-30.917,-26.767,-25.202,-8.632,-56.225,-38.636,-5.92,-46.976,-38.985,-14.049,-33.141,-31.544,-25.615,-33.758,-27.444,87.132,-53.848,33.213
0.49547450000000026,-39.646,-32.834,-10.786,1.12,-51.61,-10.337,-49.513,-30.827,-8.903,-19.588,-31.648,-34.473,-29.302,-28.763,-17.845,-59.755,-44.232,-11.55,-53.076,-40.996,-18.133,-39.768,-37.66,-29.175,-36.798,-32.027,86.533,-67.114,23.958
0.49553729999979623,-31.921,-30.752,-12.825,8.292,-48.997,3.505,-48.439,-8.254,0.328,-8.81,-20.858,-28.29,-20.051,-23.099,-11.68,-47.4,-35.991,-0.78,-37.142,-30.196,-7.357,-26.92,-31.475,-20.949,-31.638,-25.848,94.131,-62.949,26.496
0.510451600000124,-31.89,-31.746,-7.689,1.111,-56.121,4.526,-50.952,-11.32,-3.771,-9.826,-20.837,-25.701,-20.031,-21.539,-7.569,-39.668,-33.906,-0.267,-29.42,-23.506,-0.689,-20.233,-23.759,-17.342,-33.143,-25.309,89.426,-61.861,25.957
0.5105152999999518,-43.641,-39.911,-8.193,-16.309,-60.675,-13.921,-56.537,-34.362,-14.526,-23.136,-34.136,-31.823,-26.671,-27.665,-18.833,-44.751,-40.02,-7.951,-38.1,-31.167,-6.836,-27.898,-23.735,-21.935,-37.721,-30.919,82.677,-73.582,23.882
0.5254611000000295,-43.085,-34.748,-10.234,-8.608,-47.807,-9.809,-52.894,-27.668,-9.388,-21.576,-32.565,-30.254,-25.108,-29.174,-19.326,-45.219,-34.344,-5.894,-36.525,-33.185,-9.391,-28.382,-27.297,-18.327,-35.634,-26.278,87.717,-69.41,30.006
0.5255169000001843,-38.943,-28.054,-6.126,6.77,-44.173,0.447,-44.132,-16.882,-4.256,-14.894,-28.434,-26.637,-23.033,-24.022,-9.061,-44.661,-25.601,-2.302,-32.902,-30.078,-8.357,-26.304,-26.245,-15.235,-36.111,-24.715,87.629,-59.095,34.586
0.5404585999999654,-50.175,-40.321,-13.292,-7.069,-58.473,-14.922,-48.699,-29.673,-13.473,-22.564,-40.189,-34.808,-27.621,-23.998,-18.785,-54.35,-29.161,-11.521,-44.14,-39.782,-15.009,-36.012,-28.781,-23.417,-42.222,-34.424,78.832,-71.843,23.281
0.5405187999999725,-54.736,-47.965,-27.111,-26.017,-60.976,-22.08,-55.31,-31.18,-12.947,-25.615,-44.247,-39.896,-28.618,-28.073,-31.574,-58.907,-32.718,-18.17,-46.145,-44.865,-17.555,-39.562,-35.412,-24.418,-38.082,-33.877,77.217,-81.505,11.987
0.5555509999999231,-45.459,-37.671,-19.912,-21.893,-48.62,-9.762,-46.545,-16.292,-1.151,-17.393,-35.494,-28.585,-22.442,-23.946,-23.346,-48.602,-27.05,-5.856,-33.803,-34.574,-9.853,-26.715,-25.13,-11.074,-26.261,-24.622,84.312,-65.542,24.27
0.5556200000000899,-47.463,-36.609,-7.596,-16.748,-46.522,-14.363,-40.863,-16.276,-2.687,-21.474,-35.971,-28.557,-21.907,-19.311,-20.249,-45.992,-23.949,0.81,-34.794,-37.101,-12.917,-26.688,-14.347,-6.964,-24.185,-27.158,87.301,-53.181,37.566
0.5705492000001868,-58.174,-49.38,-26.544,-23.903,-60.308,-24.083,-52.093,-25.993,-13.443,-31.186,-46.181,-43.897,-30.594,-25.952,-34.061,-62.34,-31.098,-10.974,-48.079,-49.359,-26.736,-45.617,-31.239,-18.228,-32.87,-35.328,80.042,-62.35,20.11
0.5706143000002157,-58.628,-52.917,-53.158,-22.855,-69.469,-12.276,-60.238,-27.504,-13.942,-29.618,-49.721,-47.44,-34.15,-32.586,-38.125,-70.986,-38.239,-12.5,-47.007,-46.748,-29.783,-48.645,-41.453,-25.894,-42.571,-35.293,69.715,-68.947,-2.452
0.585937400000148,-52.934,-47.741,-50.543,-11.049,-59.666,-3.554,-54.03,-23.89,-8.292,-23.441,-40.449,-38.171,-26.943,-29.992,-27.328,-58.62,-35.127,-2.241,-34.664,-38.505,-22.581,-33.739,-28.092,-23.819,-45.602,-32.696,69.646,-61.706,-2.961
0.5859997000002295,-50.32,-45.644,-41.783,-12.062,-49.872,-7.137,-49.878,-23.867,-5.723,-21.368,-32.212,-33.522,-20.769,-25.864,-22.178,-49.852,-31.505,-1.215,-28.482,-33.856,-16.923,-30.632,-26.015,-23.283,-44.532,-29.59,78.285,-56.009,-1.934
0.6006170000000566,-49.757,-40.475,-47.889,-23.321,-52.384,-3.031,-49.828,-24.355,-4.18,-19.298,-35.254,-29.39,-17.674,-22.252,-22.156,-50.315,-35.572,1.86,-24.867,-26.649,-11.783,-30.089,-29.063,-22.747,-45.512,-24.437,84.867,-53.391,-7.055
0.6155133000002024,-44.072,-32.238,-49.89,-17.15,-46.696,4.656,-41.069,-18.183,-0.077,-12.618,-32.657,-23.213,-12.021,-17.106,-18.035,-41.043,-35.025,13.642,-17.67,-21.5,-6.136,-17.763,-18.787,-15.552,-41.881,-21.851,89.905,-42.58,-0.388
0.6172775999998521,-33.269,-27.595,-46.254,-0.739,-35.379,6.189,-32.319,-7.919,6.071,-6.458,-20.841,-20.116,-8.423,-14.528,-9.308,-31.78,-29.354,17.214,-15.603,-21.478,-1.007,-15.184,-17.744,-12.975,-34.154,-21.317,95.963,-32.291,4.736
0.6306853000000956,-31.187,-26.03,-49.794,-5.349,-42.003,5.67,-40.483,-10.472,6.577,-12.599,-24.406,-23.682,-13.025,-17.587,-8.274,-41.482,-33.423,10.537,-22.248,-23.506,-2.031,-26.952,-25.923,-20.647,-35.657,-21.808,95.355,-38.919,-1.417
0.6307507000001351,-42.427,-30.615,-53.843,-19.688,-57.331,0.541,-51.201,-24.806,-2.139,-24.37,-40.776,-34.929,-21.209,-25.254,-19.024,-57.835,-40.562,6.94,-27.349,-29.63,-13.299,-33.585,-27.946,-25.749,-44.843,-29.471,89.112,-48.101,-5.514
0.6456932999999481,-48.02,-36.22,-54.301,-19.156,-63.421,-6.631,-50.638,-31.442,-9.309,-27.931,-44.321,-44.628,-26.823,-30.864,-26.69,-63.925,-38.985,5.909,-29.37,-33.187,-18.921,-38.162,-33.554,-26.748,-44.286,-38.663,83.387,-47.028,-4.996
0.6457546999999977,-43.361,-34.646,-57.833,-17.088,-65.407,-9.699,-51.099,-31.922,-8.275,-29.44,-42.228,-45.095,-27.309,-27.759,-24.102,-65.91,-36.896,6.415,-31.903,-30.08,-13.779,-42.223,-38.131,-29.283,-39.118,-38.112,74.082,-46.981,-5.503
0.6606664000000819,-44.854,-33.587,-57.775,-23.219,-65.854,-12.763,-56.171,-36.501,-9.804,-36.583,-48.333,-44.538,-28.306,-22.096,-24.078,-68.918,-39.933,8.458,-34.945,-30.562,-13.766,-43.205,-36.044,-29.254,-42.665,-37.049,58.639,-48.984,-4.473
0.6607270999998036,-48.908,-36.627,-52.594,-22.171,-61.177,-12.75,-55.603,-34.928,-12.868,-38.084,-50.846,-49.104,-30.327,-23.611,-28.664,-68.337,-44.504,7.425,-37.471,-33.605,-16.313,-45.211,-39.594,-28.712,-47.746,-41.11,51.92,-45.861,-0.883
0.6756439999999202,-42.199,-31.98,-48.956,-14.976,-57.53,-2.491,-49.399,-22.085,-5.683,-29.849,-45.672,-48.03,-28.76,-26.149,-23.512,-64.17,-42.41,6.905,-35.897,-29.473,-9.637,-43.629,-40.066,-29.196,-44.112,-39.532,59.553,-41.204,3.729
0.6775250000000597,-37.546,-27.337,-46.345,-13.424,-56.96,2.122,-35.518,-13.866,-0.554,-22.647,-42.553,-40.81,-25.145,-22.537,-16.829,-60.519,-35.708,8.947,-32.275,-25.857,-6.554,-35.901,-31.83,-26.093,-38.432,-35.394,68.203,-38.089,6.287
0.6907701000000088,-39.045,-29.359,-43.225,-8.8,-52.805,-4.54,-28.822,-14.877,-4.652,-22.112,-37.9,-35.134,-22.046,-22.002,-19.374,-58.41,-35.672,9.451,-29.681,-25.832,-5.01,-34.328,-32.31,-22.481,-37.369,-34.334,70.184,-34.977,6.281
0.690838900000017,-29.785,-26.256,-39.083,-1.619,-41.993,-1.974,-41.089,-12.301,-1.573,-20.04,-27.616,-28.951,-16.388,-24.541,-17.817,-48.617,-37.686,9.954,-22.991,-19.658,9.34,-27.633,-29.204,-14.773,-33.233,-26.103,71.65,-30.844,13.959
0.7048206999998001,-17.972,-18.545,-34.433,-3.154,-33.242,5.713,-42.585,-7.165,7.65,-10.286,-18.879,-18.676,-10.224,-18.369,-9.09,-35.249,-31.501,12.505,-14.771,-12.978,21.626,-10.7,-12.268,-5.025,-22.954,-15.831,73.116,-25.69,23.166
0.7048813000001246,-18.979,-21.088,-35.424,-4.176,-34.746,2.633,-29.222,-13.306,4.056,-9.764,-16.811,-15.071,-10.214,-13.228,-6.52,-32.652,-28.395,12.493,-14.757,-12.965,18.018,-11.201,-9.695,-7.069,-20.882,-21.963,65.87,-26.177,18.02
0.7202068999999938,-27.669,-31.313,-45.122,-5.709,-45.469,-7.103,-38.927,-26.612,-7.731,-24.099,-24.991,-27.864,-18.401,-20.387,-13.685,-42.353,-35.027,7.87,-21.914,-19.1,9.291,-28.608,-25.567,-17.82,-33.156,-35.261,54.534,-35.884,5.707
0.7202704000001177,-36.863,-36.405,-52.249,-17.486,-56.182,-13.756,-56.819,-30.684,-14.384,-33.808,-38.286,-40.131,-28.629,-26.002,-22.893,-54.606,-39.603,1.714,-29.577,-27.79,4.158,-36.264,-35.275,-23.95,-45.419,-40.348,48.844,-43.021,1.603
0.7348032999998395,-39.9,-30.733,-45.537,-17.469,-55.102,-15.279,-52.663,-27.067,-13.345,-30.701,-40.809,-37.017,-30.649,-23.927,-23.895,-58.138,-39.563,0.175,-32.109,-29.812,5.691,-35.716,-34.215,-24.951,-43.324,-42.87,52.381,-37.342,7.749
0.7365162999999484,-31.663,-24.555,-35.758,-1.57,-47.362,-12.703,-50.049,-24.479,-8.208,-27.596,-31.547,-31.857,-24.983,-25.952,-20.285,-51.42,-40.548,4.274,-27.978,-26.708,15.419,-33.631,-29.058,-21.852,-34.059,-40.265,54.89,-28.083,14.401
0.7498959999998078,-30.094,-30.165,-41.87,-5.666,-49.364,-14.227,-60.245,-26.504,-6.663,-31.155,-31.515,-36.436,-25.47,-32.074,-23.339,-52.393,-44.094,1.708,-26.926,-30.267,18.478,-31.548,-26.979,-19.781,-34.537,-34.59,52.274,-28.568,12.85
0.7499714999999014,-36.212,-34.746,-50.537,-21.542,-55.462,-15.237,-57.623,-29.551,-10.755,-31.636,-34.557,-35.887,-28.519,-31.017,-24.34,-56.951,-44.562,-4.442,-30.485,-32.286,15.898,-31.004,-31.051,-20.786,-38.089,-34.555,56.832,-35.711,6.689
0.7648571999998239,-24.905,-22.416,-39.216,-8.713,-42.599,-1.902,-45.783,-22.349,-4.084,-21.358,-21.203,-19.97,-16.707,-22.277,-10.483,-40.5,-34.783,3.247,-21.233,-22.52,28.177,-20.215,-23.335,-12.056,-31.391,-27.348,71.12,-28.503,10.781
0.764918200000011,-10.535,-12.66,-28.418,9.226,-30.261,7.321,-46.762,-8.494,7.703,-11.603,-8.374,-11.241,-6.444,-15.082,1.31,-24.578,-26.039,14.003,-10.965,-16.35,45.055,-9.948,-12.553,-0.773,-22.138,-14.513,75.66,-16.692,18.967
0.7798880000000281,-18.722,-19.819,-33.513,-2.566,-49.186,-2.932,-51.838,-14.121,2.06,-15.177,-16.563,-21.988,-14.635,-16.604,-2.789,-37.874,-32.161,7.329,-18.639,-20.432,43.985,-18.135,-20.738,-8.969,-22.628,-19.109,71.998,-23.847,18.948
0.779951600000004,-24.851,-22.873,-34.504,-9.736,-60.92,-5.491,-48.2,-23.841,-3.065,-19.773,-23.718,-26.064,-19.743,-18.636,-7.91,-46.545,-33.153,1.174,-21.694,-21.436,42.917,-20.679,-23.791,-14.596,-24.655,-26.263,78.074,-31.508,19.441
0.7948756999999205,-16.117,-16.703,-28.322,6.668,-43.441,1.687,-45.59,-12.034,4.11,-16.679,-17.547,-17.841,-13.064,-14.007,-4.316,-36.765,-21.337,6.808,-13.476,-19.878,52.095,-9.9,-13.521,-3.31,-20.019,-17.015,83.631,-23.28,22.496
0.8099750999999742,-22.761,-22.321,-30.855,5.637,-51.594,-13.171,-51.692,-14.071,-7.165,-24.86,-26.239,-27.557,-19.198,-21.165,-8.922,-47.999,-28.488,1.678,-23.196,-26.518,48.969,-20.136,-25.29,-9.455,-22.561,-18.535,68.178,-28.379,13.252
0.8100362999998652,-40.156,-33.57,-39.533,-14.349,-80.232,-33.138,-53.69,-42.234,-23.551,-39.692,-43.631,-43.411,-35.061,-32.927,-21.721,-67.931,-42.292,-9.594,-37.517,-35.713,39.187,-38.047,-45.245,-29.937,-35.346,-34.398,51.716,-45.77,1.455
0.8250865999998496,-32.944,-27.389,-38.469,-11.773,-68.881,-22.859,-46.976,-35.02,-9.183,-31.455,-35.39,-33.634,-29.902,-23.673,-19.138,-58.641,-27.393,-0.876,-25.185,-30.042,50.418,-25.201,-33.417,-22.735,-35.823,-29.24,47.054,-40.088,5.552
0.8251500000001215,-12.931,-12.504,-29.721,8.219,-38.073,-3.881,-45.392,-3.222,7.22,-14.005,-14.35,-17.207,-13.479,-12.378,-3.237,-37.066,-10.459,15.519,-6.204,-13.106,70.86,-5.196,-12.891,-3.245,-19.393,-10.768,28.563,-23.142,18.355
0.8410303000000567,-11.381,-11.467,-28.155,10.772,-35.986,-7.463,-47.908,-13.977,-0.984,-16.553,-13.824,-16.677,-12.953,-18.001,-2.209,-31.393,-18.133,15.504,-7.735,-11.044,74.888,-4.678,-12.878,-4.778,-13.226,-9.733,2.407,-23.119,21.922
0.8410887999998522,-21.103,-22.214,-39.397,-2.046,-42.61,-16.165,-46.323,-34.455,-4.057,-22.172,-18.933,-18.71,-17.038,-16.446,-11.941,-32.386,-23.238,11.39,-14.899,-20.766,74.813,-6.723,-15.939,-10.921,-19.873,-17.92,-1.181,-26.682,13.704
0.8550031999998282,-21.595,-28.34,-42.432,-7.168,-36.932,-12.562,-45.765,-17.514,6.193,-12.928,-11.229,-12.543,-12.411,-6.184,-12.441,-29.28,-17.067,12.915,-12.323,-18.696,84.984,-2.105,-12.337,-4.763,-20.365,-22.0,1.381,-25.118,10.104
0.8550694999998996,-17.475,-23.188,-29.582,-2.037,-27.674,-7.939,-42.645,-1.615,11.822,-6.255,-5.07,-5.358,-6.25,-8.739,-9.867,-24.128,-16.026,15.464,-7.187,-11.505,93.608,1.483,-10.788,-1.684,-16.759,-24.027,-9.891,-22.019,19.315
0.8706160000001546,-17.457,-16.505,-26.99,3.6,-23.035,-8.956,-37.48,-7.249,11.298,-10.347,-9.164,-5.353,-5.22,-11.292,-9.857,-25.128,-21.133,14.424,-9.229,-14.568,92.49,-1.592,-11.289,-6.806,-21.353,-21.442,-10.393,-17.899,24.931
0.8707042000000911,-21.026,-19.562,-38.234,3.597,-27.623,-14.07,-38.979,-7.754,8.213,-15.972,-16.327,-13.545,-10.337,-8.719,-7.798,-35.349,-24.698,9.798,-15.88,-21.725,88.811,-8.251,-16.401,-11.41,-28.504,-18.859,1.4,-23.004,14.148
0.8850372000001698,-26.64,-26.203,-40.245,-1.53,-36.305,-20.716,-39.452,-6.21,1.033,-22.104,-22.458,-23.265,-18.012,-16.907,-10.864,-46.073,-26.722,2.616,-22.524,-25.29,87.698,-14.39,-28.168,-19.083,-31.549,-25.5,-1.163,-36.813,7.474
0.8851027999999133,-31.737,-26.177,-35.082,-4.602,-41.904,-22.744,-32.753,-14.913,-3.067,-26.693,-26.534,-28.877,-21.58,-22.526,-19.563,-52.686,-28.233,-1.485,-28.137,-26.289,86.073,-20.523,-33.263,-25.211,-35.616,-32.135,0.888,-38.314,12.589
0.9000240999998823,-26.582,-18.466,-27.874,0.013,-46.985,-18.111,-31.183,-18.996,0.522,-23.592,-23.946,-27.824,-19.509,-15.331,-18.518,-52.634,-28.717,-1.483,-27.084,-21.14,91.11,-19.478,-24.52,-15.965,-33.019,-26.979,33.674,-24.955,21.798
0.9000855999997839,-14.26,-5.64,-12.99,11.796,-47.45,-8.871,-31.664,-11.293,10.256,-15.884,-16.75,-19.087,-14.366,-13.779,-7.229,-44.897,-23.565,4.154,-19.885,-15.996,101.778,-9.725,-13.225,-2.116,-17.104,-18.243,65.404,-11.61,37.658
0.9150654000000031,-10.147,1.026,-8.878,15.883,-42.792,-2.202,-30.608,-5.646,12.807,-12.794,-13.659,-15.481,-12.815,-19.913,-2.099,-40.753,-21.492,9.273,-16.791,-15.467,101.164,-7.666,-14.236,-3.651,-10.427,-16.688,62.265,-6.476,46.33
0.915125099999841,-15.26,-5.123,-19.116,8.694,-47.36,-5.786,-35.7,-9.739,2.036,-15.343,-16.207,-21.101,-18.438,-21.43,-4.146,-43.274,-27.618,7.726,-20.361,-14.427,94.915,-15.343,-20.882,-10.82,-21.175,-20.257,50.419,-12.617,33.988
0.9302084999999352,-12.171,-4.605,-6.289,12.784,-47.313,-4.756,-36.177,-4.606,7.669,-12.254,-9.019,-11.859,-12.784,-16.285,-1.068,-35.034,-22.98,13.354,-12.143,-6.216,106.603,-5.081,-9.59,-2.1,-18.592,-17.163,63.689,-12.604,38.565
0.9302702999998473,0.649,13.33,26.505,34.288,-28.31,11.643,-24.358,11.793,31.227,3.64,8.409,9.158,3.623,-7.047,8.155,-13.994,-5.026,26.661,4.775,5.061,126.476,16.441,8.862,16.345,0.894,-1.777,81.556,4.827,71.314
0.9451313999998092,3.722,15.366,34.163,36.816,-26.232,12.143,-21.772,6.145,28.635,6.198,7.376,9.149,4.644,-4.991,9.683,-9.882,-5.533,21.511,1.696,5.568,124.813,12.838,4.755,15.304,0.381,4.885,72.765,8.408,76.878
0.9604943999997886,-8.065,-2.58,23.883,17.311,-50.285,-7.849,-37.632,-14.865,4.015,-11.227,-10.05,-8.279,-6.632,-12.158,1.477,-26.266,-20.385,7.145,-13.675,-4.683,110.856,-2.544,-9.594,0.945,-19.6,-9.465,59.885,-7.994,58.87
0.9605596000001242,-8.569,0.496,46.913,20.88,-49.722,-3.742,-42.205,-6.654,7.597,-11.728,-9.015,-8.783,-5.088,-11.634,-0.062,-30.85,-17.291,12.261,-10.075,-5.703,110.233,-1.517,-9.073,3.505,-20.093,-13.041,68.534,-4.4,78.279
0.9751722000000882,0.661,19.451,79.654,42.888,-28.668,15.217,-30.892,11.284,20.397,2.629,2.264,-2.114,-0.472,-5.987,4.549,-24.159,-12.15,16.859,-6.991,-2.111,112.172,1.046,-8.039,11.186,-7.777,-0.733,70.515,12.511,110.988
0.975234200000159,-10.098,11.747,87.259,40.796,-33.762,4.443,-33.935,-1.023,7.057,-9.669,-11.058,-17.994,-12.767,-15.202,-1.091,-36.943,-28.02,4.035,-25.939,-15.429,98.74,-14.836,-19.814,-4.706,-15.454,-8.929,49.44,4.301,107.291
0.9902037000001656,-25.969,-6.196,73.852,31.022,-44.999,-12.468,-44.659,-12.293,-2.172,-26.054,-28.465,-31.808,-24.025,-23.384,-13.385,-52.275,-33.115,0.957,-33.086,-24.123,89.419,-24.043,-26.454,-18.022,-30.295,-25.314,39.144,-11.585,82.593
0.9921127000002343,-15.185,3.032,75.315,43.798,-26.511,-1.184,-35.393,1.552,10.126,-12.707,-15.629,-19.993,-16.317,-14.139,-10.81,-39.927,-17.2,15.3,-17.683,-11.291,100.088,-11.211,-18.743,-3.659,-24.63,-15.555,48.839,-2.864,83.535
1.0052074000000175,-1.85,14.3,79.85,52.976,-12.652,8.551,-25.112,6.161,12.677,-3.473,-1.269,-10.239,-10.153,-9.002,-1.065,-25.543,-15.134,19.896,-12.543,-3.083,106.648,-4.028,-11.04,3.005,-14.871,-6.318,53.913,3.799,91.649
1.005274399999962,-9.533,2.503,69.524,38.066,-25.959,-3.753,-29.185,-2.554,3.956,-15.253,-12.538,-15.352,-16.802,-15.141,-0.04,-31.665,-23.828,18.851,-18.165,-7.691,98.857,-12.733,-12.566,-8.782,-22.541,-14.508,51.81,-9.525,80.286
1.0202614999998332,-14.646,-7.746,52.036,25.733,-39.254,-9.385,-26.594,-4.601,1.39,-18.824,-20.21,-16.361,-17.81,-13.076,-4.65,-35.732,-19.193,25.493,-15.586,-9.22,95.684,-17.331,-17.164,-10.31,-29.691,-16.031,52.783,-16.688,66.886
1.0203246999999465,-13.607,-7.226,36.102,23.145,-46.899,-2.203,-26.568,-10.232,-0.148,-14.706,-12.506,-14.808,-11.645,-8.965,-4.133,-33.647,-15.588,24.442,-16.082,-11.26,96.101,-16.289,-20.733,-4.664,-25.563,-11.916,53.754,-14.622,61.184
1.0352281999998922,-17.692,-13.879,19.16,12.876,-58.635,-3.738,-43.447,-15.857,-1.173,-15.716,-15.567,-20.941,-12.658,-14.591,-0.543,-38.224,-20.183,12.123,-24.263,-14.835,88.832,-21.908,-22.249,-12.856,-28.099,-17.027,52.164,-23.316,48.315
1.0352896999997938,-21.26,-22.574,5.309,1.08,-60.626,-9.37,-49.551,-9.693,4.464,-14.164,-21.187,-22.457,-14.182,-15.601,-1.567,-41.772,-20.163,9.037,-26.801,-13.283,86.694,-24.448,-20.177,-17.454,-36.267,-20.597,45.452,-33.027,35.971
1.0502181000001656,-19.702,-18.453,4.279,9.788,-49.807,-4.749,-40.793,-6.61,9.582,-10.563,-13.993,-15.774,-10.582,-8.413,-7.201,-35.07,-18.606,13.638,-20.626,-12.245,92.243,-17.763,-17.083,-8.727,-29.571,-18.014,38.234,-26.846,39.521
1.0519334000000526,-17.121,-9.725,11.447,26.685,-41.56,0.891,-31.53,-3.017,9.573,-11.065,-12.442,-15.246,-10.571,-8.917,-6.169,-30.937,-21.149,13.112,-18.044,-13.258,90.102,-16.209,-16.042,-3.083,-18.783,-13.386,41.782,-16.573,49.216
1.0653668999998445,-14.542,-9.716,14.509,25.633,-39.981,-0.135,-15.105,7.745,10.076,-12.079,-18.065,-21.379,-14.659,-13.519,2.546,-35.004,-21.127,12.587,-21.612,-11.195,84.376,-20.291,-11.927,-1.031,-20.301,-8.249,46.863,-14.507,52.752
1.0654297000000952,-12.991,-9.194,17.056,22.534,-35.331,0.89,-4.844,5.175,12.627,-12.067,-12.924,-20.333,-15.157,-7.87,2.031,-33.945,-15.471,21.284,-19.029,-9.647,87.878,-16.685,-2.181,5.118,-16.182,-5.679,44.767,-11.931,57.311
1.080312800000229,-9.391,0.549,20.625,36.344,-22.488,7.037,-18.159,-0.978,14.151,-8.981,-7.788,-12.115,-9.506,0.335,-3.094,-24.689,-3.16,31.509,-8.764,-7.076,89.327,-9.496,2.432,10.236,-7.457,-3.625,48.821,-2.698,63.913
1.0803752000001623,-6.82,2.086,12.92,39.893,-14.78,7.542,-32.485,7.733,10.551,-6.922,-11.367,-15.69,-9.497,-2.227,-2.066,-23.64,0.942,30.965,-11.316,-5.532,79.504,-14.097,-4.231,6.639,-16.159,-4.133,52.87,-2.695,59.751
1.0959265999999843,-17.06,-13.798,-4.511,17.312,-22.45,-3.224,-35.014,-1.497,1.831,-16.649,-15.966,-24.383,-17.684,-8.885,-6.675,-31.813,-9.818,22.225,-22.064,-10.649,69.178,-23.817,-12.424,-4.638,-31.512,-13.351,40.01,-19.598,41.248
1.0959954999998445,-27.289,-26.079,-15.265,0.389,-30.112,-13.467,-38.053,-25.061,-3.806,-23.293,-20.561,-20.773,-19.203,-8.876,-16.914,-29.22,-13.394,19.641,-21.017,-12.688,67.06,-24.817,-13.436,-11.806,-33.53,-19.485,29.211,-34.436,25.325
1.1103471000001264,-24.188,-23.492,-16.787,4.999,-23.935,-7.306,-39.552,-17.352,2.858,-14.56,-16.954,-12.043,-8.938,-3.744,-11.774,-17.92,-4.672,27.818,-14.336,-6.528,65.968,-21.206,-12.398,-9.232,-30.934,-15.367,33.281,-34.914,24.788
1.112039900000127,-23.139,-22.956,-19.332,11.142,-20.837,1.923,-40.025,-1.965,12.077,-10.447,-8.74,-10.494,-4.318,0.87,-0.492,-14.828,-4.667,29.327,-17.908,-6.521,58.217,-24.259,-15.972,-10.248,-33.977,-17.913,30.686,-36.928,27.324
1.1254729000002044,-30.288,-29.593,-25.972,3.958,-28.501,-5.251,-44.083,-13.234,8.478,-18.121,-17.953,-13.557,-9.437,-2.717,-8.176,-21.473,-13.371,19.564,-26.087,-15.736,48.425,-32.944,-21.591,-20.484,-41.116,-26.605,23.995,-45.088,19.612
1.125537400000212,-33.844,-33.662,-34.656,-5.78,-34.108,-14.467,-41.99,-18.856,-3.313,-23.739,-31.767,-22.765,-15.575,-12.448,-18.926,-30.673,-17.456,13.909,-32.208,-21.356,42.229,-38.034,-24.131,-19.951,-44.148,-27.09,27.557,-45.555,12.933
1.1403994000002058,-29.199,-28.505,-36.158,0.374,-31.0,-9.33,-39.899,-7.566,-6.896,-24.227,-26.1,-26.841,-17.609,-12.948,-10.198,-33.204,-16.414,14.92,-30.127,-18.26,42.699,-30.312,-20.521,-5.074,-33.858,-18.354,27.017,-38.337,18.555
1.1404610999998113,-22.51,-20.28,-27.925,15.23,-25.846,-2.661,-44.982,-2.948,2.845,-17.543,-15.828,-16.055,-12.98,-2.689,-0.454,-22.925,-12.812,16.954,-20.875,-10.558,48.804,-18.498,-8.717,4.152,-21.017,-11.676,24.429,-32.664,27.246
1.1553592999998727,-18.902,-19.747,-23.286,13.166,-25.307,-1.633,-40.326,-1.92,13.088,-9.329,-15.3,-9.379,-8.869,-1.149,-5.577,-14.705,-13.311,19.499,-17.781,-8.498,47.219,-20.017,-0.511,3.636,-21.508,-11.664,27.478,-31.094,27.219
1.170375900000181,-19.907,-23.826,-30.435,0.857,-25.794,-3.169,-23.38,-0.382,8.976,-15.467,-16.309,-17.567,-13.983,-11.394,-6.596,-20.838,-19.958,15.381,-22.886,-13.612,37.438,-28.193,-9.22,-2.003,-28.146,-14.726,-2.775,-35.674,17.458
1.1704553999998097,-19.887,-24.827,-41.163,0.344,-21.67,-6.239,-24.381,-4.992,0.258,-24.161,-18.854,-21.135,-19.092,-15.481,-0.954,-27.989,-25.061,4.607,-27.474,-17.185,32.789,-30.215,-21.506,-8.661,-31.192,-17.273,-35.048,-40.761,7.194
1.185489399999824,-20.38,-24.802,-45.733,1.881,-21.136,-6.233,-42.8,-5.499,-0.254,-21.063,-24.471,-23.676,-20.098,-12.392,-4.539,-32.572,-26.061,-0.009,-32.569,-19.729,28.146,-32.234,-22.509,-10.189,-35.772,-19.305,-16.058,-41.233,6.162
1.1855583999999908,-29.581,-30.412,-47.736,-8.367,-30.337,-7.764,-45.318,-6.518,-1.279,-23.091,-30.082,-36.46,-27.25,-16.478,-15.293,-41.249,-27.572,1.016,-38.684,-26.37,15.31,-39.374,-25.561,-11.716,-44.445,-21.847,16.746,-45.802,7.693
1.2006295999999566,-38.773,-38.579,-51.787,-15.531,-36.966,-19.027,-36.564,-18.807,-9.474,-33.826,-36.199,-44.108,-31.834,-23.121,-22.962,-46.843,-28.569,-1.546,-39.67,-30.442,6.073,-41.896,-31.171,-19.901,-50.548,-25.924,25.951,-56.003,0.001
1.2006916000000274,-40.783,-43.663,-57.883,-12.954,-34.368,-20.032,-42.675,-21.862,-11.514,-30.718,-35.651,-37.404,-25.654,-19.512,-25.501,-42.698,-27.515,-0.52,-34.508,-25.8,6.067,-40.829,-24.992,-21.931,-48.961,-32.045,-6.35,-61.582,-8.709
1.2158730999999534,-40.23,-40.546,-57.825,-8.843,-26.136,-10.278,-49.292,-6.984,-1.256,-20.442,-29.98,-28.145,-21.018,-11.808,-20.864,-35.995,-22.365,4.603,-29.35,-20.652,5.036,-38.227,-17.794,-12.175,-41.74,-30.476,0.316,-58.959,-7.675
1.2159341000001405,-38.653,-36.407,-49.058,-6.272,-18.426,-10.78,-36.948,-4.415,2.843,-21.958,-29.438,-26.58,-22.021,-9.747,-15.72,-33.397,-16.707,4.599,-28.296,-20.119,1.445,-35.115,-21.875,-9.089,-39.649,-25.323,30.542,-55.314,0.529
1.230509500000153,-37.078,-36.883,-40.3,-3.705,-18.407,-12.307,-22.566,-17.218,-4.844,-26.547,-29.92,-28.602,-20.975,-10.762,-16.729,-33.876,-16.178,3.569,-29.805,-23.172,-0.606,-37.641,-23.39,-14.715,-43.707,-27.859,13.605,-56.795,8.726
1.2305762000000868,-37.04,-35.821,-35.136,-0.627,-23.512,-5.634,-31.253,-14.127,-7.913,-22.934,-26.817,-27.549,-19.417,-10.751,-17.225,-34.867,-19.236,2.029,-33.361,-26.735,-5.216,-41.702,-20.805,-13.163,-44.688,-30.393,8.981,-59.812,11.279
1.2455458999997973,-36.491,-33.736,-36.126,0.911,-27.075,-9.215,-51.714,-4.379,-4.319,-24.961,-30.376,-29.059,-22.983,-13.814,-18.232,-37.906,-26.389,-8.732,-38.963,-30.807,-12.895,-43.71,-26.42,-12.638,-47.205,-27.289,26.902,-59.24,7.681
1.2456074000001536,-35.942,-37.289,-41.213,-2.676,-34.22,-16.89,-52.174,-14.109,-9.95,-32.62,-36.493,-35.69,-27.059,-19.436,-21.8,-42.991,-35.072,-19.994,-43.535,-32.825,-18.005,-47.252,-33.053,-17.236,-54.843,-26.749,16.117,-58.156,5.624
1.2605607999998938,-31.296,-35.202,-39.635,-4.211,-36.235,-11.238,-30.093,-21.779,-14.039,-30.026,-30.309,-35.142,-25.495,-15.83,-18.705,-41.924,-29.914,-15.875,-40.93,-30.743,-13.889,-43.106,-29.434,-12.096,-53.251,-23.136,14.564,-51.438,11.766
1.260627199999817,-19.481,-20.822,-31.398,8.089,-17.243,-2.005,-24.427,-6.388,-1.217,-16.676,-17.983,-25.885,-16.248,-6.08,-8.44,-31.123,-16.051,-5.101,-33.717,-24.565,-7.215,-33.329,-22.745,0.724,-42.951,-12.354,36.579,-39.604,21.488
1.2755778000000646,-15.363,-13.629,-26.243,22.425,-2.369,2.095,-40.285,5.401,9.03,-10.512,-16.941,-22.273,-10.596,-6.587,-3.821,-24.432,-11.937,-0.485,-29.584,-20.442,-11.306,-35.345,-21.697,-0.301,-41.372,-13.879,30.907,-38.539,27.615
1.275634799999807,-24.569,-20.276,-24.168,18.817,-12.1,1.069,-36.146,-1.264,2.361,-17.161,-21.022,-24.812,-14.684,-12.215,-7.915,-26.969,-14.999,0.54,-29.042,-20.934,-17.955,-41.97,-23.725,-8.498,-46.453,-24.111,20.117,-44.649,29.636
1.2907538999997996,-29.156,-25.891,-23.632,3.941,-20.798,-10.203,-18.691,-14.071,-6.35,-26.878,-25.1,-28.373,-21.329,-11.179,-14.055,-26.942,-16.521,0.54,-28.501,-21.937,-18.449,-37.829,-24.726,-5.928,-43.845,-22.038,28.294,-43.579,27.045
1.2908665999998448,-27.59,-27.914,-28.219,-0.674,-18.215,-18.39,-30.968,-23.79,-11.979,-31.462,-31.735,-34.493,-24.382,-11.68,-16.09,-23.329,-17.529,-3.047,-29.497,-21.403,-20.48,-32.156,-23.164,-0.799,-38.678,-15.356,20.581,-41.999,25.481
1.3056439000001774,-30.124,-29.935,-32.289,3.938,-23.32,-11.712,-56.552,-24.279,-15.553,-29.893,-30.678,-33.434,-25.894,-16.791,-13.0,-23.818,-18.023,-5.606,-29.468,-19.845,-23.021,-31.1,-17.506,-1.31,-41.201,-16.365,10.827,-45.031,25.968
1.3057075000001532,-33.167,-27.344,-33.281,2.397,-35.08,-7.601,-58.033,-19.644,-12.464,-28.839,-23.988,-25.203,-25.869,-17.287,-10.938,-25.331,-19.03,-6.112,-27.901,-18.8,-21.973,-33.118,-14.414,-1.309,-44.234,-19.423,22.599,-46.01,24.405
1.3206592000001365,-33.646,-25.78,-36.834,-2.216,-41.193,-10.668,-48.753,-20.649,-11.939,-30.347,-28.574,-27.227,-24.818,-15.22,-11.439,-24.281,-21.06,-11.741,-28.386,-20.319,-24.513,-36.158,-20.035,-1.308,-41.628,-22.989,26.163,-47.501,24.381
1.3207339999999022,-36.174,-29.852,-37.822,-1.702,-41.151,-9.632,-47.167,-18.579,-15.001,-28.267,-32.132,-29.762,-23.769,-14.18,-12.965,-22.72,-16.941,-13.267,-27.845,-22.86,-31.148,-34.073,-23.089,-5.405,-40.05,-24.503,20.501,-50.015,23.332
1.33667719999994,-39.212,-34.433,-38.296,-1.188,-37.012,-9.623,-51.219,-9.851,-7.814,-23.628,-25.952,-23.584,-20.159,-8.531,-16.538,-21.16,-10.776,-9.667,-25.768,-22.325,-36.753,-33.527,-18.967,-7.449,-48.719,-22.942,21.505,-51.502,15.624
1.3367373000000953,-42.247,-40.034,-45.943,-7.847,-35.438,-10.125,-57.315,-9.841,-0.634,-23.605,-26.951,-25.61,-19.114,-5.961,-20.62,-24.725,-10.765,-15.805,-28.304,-24.864,-40.302,-40.153,-22.535,-9.491,-58.916,-23.944,16.873,-60.16,6.386
1.3507352000001447,-44.254,-47.166,-49.995,-11.937,-36.939,-6.529,-46.499,-14.442,-5.244,-24.093,-29.998,-32.244,-21.144,-10.053,-19.575,-30.336,-7.681,-23.474,-32.374,-27.913,-39.749,-42.162,-30.197,-12.043,-59.37,-24.944,14.807,-69.321,1.257
1.3656423000002178,-36.525,-43.021,-46.359,-7.827,-35.878,-5.498,-21.35,-11.354,-6.776,-22.02,-25.357,-26.064,-20.098,-10.043,-14.432,-25.695,-1.525,-18.84,-27.731,-22.762,-36.124,-38.022,-25.556,-7.42,-54.699,-20.821,27.087,-63.104,-1.818
1.3675125999998272,-30.853,-36.318,-49.387,-7.307,-36.354,-6.005,-24.915,-11.855,-3.695,-23.535,-26.869,-22.452,-18.541,-10.545,-13.393,-19.009,-6.135,-14.723,-24.629,-20.178,-36.6,-37.471,-20.919,-6.388,-55.157,-20.8,31.159,-54.844,0.233
1.380766499999936,-36.457,-39.868,-59.071,-11.91,-38.367,-4.462,-53.067,-16.454,-7.79,-25.561,-31.452,-30.627,-19.547,-16.17,-14.404,-24.113,-15.862,-19.319,-27.678,-23.744,-40.149,-38.458,-29.608,-11.504,-58.688,-23.341,24.468,-54.277,3.819
1.3808302000002186,-34.372,-36.754,-54.913,-4.214,-34.742,-2.408,-52.501,-16.437,-9.831,-21.949,-24.249,-30.084,-19.016,-17.179,-11.316,-26.138,-13.797,-20.324,-26.114,-21.158,-38.572,-36.371,-29.578,-8.931,-58.117,-20.756,24.956,-45.514,6.889
1.394822799999929,-24.091,-23.91,-45.125,3.988,-30.097,1.18,-36.055,-17.446,-5.723,-20.39,-19.614,-21.857,-15.41,-14.088,-8.231,-17.403,-8.148,-13.644,-18.915,-14.477,-35.972,-33.26,-19.302,-2.262,-57.547,-18.174,30.566,-31.636,12.517
1.3948845999998412,-25.604,-23.886,-46.617,-3.189,-27.505,1.179,-41.654,-22.551,-6.742,-23.443,-22.156,-20.298,-14.37,-11.0,-10.272,-13.799,-9.165,-9.019,-14.286,-12.926,-36.448,-28.616,-19.283,-2.772,-57.489,-17.643,32.585,-24.944,14.554
1.4097955000002003,-25.066,-23.349,-42.984,-0.624,-14.67,3.74,-43.662,-17.406,-3.149,-17.272,-13.424,-13.618,-7.184,-3.304,-5.651,-9.175,-6.594,-1.838,-7.099,-7.79,-31.801,-19.879,-14.653,3.89,-47.185,-10.453,34.089,-13.136,20.175
1.4098766000001888,-8.647,-2.834,-27.572,26.529,4.812,20.13,-24.663,-0.482,13.76,-0.349,2.471,3.302,7.68,7.97,10.236,5.691,2.634,12.509,5.716,3.489,-19.474,-7.563,3.292,21.817,-30.744,1.853,36.104,4.296,36.549
1.424872300000061,-1.978,5.878,-21.396,36.236,9.418,29.331,-18.49,10.789,22.456,8.361,5.542,8.422,10.747,13.085,15.862,11.833,4.169,21.205,9.296,8.096,-15.356,-1.408,9.437,26.918,-26.615,3.9,19.162,5.828,38.561
1.4266038999999182,-16.321,-12.058,-29.059,13.146,-2.887,14.957,-26.157,5.143,12.7,-1.382,-4.71,-3.882,1.514,7.949,-0.036,3.112,1.091,15.549,3.139,2.965,-28.148,-8.067,0.718,13.572,-35.298,-5.838,-13.133,-9.547,23.666
1.4399067999997897,-30.137,-25.366,-38.252,-3.773,-13.13,2.647,-25.106,-7.67,2.441,-14.7,-15.463,-14.636,-4.635,0.256,-12.843,-7.649,2.114,11.947,-3.012,-4.723,-41.44,-20.866,-9.016,3.312,-42.435,-16.078,-33.1,-22.345,16.982
1.4399735000001783,-36.255,-28.415,-49.484,-5.306,-18.24,1.62,-28.667,-15.347,-0.636,-19.296,-24.669,-19.232,-8.729,-6.404,-12.831,-19.937,-3.523,9.886,-11.206,-11.89,-47.547,-32.116,-19.766,-5.913,-51.102,-24.771,-27.431,-28.47,13.891
1.4548801999999341,-40.317,-32.485,-56.095,-10.936,-25.394,-3.505,-37.86,-19.43,-5.246,-23.888,-32.329,-27.41,-15.892,-13.57,-17.941,-31.7,-15.815,-3.956,-20.416,-15.977,-52.622,-40.281,-29.48,-20.764,-63.858,-33.968,-32.527,-31.516,8.754
1.4549455000001217,-41.301,-30.403,-49.891,-11.95,-24.856,-3.502,-37.822,-24.533,-9.851,-29.499,-34.859,-36.604,-19.463,-18.679,-24.583,-34.23,-19.898,-15.223,-21.932,-18.522,-55.643,-43.315,-32.524,-25.866,-69.942,-35.983,-42.74,-34.558,11.307
1.4702269999997952,-40.748,-32.934,-50.354,-10.401,-18.684,0.6,-42.395,-27.583,-11.891,-29.47,-36.361,-40.666,-22.517,-18.661,-21.997,-36.245,-21.927,-12.646,-21.398,-22.09,-58.662,-44.808,-37.103,-23.279,-71.921,-34.41,-33.476,-40.159,5.148
1.4703032000002167,-41.219,-42.635,-66.697,-19.612,-25.325,-6.06,-49.525,-27.555,-13.928,-32.514,-42.472,-42.675,-26.593,-21.716,-21.463,-42.357,-29.078,-12.634,-23.426,-22.068,-63.214,-46.3,-39.115,-27.866,-75.948,-38.474,-27.295,-43.705,-16.374
1.4848960999997871,-34.518,-34.908,-69.192,-17.031,-26.837,-7.079,-38.204,-22.405,-12.889,-32.482,-39.356,-36.997,-21.443,-22.206,-24.003,-36.167,-22.389,-11.596,-20.841,-15.898,-56.49,-38.569,-27.805,-21.179,-67.675,-32.8,-24.194,-32.903,-12.259
1.486613000000034,-21.163,-16.43,-49.655,7.064,-4.781,5.736,-25.359,-11.111,-1.606,-16.568,-22.41,-20.566,-10.151,-12.45,-16.294,-18.2,-5.972,-0.314,-11.086,-8.198,-42.602,-22.137,-11.383,1.896,-50.701,-13.3,4.007,-12.378,15.418
1.4999609000001328,-16.531,-14.364,-49.093,16.279,7.52,9.829,-28.919,-6.489,7.105,-6.817,-13.678,-11.836,-6.042,-6.29,-8.081,-7.935,-2.38,2.76,-3.391,-2.554,-40.51,-13.406,-5.224,10.604,-45.015,-7.651,33.717,-6.73,12.841
1.5000267999998869,-23.687,-21.522,-81.319,-2.181,-1.197,1.11,-35.038,-14.68,1.463,-17.569,-19.3,-17.972,-8.598,-9.87,-11.147,-12.026,-5.452,-2.878,-3.9,-3.576,-44.568,-16.466,-6.756,3.933,-47.019,-16.865,35.22,-18.506,-16.374
1.514942499999961,-30.324,-29.185,-104.292,-18.572,-1.708,-5.039,-39.614,-19.276,-5.199,-21.65,-23.892,-22.052,-11.663,-10.373,-15.234,-18.674,-2.372,0.199,-9.019,-9.72,-44.523,-19.523,-9.823,0.855,-49.534,-17.873,26.476,-28.221,-26.603
1.5299301000000014,-29.781,-35.304,-100.089,-18.041,3.417,-7.596,-39.062,-16.183,-0.583,-16.505,-24.38,-21.518,-13.188,-6.264,-14.194,-18.655,1.216,3.272,-11.571,-10.735,-49.602,-19.504,-9.813,1.367,-56.144,-14.269,22.351,-29.218,-21.966
1.530005799999799,-27.19,-33.732,-97.94,-13.412,-0.173,-9.125,-28.777,-15.142,0.442,-20.075,-25.38,-24.058,-12.663,-8.307,-14.692,-17.099,1.215,-0.829,-9.511,-8.163,-57.237,-18.46,-7.242,2.39,-56.6,-17.328,27.452,-28.164,-26.555
1.5449960000000829,-29.212,-32.673,-102.965,-13.911,-1.71,-11.165,-28.748,-16.152,-5.193,-23.641,-25.355,-26.083,-14.187,-13.934,-19.288,-22.205,-1.348,-2.366,-11.038,-10.716,-57.179,-19.978,-8.771,1.875,-52.958,-20.897,34.597,-26.599,-29.602
1.5450575999998364,-33.793,-37.764,-101.325,-16.971,0.341,-15.252,-41.015,-19.209,-4.676,-21.568,-26.866,-26.057,-16.734,-13.407,-24.904,-26.794,-5.957,-2.363,-17.175,-15.316,-59.684,-26.106,-16.96,-5.811,-57.516,-22.413,25.34,-30.159,-28.036
1.5599222000000736,-33.759,-38.75,-104.81,-16.442,-2.733,-13.7,-40.974,-20.727,-3.134,-21.546,-28.377,-27.568,-15.693,-8.271,-24.879,-26.255,-5.439,-3.385,-20.231,-15.813,-64.747,-31.715,-22.066,-12.978,-61.556,-24.952,20.192,-39.35,-38.254
1.559987000000092,-31.676,-37.175,-107.779,-13.864,-5.804,-7.027,-34.273,-14.046,-5.693,-18.451,-25.274,-26.004,-12.604,-8.775,-19.219,-26.229,-1.847,-2.357,-18.674,-14.26,-65.707,-32.708,-21.531,-12.452,-63.544,-26.464,36.566,-41.36,-43.339
1.5749391999997897,-31.132,-39.699,-96.4,-14.362,-9.384,-5.483,-33.726,-9.421,-2.613,-15.871,-23.712,-22.904,-14.128,-11.328,-15.614,-23.641,-0.309,-2.355,-18.143,-11.172,-66.666,-30.114,-18.436,-9.878,-68.091,-25.413,41.14,-36.708,-29.463
1.5750013000001672,-29.564,-35.049,-87.082,-13.324,-12.449,-6.502,-33.692,-14.535,1.488,-16.88,-24.201,-19.807,-16.675,-5.169,-17.135,-15.933,3.79,1.233,-15.051,-6.038,-64.038,-23.424,-10.733,-3.208,-60.339,-21.802,34.439,-31.548,-19.7
1.5902291000002151,-25.949,-28.354,-89.557,-7.162,-4.24,-3.934,-36.22,-7.861,1.486,-14.301,-21.615,-17.226,-13.585,2.009,-13.532,-14.38,10.959,8.917,-10.425,-3.983,-54.752,-17.253,-4.574,3.455,-49.52,-16.657,45.163,-26.393,-20.192
1.5902891000000636,-23.873,-29.862,-88.955,-3.057,4.986,-4.442,-32.598,8.541,1.485,-14.287,-21.593,-18.745,-12.547,-0.555,-9.932,-18.464,14.022,6.859,-13.489,-7.565,-53.673,-19.797,-9.693,-2.184,-53.569,-17.665,53.315,-26.879,-18.635
1.6049007999999958,-21.288,-29.832,-87.842,-3.054,0.37,-8.536,-17.708,1.36,-4.664,-22.469,-23.621,-21.288,-17.145,-3.628,-12.484,-18.958,15.032,3.778,-18.598,-10.631,-61.816,-23.363,-15.319,-5.256,-58.126,-20.721,50.187,-29.414,-17.08
1.6049576000000343,-16.144,-23.143,-89.291,-1.514,1.395,-9.04,-16.154,-15.035,-11.32,-21.935,-20.011,-19.73,-19.689,-1.063,-10.934,-16.377,14.505,7.36,-15.506,-9.596,-62.779,-19.754,-10.693,4.483,-54.994,-14.04,52.699,-22.212,-11.939
1.6199726999998347,-16.128,-19.533,-88.177,0.025,12.664,-8.006,-32.531,-12.971,-6.698,-15.253,-16.917,-19.198,-17.62,-1.574,-4.776,-16.873,11.929,5.816,-12.417,-7.537,-59.642,-16.66,-6.583,6.528,-54.939,-9.416,47.523,-18.091,-7.317
1.6200376000001597,-19.185,-23.1,-90.138,-7.148,14.701,-9.535,-38.134,-7.835,-0.543,-15.75,-16.9,-17.642,-14.017,-3.11,-5.795,-14.295,12.942,3.761,-12.916,-4.968,-60.095,-15.107,-7.089,1.398,-51.81,-16.066,43.889,-25.246,-11.92
1.6350287999998727,-12.506,-22.564,-88.511,-9.19,17.76,-4.915,-29.899,-6.802,4.068,-8.049,-7.15,-6.353,-5.293,2.529,-3.228,-1.473,21.638,13.491,-4.194,1.185,-54.912,-7.407,1.627,8.057,-43.049,-13.488,61.264,-21.122,-6.785
1.635093400000187,-4.297,-15.37,-77.664,2.602,27.476,4.312,-24.234,3.963,15.335,6.303,3.104,4.412,1.884,9.699,5.484,8.263,28.276,20.138,4.519,6.306,-46.66,-1.764,8.286,17.783,-39.42,-3.741,70.424,-8.293,4.492
1.649953799999821,-10.952,-16.379,-77.586,7.723,20.276,3.795,-27.283,8.058,16.344,2.198,-3.047,-0.716,-0.679,6.615,4.967,0.57,24.149,11.408,-3.682,2.202,-50.712,-10.472,-4.53,9.568,-47.065,-11.934,62.157,-16.994,-8.32
1.6500089999999545,-21.188,-21.485,-87.242,4.129,7.448,-2.356,-37.502,-1.172,5.057,-8.562,-12.266,-9.937,-6.314,0.973,-5.285,-10.702,17.465,1.663,-10.851,-6.51,-60.395,-20.195,-16.821,-5.811,-59.826,-21.144,60.558,-28.76,-21.119
1.6649843999998666,-23.216,-18.902,-87.667,1.563,13.588,-3.891,-36.952,-1.683,3.515,-8.041,-13.278,-11.464,-5.795,1.997,-10.402,-10.179,17.96,2.174,-5.717,-7.528,-62.896,-15.564,-9.12,-6.317,-64.377,-17.024,54.862,-23.608,-11.364
1.6650445999998738,-29.852,-23.494,-93.727,-11.246,13.063,-11.572,-28.206,-4.243,2.999,-13.156,-20.437,-12.477,-7.326,3.019,-10.904,-12.73,19.991,6.27,-5.199,-4.447,-64.882,-12.475,-3.988,-1.188,-62.263,-18.032,45.585,-27.683,-15.964
1.680058100000224,-38.532,-38.328,-105.929,-25.579,-4.881,-20.782,-39.449,-16.534,-5.201,-22.877,-29.638,-20.149,-14.491,-1.082,-14.48,-23.476,14.336,-0.909,-11.341,-8.541,-70.453,-20.147,-12.693,-6.822,-67.836,-24.674,47.589,-39.951,-34.903
1.680116800000178,-36.956,-39.826,-102.237,-20.943,-5.389,-19.736,-54.266,-15.493,-8.269,-20.293,-27.559,-25.764,-17.551,-7.229,-19.588,-28.063,6.125,-13.715,-13.379,-12.63,-72.944,-19.614,-13.192,-9.889,-70.842,-22.088,43.955,-34.788,-29.745
1.6950913000000583,-33.333,-33.639,-94.45,-15.287,8.961,-19.204,-39.355,-11.379,-11.847,-20.785,-27.532,-27.788,-19.07,-11.832,-19.569,-28.035,3.045,-16.263,-14.391,-11.081,-70.822,-14.984,-7.544,-3.731,-63.087,-20.016,31.616,-30.142,-21.006
1.7104417999998986,-33.3,-33.605,-96.405,-16.296,13.563,-22.771,-23.947,-19.565,-19.008,-30.498,-33.652,-32.883,-24.686,-14.382,-17.5,-32.618,5.091,-15.735,-16.938,-12.094,-71.263,-18.555,-9.073,-2.191,-61.487,-21.021,29.023,-34.723,-25.596
1.710501800000202,-29.168,-26.912,-88.624,-5.521,14.062,-16.088,-36.218,-20.57,-13.866,-24.32,-30.544,-32.85,-25.174,-14.88,-17.995,-34.122,8.16,-18.28,-16.408,-13.619,-72.217,-19.049,-10.089,-3.725,-63.475,-18.438,33.604,-25.979,-16.861
1.7250975000001745,-25.553,-17.151,-74.703,0.632,16.097,-7.875,-43.866,-13.889,-7.192,-14.049,-23.342,-26.67,-20.026,-13.328,-16.44,-29.989,8.664,-16.213,-17.929,-11.556,-71.12,-18.005,-11.103,0.377,-57.776,-17.395,39.206,-15.707,-4.036
1.7251636000000872,-23.478,-19.695,-75.141,-3.467,14.544,-11.454,-36.65,-11.826,-7.697,-17.621,-19.732,-21.008,-16.932,-6.655,-9.251,-22.787,11.217,-10.561,-16.886,-8.983,-66.438,-18.499,-12.629,-2.185,-55.156,-16.353,44.802,-19.79,-6.594
1.7400938000000679,-16.282,-21.725,-77.627,3.196,18.116,-10.418,-39.175,-4.642,-3.078,-14.53,-12.028,-13.302,-12.304,-0.5,-5.143,-13.03,20.939,-6.965,-7.136,-2.827,-57.15,-8.747,-5.956,-2.695,-55.614,-11.726,41.684,-21.819,-7.1
1.7417943999998897,-13.192,-19.654,-79.599,1.144,23.221,-4.772,-37.599,-1.051,1.023,-6.831,-7.405,-4.067,-7.681,-1.012,-5.65,-7.382,24.505,-3.884,-2.518,1.275,-54.531,-2.078,-0.827,4.48,-52.484,-10.69,35.494,-20.26,-6.068
1.7551785000000564,-19.839,-25.27,-88.74,-16.276,18.587,-7.841,-22.704,-8.735,-3.589,-9.898,-10.984,-5.088,-7.673,-2.548,-6.669,-9.424,17.82,-6.954,-5.589,-3.85,-59.087,-10.785,-4.925,2.426,-53.969,-14.265,36.484,-25.875,-12.722
1.7552449999998316,-22.381,-28.83,-93.775,-16.259,16.519,-9.882,-27.293,-5.652,1.026,-8.863,-11.997,-8.669,-5.616,1.041,-6.15,-11.976,17.802,-13.095,-4.047,-5.895,-59.028,-10.262,-3.383,-1.675,-56.476,-15.788,41.058,-28.411,-13.734
1.770205100000112,-21.846,-23.166,-85.996,-3.435,20.088,-4.749,-42.634,3.063,7.685,-2.194,-10.448,-5.586,-2.537,2.064,-4.095,-11.964,23.42,-12.057,-2.506,-2.303,-55.896,-2.055,1.743,5.499,-54.883,-11.674,47.164,-23.772,-7.572
1.7702699999999822,-24.386,-22.118,-75.664,-0.358,18.019,-7.306,-33.883,-4.112,4.603,-4.754,-10.95,-6.093,-4.584,-1.524,-5.115,-14.514,21.347,-10.508,-6.089,-4.862,-58.913,-6.152,-2.357,6.006,-53.803,-9.613,52.753,-23.748,-3.979
1.7852680999999393,-22.824,-25.17,-68.416,0.667,15.952,-13.447,-24.627,-9.231,2.549,-4.749,-10.939,-9.161,-7.653,-3.572,-8.184,-18.085,18.764,-15.62,-10.694,-11.517,-60.391,-12.293,-7.478,-1.685,-53.749,-14.726,51.675,-26.286,0.124
1.7853297999999995,-20.752,-24.12,-65.274,-3.432,21.571,-11.384,-38.947,-4.611,2.547,-5.769,-11.953,-11.201,-10.719,-4.593,-8.688,-22.678,21.819,-17.142,-16.319,-12.531,-57.77,-12.281,-8.495,-4.245,-56.769,-18.298,45.988,-27.797,-1.413
1.8002471999998306,-23.805,-21.022,-62.135,-7.527,25.136,-11.372,-47.617,-7.681,-0.017,-14.984,-16.039,-17.85,-18.393,-8.174,-9.192,-28.803,19.748,-16.612,-20.913,-12.006,-57.712,-13.805,-12.073,-6.29,-64.397,-14.181,42.356,-27.769,-4.998
1.8020999999998821,-20.708,-14.854,-46.704,8.362,23.574,-12.898,-37.836,-15.87,-1.554,-17.531,-20.122,-21.418,-24.01,-8.166,-11.744,-31.848,19.216,-18.133,-19.355,-12.506,-55.605,-12.767,-12.06,-4.234,-63.821,-12.118,45.388,-21.593,6.79
1.8152863999998772,-17.613,-10.228,-26.165,19.624,19.964,-9.299,-32.675,-17.903,-10.262,-18.026,-22.663,-20.372,-25.523,-3.035,-13.269,-29.255,25.345,-15.553,-17.287,-10.957,-50.938,-8.143,-6.925,4.992,-52.998,-12.105,52.002,-13.887,22.665
1.8153519000002234,-24.255,-14.316,-19.991,7.822,15.846,-12.364,-40.327,-13.787,-18.961,-26.717,-24.69,-23.938,-28.059,-3.544,-13.256,-26.664,26.344,-10.414,-14.196,-9.921,-49.863,-8.648,-3.845,4.474,-47.31,-9.02,49.901,-18.996,29.302
1.8303337000002102,-23.719,-16.351,-14.848,7.814,15.317,-14.4,-43.873,-7.625,-8.183,-22.079,-21.591,-18.791,-22.908,-9.176,-10.169,-22.026,23.244,-11.429,-7.521,-6.837,-44.178,-6.59,0.77,3.958,-42.14,-7.986,45.24,-23.588,39.007
1.8303985000002285,-13.961,-8.138,0.536,19.077,19.401,-5.164,-31.021,-3.519,6.169,-6.688,-9.787,-1.866,-11.102,-5.068,-2.474,-11.758,29.881,-11.417,-1.878,-0.683,-35.424,2.126,6.405,13.688,-31.851,-6.441,50.318,-11.781,49.726
1.8463851000001341,-13.947,-3.007,5.147,15.471,25.529,-1.061,-20.744,-4.028,5.139,-3.608,-0.555,4.284,-5.455,5.183,-0.935,-3.55,37.535,-4.746,-0.34,1.88,-33.852,6.222,5.886,14.698,-31.307,-0.287,51.805,-3.06,50.189
1.846456599999783,-15.983,-7.614,-5.105,14.431,30.114,-3.109,-29.945,3.148,9.744,-1.555,-0.042,5.304,0.185,9.276,-2.983,-0.984,38.01,-2.692,-0.852,-0.172,-31.769,5.704,6.905,11.098,-37.424,-1.823,49.191,-9.717,48.602
1.8603570000000218,-9.307,-10.681,-9.198,23.126,21.887,5.603,-28.89,14.416,19.981,8.181,0.982,14.52,5.308,9.267,2.655,-0.983,37.972,-6.275,-0.851,-0.171,-27.126,7.235,9.972,14.673,-34.825,-6.945,56.827,-12.781,48.553
1.8623102000001381,-8.273,-10.67,-12.263,16.443,2.397,11.745,-10.931,9.791,15.35,5.099,-0.043,8.871,-0.845,7.208,5.726,-8.667,35.885,-9.343,-2.899,-1.708,-28.124,4.666,3.302,10.047,-31.716,-6.425,59.844,-14.818,40.308
1.8753969999997935,-16.974,-14.758,-23.009,4.131,-6.826,2.0,-12.969,-5.588,4.576,-6.177,-9.777,-7.532,-11.09,1.566,-4.013,-19.929,28.164,-14.456,-10.581,-8.879,-31.169,-5.585,-6.435,-1.746,-38.856,-12.567,48.001,-24.537,31.558
1.8754723000001832,-22.08,-20.378,-26.572,7.713,-1.697,-7.736,-29.862,-10.706,3.547,-8.733,-16.94,-9.062,-11.591,-1.51,-8.108,-22.471,25.575,-18.028,-17.743,-12.968,-31.651,-12.239,-5.917,-3.793,-41.379,-20.239,41.805,-27.074,33.063
1.8903884999999718,-23.082,-20.87,-21.935,9.755,-2.207,-11.314,-30.345,-11.72,-2.092,-12.822,-18.972,-10.589,-13.117,-3.045,-6.05,-23.985,26.574,-18.522,-17.725,-13.468,-33.156,-10.69,-3.349,-0.203,-35.702,-16.12,39.714,-22.436,35.592
1.8904493000000002,-24.596,-14.702,-22.425,3.085,-4.254,-13.352,-29.29,-18.368,-13.361,-21.519,-22.539,-23.386,-21.3,-9.19,-10.655,-30.621,23.986,-20.553,-15.146,-15.503,-29.537,-7.605,-3.346,3.895,-30.031,-9.956,34.551,-20.364,37.606
1.9053362999998171,-15.862,-3.416,-18.304,11.279,6.509,-5.654,-34.896,-12.714,-8.224,-15.862,-17.394,-19.265,-21.791,-5.082,-7.571,-24.955,30.109,-15.41,-8.47,-9.34,-17.724,1.624,6.391,12.088,-20.267,-5.336,40.665,-10.61,48.326
1.9203690999997889,-0.99,9.395,-5.99,30.223,18.285,7.671,-28.201,3.18,6.129,1.572,0.555,-0.29,-9.986,9.78,8.319,-6.487,46.985,-2.586,4.346,4.501,-3.362,18.528,20.729,19.248,-11.026,5.428,55.993,0.159,56.475
1.9204287000002296,-3.55,6.312,-5.984,30.705,13.656,7.664,-27.148,2.152,5.098,4.645,3.628,4.833,-5.366,9.77,8.31,-1.358,48.988,-0.022,7.415,3.472,0.228,21.584,17.123,16.668,-20.236,3.886,52.351,-9.575,45.66
1.9354582000000846,-16.354,-11.626,-20.835,16.842,2.884,-1.053,-41.465,-7.584,-2.08,-4.581,-8.671,-2.344,-12.02,0.027,-2.457,-8.529,39.717,-9.244,-2.838,-5.24,-7.969,8.242,1.224,4.868,-32.511,-7.901,38.979,-26.472,32.807
1.9355218000000605,-15.313,-16.225,-25.938,12.727,-2.754,-1.052,-36.301,-3.99,2.021,-2.528,-5.589,-1.829,-10.471,3.1,0.107,-10.057,44.8,-9.747,-4.885,-2.161,-8.474,5.16,2.76,-0.26,-27.356,-8.405,38.427,-28.494,33.799
1.9504274999999325,-8.126,-6.987,-17.715,18.349,-12.998,7.146,-19.358,0.625,8.167,5.672,5.688,6.882,-1.752,11.806,7.28,-5.436,53.977,-3.077,0.756,0.915,3.318,13.352,11.466,5.376,-22.205,-5.323,43.512,-24.88,36.839
1.9504883999998128,-10.167,-6.98,-10.525,24.991,-19.645,9.7,-25.999,-3.987,8.158,4.641,4.145,8.924,-0.725,10.258,5.223,-3.382,45.726,-8.197,-2.319,-4.722,6.388,11.802,4.282,6.395,-26.282,-6.855,42.956,-25.367,39.363
1.9658255999997891,-11.181,-5.948,-6.416,32.651,-8.867,10.203,-35.707,0.116,10.712,4.637,2.092,2.768,-2.262,4.1,5.73,-3.89,36.971,-14.337,-5.391,-4.205,2.796,5.642,0.692,1.778,-23.181,-4.286,42.913,-21.243,46.496
1.9658942999999454,-4.51,3.279,-0.774,36.716,-1.685,15.316,-28.499,7.288,11.726,12.317,7.725,5.326,0.302,2.559,10.848,-3.887,41.033,-10.224,-0.262,0.41,9.965,10.247,8.888,6.387,-17.523,-1.208,41.333,-13.025,50.548
1.9804674000001796,1.642,3.788,7.424,33.606,-4.245,17.35,-26.934,4.207,11.202,14.354,12.84,15.055,1.327,4.605,13.398,2.777,46.115,-8.164,5.373,1.947,19.689,17.922,12.465,14.065,-18.018,0.842,37.194,-8.914,54.596
1.9805333999997856,0.616,1.223,14.076,34.597,4.468,14.258,-31.517,4.715,15.801,12.29,13.34,14.015,2.862,6.65,11.336,10.971,47.093,-8.156,5.88,5.019,21.207,19.441,13.99,14.051,-13.389,8.014,38.181,-6.343,63.251
1.995480999999927,-8.094,2.246,12.013,33.538,4.464,11.17,-24.826,7.784,14.761,9.204,6.154,5.804,0.298,5.106,7.226,6.35,44.485,-8.66,2.288,1.94,18.624,14.81,11.927,10.963,-11.839,5.444,38.655,-7.362,62.675
1.9955445999999029,-16.283,-4.928,0.73,22.233,-15.008,8.085,-17.116,-1.445,2.963,0.486,-5.123,-3.935,-11.486,-0.022,5.682,-9.538,35.731,-16.336,-6.935,-9.333,13.994,6.086,-1.918,2.243,-25.147,-5.832,32.469,-19.137,51.342
2.0105443000002197,-12.168,-9.022,-1.832,22.211,-13.457,11.151,-20.173,-4.005,3.472,-0.54,-4.605,-11.104,-14.036,-3.096,4.139,-15.164,31.597,-22.468,-11.539,-9.323,15.005,4.031,-4.477,-3.907,-31.782,-5.314,28.85,-24.754,48.729
2.010626499999944,-4.471,1.233,9.441,36.021,6.025,19.337,-26.301,11.368,17.301,11.244,6.158,-4.433,-5.825,-2.068,2.598,-9.513,35.151,-19.884,-8.966,-4.703,20.625,9.662,3.724,0.708,-25.602,0.327,30.358,-18.069,53.291
2.025608999999804,-11.127,-0.305,8.407,33.424,3.457,14.707,-28.324,13.918,14.21,8.671,3.59,-1.354,-7.868,-3.603,0.034,-12.065,29.993,-27.036,-15.617,-12.896,15.482,4.017,-6.526,-2.879,-27.626,-7.358,23.668,-22.661,50.676
2.025679299999865,-26.485,-17.211,-6.459,15.972,-14.989,-2.214,-20.098,-4.027,-3.735,-10.805,-15.881,-19.284,-19.131,-10.259,-7.651,-25.886,18.18,-40.841,-28.922,-24.153,5.22,-10.844,-22.401,-18.758,-40.406,-19.134,11.349,-42.107,39.355
2.040530000000217,-33.118,-25.39,-16.699,9.296,-24.708,-8.36,-14.443,-12.732,-8.342,-18.991,-24.575,-29.511,-22.186,-11.273,-16.865,-33.032,18.674,-40.801,-28.893,-25.154,5.215,-13.907,-19.817,-21.813,-47.025,-21.676,5.19,-47.7,28.557
2.0405884000001606,-28.475,-19.73,-16.169,13.897,-20.585,-0.154,-24.162,-6.571,2.425,-11.8,-13.792,-17.698,-15.504,-4.602,-15.311,-27.876,28.902,-33.075,-21.179,-20.006,11.87,-5.184,-11.088,-12.057,-38.781,-16.019,-3.525,-37.918,31.09
2.0556127999998353,-18.712,-8.439,-8.469,19.519,-7.757,7.018,-26.7,4.194,14.718,-2.567,-1.995,-7.434,-4.217,1.55,-3.512,-16.065,33.484,-26.894,-17.06,-11.789,22.104,2.506,-2.88,-4.873,-25.423,-8.831,-26.063,-29.683,43.354
2.0556790000000547,-9.472,-1.258,0.249,22.573,-1.601,8.548,-14.378,9.825,17.777,4.096,2.106,-1.791,1.422,7.696,3.151,-3.754,37.036,-17.646,-7.309,-4.605,34.89,11.725,8.394,3.329,-19.762,-0.113,-42.43,-22.994,48.946
2.0705959000001712,-0.753,1.304,1.786,23.063,-2.624,10.589,-12.314,7.253,16.222,6.653,5.69,7.432,1.421,10.762,5.197,2.398,42.635,-11.993,4.482,0.523,41.515,25.034,16.07,14.596,-14.107,9.621,-36.24,-13.237,49.409
2.0706756999998106,9.494,11.037,7.419,34.823,6.6,19.287,-15.375,11.345,21.841,11.258,14.393,12.035,6.543,6.141,14.413,8.543,41.055,-13.518,10.625,9.744,45.572,36.792,25.788,25.852,0.764,18.833,-23.909,-5.027,58.069
2.0860235000000102,14.607,21.784,19.707,51.182,15.302,24.903,-6.651,21.579,24.893,15.857,20.527,14.073,10.122,6.135,21.571,16.219,37.94,-10.43,14.713,13.833,51.161,41.366,35.496,30.95,8.448,21.376,-23.372,-1.948,66.72
2.086083099999996,10.494,16.64,14.052,46.008,13.238,19.243,-5.62,16.435,16.159,10.206,14.358,12.009,1.915,9.715,14.89,12.617,42.513,-9.908,12.137,5.11,46.499,36.201,29.825,25.796,1.78,14.694,-31.034,-8.094,64.092
2.100649500000145,4.848,10.475,1.743,30.592,15.274,15.638,-15.348,5.148,13.582,5.073,7.172,3.8,-2.185,5.094,7.703,1.333,40.934,-20.656,2.391,-0.531,39.793,28.48,18.525,20.647,0.241,9.044,-33.564,-20.381,60.442
2.1155972000001384,3.307,13.539,4.302,34.66,16.283,20.745,-16.869,7.192,21.253,7.629,9.726,1.235,-0.646,-1.571,10.256,-1.742,29.11,-28.833,-1.198,2.031,42.827,24.353,15.432,21.138,2.29,8.011,-28.92,-23.434,61.406
2.1172575999999026,1.254,10.451,5.323,43.335,7.558,17.651,-13.779,9.746,18.157,4.035,9.204,1.746,-4.744,-2.594,7.685,0.822,28.056,-26.754,-1.197,-1.045,41.76,22.792,12.343,17.019,-3.348,5.441,-25.817,-20.337,58.271
2.1306832000000213,-0.797,5.318,3.781,40.73,7.55,7.899,-7.105,10.249,11.992,-0.067,2.535,0.72,-4.227,3.044,2.042,-0.716,40.835,-18.531,-2.22,-4.117,36.082,22.769,11.306,13.416,-2.32,2.874,-16.057,-20.829,56.163
2.130745200000092,-1.82,8.898,11.974,36.078,14.203,10.453,0.587,17.411,17.103,6.593,5.094,2.768,1.413,12.775,3.064,-1.228,43.868,-12.877,-1.193,-2.064,36.046,22.747,14.881,15.451,1.269,3.896,8.037,-22.345,59.693
2.145748200000071,-10.015,-0.332,6.326,27.845,2.918,13.004,-6.074,14.319,18.11,3.0,4.577,-1.333,-6.273,9.688,-0.013,-7.887,31.529,-20.549,-9.901,-10.771,29.863,14.015,6.669,6.727,-6.929,-1.744,18.787,-29.495,53.486
2.1458106999998563,-24.35,-19.799,-14.172,12.448,-12.455,-0.329,-22.974,-4.65,7.846,-12.884,-10.797,-15.164,-18.562,-4.666,-7.697,-22.223,21.764,-32.823,-21.162,-23.568,18.05,5.804,-5.633,-3.526,-17.681,-9.939,3.399,-43.81,37.039
2.1606794999997874,-27.4,-19.78,-16.72,4.751,-13.467,-9.55,-30.636,-11.306,2.203,-14.921,-17.959,-17.71,-19.568,-6.198,-8.714,-22.201,23.279,-32.278,-14.481,-17.909,19.056,14.507,1.545,2.625,-14.077,-6.855,-3.776,-49.402,31.366
2.160742300000038,-20.712,-14.637,-12.092,9.357,-8.33,-1.856,-30.605,-2.585,4.762,-7.221,-11.793,-10.008,-16.475,-1.069,-7.681,-12.957,28.379,-29.684,-5.245,-9.694,21.086,23.202,9.74,5.696,-7.403,-2.75,7.498,-47.815,34.921
2.174673399999847,-24.79,-25.38,-18.228,9.348,-7.297,0.707,-25.964,-1.046,4.757,-9.776,-10.757,-8.973,-14.409,-4.654,-8.186,-13.969,30.4,-35.29,-10.875,-13.783,14.918,15.494,1.021,-4.043,-9.445,-9.407,6.466,-56.989,28.226
2.176366700000017,-30.913,-30.99,-19.746,1.142,-10.364,-6.466,-19.278,-4.631,3.216,-12.84,-14.332,-11.014,-12.346,-2.088,-6.64,-17.541,32.418,-38.841,-14.45,-16.331,14.903,11.38,-2.566,-7.625,-16.608,-15.033,-3.274,-63.08,22.562
2.1897782000000916,-25.246,-24.3,-17.165,2.677,-14.452,-3.386,-19.258,-3.089,6.799,-8.728,-12.269,-8.953,-11.821,4.062,-5.097,-14.962,36.484,-41.364,-10.85,-12.728,20.523,17.004,3.072,-2.495,-18.64,-11.944,3.901,-56.357,27.663
2.1898418999999194,-19.586,-24.275,-20.222,10.359,-14.437,5.839,-18.727,-2.061,11.915,-7.183,-7.133,-8.432,-12.322,0.984,-5.604,-14.947,37.473,-43.372,-12.888,-11.691,18.966,13.913,-1.542,0.582,-14.523,-9.37,15.681,-54.251,27.123
2.2048211999999694,-23.152,-28.862,-21.739,9.324,-19.034,5.834,-16.146,-1.547,12.928,-9.737,-7.126,-13.547,-12.309,-1.066,-8.16,-22.105,33.337,-42.816,-19.535,-16.29,11.774,5.702,-9.225,-5.567,-16.558,-12.947,14.64,-55.734,21.973
2.2048831000001883,-28.765,-26.784,-22.229,5.729,-29.261,3.778,-17.155,1.528,10.865,-13.313,-14.804,-20.193,-15.371,-1.065,-12.763,-32.841,28.693,-47.384,-25.151,-24.983,3.053,4.672,-11.265,-17.344,-24.226,-17.033,7.966,-51.067,21.439
2.2201826999998957,-29.248,-24.708,-22.719,7.772,-30.256,3.775,-12.527,-0.01,7.781,-16.886,-17.35,-22.735,-17.917,-5.163,-14.799,-36.906,27.127,-52.972,-27.175,-25.47,-1.56,4.155,-14.327,-16.302,-22.153,-18.553,4.884,-46.406,20.905
2.2202440000000934,-22.047,-21.097,-17.061,12.375,-24.591,4.796,-7.391,-3.596,6.748,-15.332,-11.185,-19.126,-13.801,-4.645,-11.711,-26.111,29.661,-48.82,-15.877,-15.199,3.052,7.737,-10.215,-1.429,-11.372,-14.948,7.441,-36.625,22.933
2.234822500000064,-14.852,-11.342,-10.896,19.023,-18.931,10.938,-11.995,-0.519,9.815,-8.657,-7.076,-11.422,-6.614,0.483,-5.551,-14.814,32.706,-38.525,-1.517,-9.036,8.684,21.049,4.652,4.208,-5.725,-7.761,8.97,-23.269,29.058
2.2366487999997844,-16.887,-3.646,-12.422,24.639,-10.202,15.538,-9.934,1.531,12.879,-8.136,-7.581,-7.312,-5.071,2.531,-1.959,-12.238,31.136,-27.216,-0.491,-8.515,6.626,28.201,7.722,3.179,-6.744,-3.142,3.838,-18.122,30.566
2.2499140999998417,-20.456,-3.642,-12.922,21.029,-9.68,15.523,-4.801,-2.569,13.379,-11.202,-7.573,-6.792,-6.09,6.115,-2.982,-10.176,29.568,-17.967,0.022,-1.846,5.595,25.611,2.591,5.737,-6.225,-2.627,4.859,-12.981,31.048
2.2499805000002198,-18.899,-4.151,-9.835,18.958,-20.429,21.143,-11.968,-0.517,15.927,-7.092,-5.004,-4.224,-1.986,7.646,-2.467,-9.654,32.1,-17.437,7.194,3.279,9.688,27.122,7.711,4.195,-0.583,-0.063,17.662,-4.259,36.14
2.264948900000036,-15.806,0.464,-9.826,25.599,-30.142,30.343,-10.419,6.656,20.522,0.087,-1.413,-2.171,0.578,2.515,3.683,-13.23,31.043,-16.907,11.286,2.763,12.752,30.681,13.851,4.191,0.954,0.45,24.304,-5.279,39.177
2.2650134000000435,-14.253,3.537,-13.914,29.16,-38.821,29.8,-2.212,4.6,19.989,-0.425,-3.461,-6.267,-2.497,-1.586,4.192,-17.828,25.889,-14.841,8.2,1.736,8.129,26.04,5.641,6.236,-6.219,-5.186,19.669,-9.885,33.503
2.2799270999998953,-16.8,-2.614,-21.073,20.934,-47.492,21.574,-12.456,-3.09,15.871,-8.622,-12.679,-13.433,-7.105,-2.609,-4.009,-24.982,24.326,-23.023,1.02,-2.364,-2.126,15.255,-4.611,-5.554,-14.41,-11.841,15.551,-13.461,22.198
2.294934099999864,-21.907,-9.783,-24.638,12.716,-51.543,17.454,-15.517,-6.16,12.781,-12.199,-16.765,-18.03,-12.221,-5.68,-6.567,-33.154,22.253,-34.271,-6.153,-7.997,-4.173,9.605,-7.68,-14.257,-15.932,-15.415,16.56,-18.571,19.615
2.2949969000001147,-20.86,-4.651,-17.441,20.388,-55.077,23.071,-2.694,-2.568,12.768,-7.576,-12.137,-19.037,-12.209,-5.674,0.1,-33.634,21.718,-31.163,-4.61,-3.379,2.491,15.743,-6.136,-2.972,-12.33,-13.863,19.617,-13.941,29.329
2.3100045000001046,-12.13,3.551,-10.251,35.224,-53.485,31.758,-6.79,2.558,16.341,-6.032,-7.514,-14.919,-5.537,-1.57,4.711,-25.915,26.307,-24.984,0.517,4.822,4.538,20.85,-1.007,3.178,-6.17,-7.701,18.573,-4.706,36.472
2.3100675000000592,-5.97,3.035,-10.753,37.238,-43.698,33.775,-13.443,7.678,21.96,-3.464,-1.359,-7.22,-2.97,2.53,2.657,-16.668,28.842,-25.984,1.542,7.891,4.021,18.268,2.58,0.614,-1.553,-5.644,15.993,-6.75,35.923
2.3250232999998843,-3.403,2.007,-11.255,31.054,-39.556,29.643,0.403,9.72,24.5,5.248,5.302,-0.04,-1.942,6.113,4.703,-8.454,32.4,-19.81,7.688,11.981,6.579,23.372,5.139,5.224,-0.527,-6.151,20.588,-4.694,36.912
2.3250905999998395,-0.838,2.005,-13.805,27.949,-36.442,27.564,3.989,8.173,26.012,6.78,6.322,5.595,5.232,8.669,10.846,-3.323,40.052,-11.081,15.877,15.043,5.548,31.034,8.72,7.268,-0.527,-3.583,21.592,3.507,36.875
2.341056799999933,-0.325,0.467,-21.476,24.335,-27.184,26.512,-7.798,6.116,27.011,4.724,8.365,9.176,9.838,9.685,12.885,0.267,44.623,-14.144,12.275,12.979,6.054,28.953,8.712,3.674,-3.088,-1.53,13.373,-0.082,32.74
2.3411199000001943,4.799,7.638,-20.43,29.946,-17.423,29.047,-8.303,10.208,29.546,13.429,16.553,15.314,12.902,12.237,15.946,8.463,48.676,-15.154,13.287,17.064,16.295,34.048,9.215,11.355,-2.06,1.033,14.897,0.942,33.731
2.355080199999975,16.065,21.463,-10.675,49.896,-3.061,38.752,-1.122,18.907,36.176,21.612,22.684,24.008,18.524,18.884,23.102,17.164,54.775,-6.942,25.569,25.757,20.377,47.333,19.965,21.078,5.627,8.716,24.616,15.798,41.895
2.3551477999999406,19.635,22.978,-9.128,51.383,10.774,39.225,1.44,20.937,37.165,16.467,22.149,23.472,17.994,18.353,20.517,17.659,51.135,-6.935,24.007,23.169,14.209,46.262,25.58,19.52,6.646,10.244,21.005,18.344,43.39
2.3700910000002295,9.881,14.246,-11.168,33.401,7.177,28.94,0.927,12.207,27.906,12.353,19.566,14.227,9.266,6.552,10.763,10.982,39.813,-16.15,13.224,15.462,8.559,35.457,16.333,14.889,3.053,4.086,12.275,9.616,40.272
2.370159500000227,7.31,12.183,-6.034,34.904,5.121,27.886,-3.685,9.121,23.779,10.803,15.96,9.089,5.159,1.934,10.24,6.36,38.236,-17.671,13.211,12.372,2.915,33.884,13.243,13.338,10.222,4.595,11.75,12.168,46.892
2.3851125000001048,12.426,19.343,-4.491,48.189,17.923,28.883,-13.928,13.21,23.756,4.132,11.333,8.056,3.104,11.154,11.767,4.304,41.784,-11.505,14.735,11.335,-2.211,34.363,15.791,14.349,16.36,8.176,8.664,17.279,54.018
2.3851740999998583,5.753,16.762,-11.146,43.53,15.856,17.071,-21.598,4.488,16.56,-4.069,3.637,-0.662,-3.047,9.094,4.07,1.226,36.619,-11.494,9.085,7.738,-1.696,29.718,10.652,16.384,9.171,4.582,-1.078,11.114,44.23
2.400106600000072,-1.425,5.475,-11.135,29.654,4.057,8.857,-16.454,-10.373,8.858,-9.7,-3.026,-7.833,-7.654,0.888,-0.545,-3.898,29.41,-15.068,8.563,6.193,-3.744,27.639,11.154,15.343,5.063,1.503,-1.589,7.005,39.062
2.4001674999999523,6.774,8.543,-1.902,28.088,16.349,14.484,-12.851,-5.24,9.362,-8.153,2.1,-2.702,-6.622,7.034,4.579,-3.894,32.967,-10.443,12.141,10.285,-6.302,30.173,17.803,15.84,10.181,5.6,1.998,13.658,51.831
2.4150816999999734,14.964,20.83,3.223,39.33,33.751,19.08,-25.134,7.573,11.914,-0.461,10.807,3.96,-2.517,11.638,9.185,3.794,39.081,-5.821,11.616,14.374,-3.734,33.729,17.785,19.41,9.659,10.206,-0.565,18.767,58.951
2.415143000000171,11.363,20.809,-0.367,47.488,34.229,15.475,-26.133,2.442,11.39,-0.46,9.259,0.883,-2.002,2.917,5.59,4.815,35.456,-9.914,10.58,10.773,-5.267,34.207,14.181,15.292,4.014,9.683,-4.663,14.65,53.769
2.4301762000000053,9.302,15.153,-3.44,38.219,36.757,11.873,-9.713,-4.22,8.817,-4.558,7.201,-1.68,-5.074,0.865,1.486,-0.825,32.859,-14.003,12.107,9.225,-5.262,31.612,14.679,11.178,-0.601,6.6,-4.146,13.611,52.179
2.4302373000000443,18.514,21.798,3.223,38.181,50.04,18.009,-12.777,9.616,13.419,6.717,15.903,6.006,-0.97,4.45,9.681,7.885,38.462,-12.964,14.656,16.388,5.502,34.141,16.714,18.852,2.986,11.204,0.469,20.769,52.639
2.4452006999999867,21.57,29.973,11.417,58.635,58.187,26.7,-24.547,23.439,25.701,15.932,20.497,12.148,6.715,5.471,19.405,19.66,39.448,-11.414,16.178,18.934,8.058,39.743,20.283,22.932,6.569,16.828,8.665,22.285,52.074
2.4605467000001227,8.74,18.672,3.721,53.453,51.468,21.038,-11.715,12.145,23.114,4.645,10.743,5.988,3.122,4.953,10.164,7.345,31.724,-12.94,12.576,9.181,-5.27,33.555,15.652,11.638,-1.634,7.59,7.632,8.943,47.923
2.4606048000000555,-2.027,2.259,-7.041,25.735,39.122,9.746,-0.945,-2.724,9.258,-2.532,2.023,-2.215,-3.541,0.849,-4.19,-5.982,28.618,-17.537,5.903,4.049,-11.925,23.276,7.952,4.966,-6.244,-1.127,-7.233,0.737,38.142
2.4751996999998482,5.147,9.942,1.675,32.882,43.181,15.372,-10.678,8.037,16.421,8.742,9.706,5.472,4.147,3.41,4.011,6.319,37.811,-12.397,10.508,11.217,-6.278,29.4,15.116,15.207,6.57,5.534,-10.299,12.52,42.714
2.4752598999998554,9.753,23.764,8.333,51.804,53.384,22.016,-15.278,21.861,29.725,13.344,19.43,17.762,12.34,14.677,13.741,20.145,50.581,-0.601,19.207,14.279,-5.247,35.006,23.298,22.877,11.175,9.114,-0.043,20.704,57.528
2.4902695999999196,-4.601,8.371,-9.094,31.772,40.011,10.211,-14.75,4.421,15.35,3.084,10.189,8.011,6.18,11.077,-0.618,10.391,48.481,-7.261,9.966,5.556,-12.926,22.676,12.516,10.559,-4.206,-0.116,-8.24,1.728,41.589
2.4926338000000214,-15.355,-9.056,-20.355,14.834,26.138,1.492,-19.859,-15.563,3.04,-1.53,1.982,-2.756,0.538,1.844,-5.228,3.721,40.748,-18.524,2.784,4.526,-16.499,19.579,6.356,0.302,-10.862,-2.678,-22.064,-16.205,17.469
2.5054464999998345,-5.094,1.712,-9.064,31.726,36.358,7.126,-20.864,-6.839,13.795,3.595,12.226,8.005,4.636,10.551,13.22,14.988,46.343,-6.21,17.126,16.817,-7.261,34.929,20.182,13.621,-1.117,6.547,-12.82,-5.43,28.723
2.505516400000033,3.108,8.37,-2.395,38.354,39.396,10.192,-24.941,3.414,15.831,4.104,15.288,14.145,6.681,15.152,15.256,20.608,48.346,4.042,22.232,19.874,-1.619,35.406,26.822,22.829,2.47,11.663,-6.147,8.92,44.063
2.5203075999997964,-2.53,2.726,-4.954,29.606,32.696,8.645,-34.138,0.849,9.667,2.05,7.075,6.446,1.551,4.378,2.946,13.928,38.051,-6.208,12.988,11.657,-9.302,28.711,19.623,16.147,-1.631,8.065,-14.338,7.887,40.433
2.5203716999999415,-2.528,10.921,1.711,36.237,40.348,11.198,-30.517,2.385,16.83,6.147,9.63,5.927,-1.524,3.349,6.529,10.327,38.525,-11.325,13.487,10.108,-13.391,33.805,20.115,17.155,-1.629,5.496,-10.225,9.928,49.614
2.535347500000171,1.061,16.545,4.783,44.398,41.333,14.261,-25.876,-0.178,19.374,7.165,12.182,4.385,-1.523,3.858,8.572,5.194,36.95,-14.9,10.4,8.049,-12.865,28.136,19.583,21.236,-5.726,7.027,-5.092,14.017,56.737
2.5354169000002003,-4.063,5.77,-2.394,36.669,29.508,13.222,-25.85,-10.424,8.597,2.035,3.973,-6.378,-5.107,-6.392,0.366,-5.057,21.032,-28.717,-1.906,-0.668,-19.0,11.714,6.756,13.018,-14.429,4.971,-14.821,5.806,42.335
2.550284500000089,-5.084,4.227,-1.367,33.558,33.065,13.209,-13.529,-3.242,7.563,2.033,2.432,-5.86,-7.151,-6.386,1.903,-6.077,23.572,-26.127,0.145,0.357,-20.518,13.751,3.163,8.394,-10.316,2.917,-12.757,4.775,42.293
2.552243499999804,3.631,11.395,6.831,40.697,39.179,13.708,-2.757,8.032,15.753,7.154,10.114,3.368,-0.997,3.867,7.024,2.126,40.967,-13.805,8.342,8.041,-11.788,24.496,12.893,14.021,1.989,7.525,-3.01,15.017,56.083
2.565353800000139,2.602,8.31,4.775,39.119,37.603,13.182,-15.562,0.852,17.274,7.659,11.641,7.463,3.103,6.937,3.943,5.71,40.414,-16.866,6.797,7.008,-10.752,22.422,12.88,11.958,-4.16,8.542,-9.667,9.878,45.781
2.565419699999893,-4.572,4.716,-1.89,31.908,42.176,12.656,-28.354,-3.76,15.207,7.652,9.068,9.505,2.587,6.93,3.939,8.778,38.836,-14.799,7.815,5.465,-16.376,17.789,5.695,6.311,-15.427,2.385,-16.83,-1.914,33.952
2.580373100000088,-4.056,8.297,0.161,33.413,43.671,10.082,-24.74,0.343,14.68,9.693,7.009,11.032,2.073,6.923,4.96,11.843,45.97,-5.051,9.344,7.508,-14.311,15.722,5.69,4.255,-13.875,0.846,-12.714,0.137,42.115
2.5804394000001594,-7.125,7.264,3.235,33.379,34.406,6.486,-23.178,-6.83,12.616,6.61,3.416,5.898,-1.003,0.768,-0.168,3.635,41.825,-12.73,1.137,1.353,-17.882,10.071,3.122,0.665,-17.959,-0.179,-15.263,1.161,42.073
2.59579309999981,-12.754,0.085,-3.428,27.198,27.199,5.455,-33.913,-8.872,11.066,0.968,-1.71,-2.305,-4.076,-2.306,-2.73,-7.64,36.148,-20.402,-5.524,-3.771,-29.648,5.45,-2.004,-3.434,-28.7,-6.327,-18.834,-7.549,33.322
2.5958623000001353,-0.445,-4.014,-9.572,27.683,21.537,5.962,-42.076,4.456,12.592,3.528,-1.709,-4.352,-2.535,3.844,-4.264,-4.558,40.21,-11.673,-3.981,-0.181,-29.106,5.957,0.56,-1.382,-22.523,-7.345,-14.204,-8.054,36.362
2.6103957000000264,18.51,-2.473,-6.489,33.803,16.392,5.443,-34.862,4.452,12.067,4.549,-0.17,-4.347,-6.119,4.865,-6.309,-3.017,34.535,-11.661,-5.514,-1.206,-22.417,4.926,0.559,0.157,-15.841,-4.264,-14.19,-5.484,33.764
2.61212549999982,14.906,-8.106,-7.507,26.597,12.79,-1.734,-19.97,-9.897,4.371,-8.775,-8.367,-13.052,-16.871,-4.362,-7.839,-16.334,23.23,-22.408,-10.632,-9.402,-29.567,-1.226,-7.638,-3.942,-21.973,-8.358,-20.836,-14.188,23.484
2.625446000000011,2.083,-16.807,-12.623,15.3,7.141,-11.466,-15.852,-13.473,-2.806,-16.963,-17.068,-22.261,-20.953,-8.968,-10.905,-22.977,25.256,-23.41,-11.133,-10.417,-35.172,-5.323,-7.118,-5.475,-20.414,-12.961,-24.401,-22.371,23.461
2.6255167999997866,6.179,-10.642,-5.438,19.383,11.233,-8.893,-24.545,-8.337,1.808,-7.725,-10.391,-15.066,-15.296,-3.836,-8.845,-13.221,32.915,-18.776,-7.024,-5.283,-24.379,1.342,1.086,0.166,-13.733,-8.337,-20.279,-17.225,30.61
2.6404953000001115,13.346,-0.898,3.789,29.098,21.468,0.849,-32.205,-4.23,9.49,-2.082,-1.159,-6.854,-14.256,-3.832,-0.64,-11.158,32.882,-17.732,-7.529,-4.766,-19.744,5.951,-0.965,2.727,-13.207,-2.693,-12.061,-11.573,36.727
2.6405632999999398,9.746,-4.483,4.298,31.118,20.934,-1.713,-28.074,-3.201,9.481,-5.666,-4.744,-12.995,-17.316,-8.439,0.386,-16.782,27.214,-18.227,-13.669,-7.835,-27.408,-1.227,-5.575,-0.862,-13.706,-4.227,-10.0,-10.537,40.788
2.6554550000000745,8.712,-4.991,4.806,33.136,24.499,-5.81,-21.386,-6.784,4.861,-4.636,-4.739,-16.056,-15.25,-3.308,-4.225,-13.692,21.039,-15.135,-13.143,-8.339,-25.844,-4.3,-4.032,-3.422,-16.254,-6.272,-13.576,-9.502,38.698
2.6704530000001796,9.215,-2.937,1.727,30.029,31.647,-0.169,-24.951,-8.827,1.782,-3.606,1.413,-10.917,-13.185,0.794,-6.783,-10.604,19.993,-11.534,-11.593,-8.331,-22.232,-4.808,-10.688,-10.079,-23.923,-11.389,-13.563,-13.078,31.487
2.6705102000000807,3.571,-13.18,-9.545,18.216,22.394,-4.267,-34.66,-6.769,0.243,-6.164,-2.174,-10.394,-13.684,-4.33,-8.825,-11.106,25.096,-15.62,-17.729,-9.347,-26.821,-13.512,-21.948,-18.778,-27.997,-15.476,-18.16,-22.287,24.796
2.685573199999908,3.055,-16.753,-16.196,16.661,18.273,-14.509,-39.748,-7.274,0.755,-4.109,-5.758,-10.895,-10.597,-3.301,-3.693,-6.996,28.657,-16.629,-17.199,-9.338,-24.745,-15.548,-16.291,-15.685,-30.531,-11.875,-37.097,-22.777,21.697
2.685642899999948,4.589,-10.589,-18.741,17.156,25.939,-12.957,-45.856,-14.439,-0.27,-4.617,-2.678,-9.86,-11.098,-0.224,-0.616,-7.502,24.53,-13.027,-13.596,-9.841,-20.621,-10.409,-11.151,-15.157,-34.086,-13.4,-63.188,-21.729,20.651
2.700586299999941,-9.248,-21.336,-27.944,-0.792,17.204,-14.994,-52.983,-24.671,-8.467,-13.322,-12.922,-19.584,-20.309,-6.884,-13.935,-20.302,18.358,-21.723,-23.828,-15.979,-31.872,-20.645,-23.436,-29.487,-37.126,-26.194,-84.641,-34.515,14.995
2.700649400000202,-17.948,-32.074,-32.527,-7.963,6.941,-26.249,-56.516,-26.183,-13.069,-15.358,-22.643,-25.712,-21.313,-8.926,-21.606,-29.503,15.778,-27.337,-28.415,-22.11,-37.475,-27.796,-26.998,-30.482,-36.064,-27.705,-86.094,-40.628,9.857
2.7159692000000177,-3.586,-21.283,-19.174,14.074,19.741,-21.1,-50.824,-14.886,-4.859,-8.17,-11.349,-16.977,-10.533,-0.208,-11.338,-21.277,15.762,-14.502,-16.092,-16.453,-22.581,-10.35,-11.602,-10.984,-29.881,-12.82,-69.614,-25.219,18.044
2.7160478000000694,3.59,-13.065,-6.86,21.232,25.869,-9.296,-32.843,-13.847,-0.243,-5.088,-4.678,-12.349,-8.986,-1.745,-9.277,-10.497,16.259,-11.926,-11.465,-9.776,-13.337,-1.631,-2.369,-3.288,-24.215,-7.172,-60.323,-16.484,29.809
2.730525299999954,-4.61,-18.175,-10.951,4.305,12.011,-12.36,-27.174,-23.054,-5.366,-11.231,-13.383,-18.997,-19.735,-11.477,-12.342,-17.659,14.706,-24.721,-17.089,-14.377,-17.934,-11.363,-8.514,-9.433,-26.24,-10.239,-59.75,-24.665,25.681
2.730584800000088,-1.532,-16.107,-14.527,7.887,10.462,-15.422,-46.615,-17.396,-6.386,-12.244,-11.832,-22.052,-22.277,-14.539,-5.157,-26.863,11.617,-25.721,-15.535,-16.412,-16.891,-12.376,-14.141,-8.911,-29.288,-8.179,-54.055,-25.664,17.97
2.7456616999998005,6.667,-8.919,-5.803,24.273,25.309,-11.308,-54.765,-10.206,-3.305,-6.084,-4.648,-17.419,-17.644,-11.963,-2.078,-18.127,12.118,-17.499,-11.421,-10.76,-10.214,-6.728,-9.004,-5.828,-23.111,-5.609,-50.927,-17.954,24.1
2.745725300000231,2.562,-8.398,-3.235,24.761,31.431,-13.858,-47.026,-17.368,-2.79,-4.541,-7.717,-12.279,-17.626,-6.828,-8.736,-10.936,18.766,-15.432,-10.897,-11.774,-10.717,-7.234,-2.335,-6.335,-18.989,-6.116,-43.704,-22.035,31.248
2.760656100000233,-4.613,-15.049,-12.966,17.564,23.715,-20.504,-51.589,-21.962,-3.811,-9.66,-11.296,-15.34,-21.195,-5.796,-12.314,-19.634,19.772,-13.879,-12.423,-16.886,-13.267,-8.764,-6.943,-9.914,-30.241,-7.135,-16.508,-31.234,24.557
2.7607183999998597,-9.732,-21.694,-17.564,8.837,12.421,-24.07,-52.05,-25.014,-9.955,-15.285,-14.871,-23.522,-22.711,-10.401,-13.326,-27.299,12.579,-15.402,-15.997,-18.406,-14.279,-12.853,-13.596,-15.54,-41.994,-13.787,7.587,-34.277,13.774
2.7756384999997863,-13.308,-21.673,-16.522,3.705,5.748,-23.021,-40.215,-28.575,-13.532,-15.27,-17.417,-22.474,-21.151,-9.366,-14.337,-25.223,10.518,-19.998,-17.005,-19.924,-15.289,-15.402,-9.484,-13.475,-36.317,-14.798,13.727,-34.243,14.273
2.775700400000005,-10.733,-17.553,-18.554,9.849,6.255,-17.363,-45.81,-17.788,-0.71,-6.546,-10.228,-15.279,-15.495,-2.185,-13.811,-20.587,17.167,-16.392,-14.427,-18.367,-12.2,-10.263,-3.84,-3.215,-22.96,-7.611,18.324,-34.208,19.381
2.790660499999831,-13.796,-22.658,-24.684,7.79,5.736,-16.833,-56.011,-10.085,4.413,-4.49,-11.242,-17.313,-15.479,-4.232,-16.358,-21.591,16.125,-15.351,-16.974,-16.812,-12.188,-12.815,-9.471,-7.311,-22.937,-11.702,21.38,-35.711,16.8
2.7907233000000815,-28.127,-34.931,-31.831,-9.124,-7.077,-29.112,-47.758,-18.272,-8.911,-20.367,-27.625,-28.566,-24.173,-15.498,-24.027,-33.352,6.375,-26.606,-24.129,-25.504,-20.372,-26.634,-22.782,-22.673,-36.234,-25.523,14.699,-42.848,10.636
2.8056784000000334,-32.71,-35.92,-25.652,-4.504,-12.706,-33.181,-41.562,-18.254,-7.365,-24.445,-28.622,-31.611,-26.198,-17.02,-28.101,-39.467,6.881,-26.067,-25.642,-28.553,-19.84,-29.681,-25.32,-24.187,-41.321,-26.522,16.221,-46.903,16.261
2.8057401000000937,-21.919,-23.077,-7.183,17.529,1.139,-20.34,-35.373,-6.965,6.475,-7.002,-15.273,-22.871,-18.999,-5.732,-24.487,-27.132,15.071,-12.721,-19.981,-18.79,-10.598,-21.455,-16.073,-15.966,-32.058,-18.298,29.012,-38.659,27.515
2.820737200000167,-21.385,-23.054,-3.59,13.413,5.237,-19.808,-25.604,-14.13,-4.803,-8.02,-18.332,-21.311,-21.542,-6.239,-22.413,-24.543,11.47,-15.782,-18.936,-21.845,-12.637,-26.556,-17.594,-20.048,-29.977,-21.866,32.057,-36.059,28.512
2.8208018000000266,-30.585,-32.765,-14.857,0.08,-7.576,-35.157,-37.874,-31.534,-20.679,-23.893,-28.047,-31.536,-30.23,-18.015,-25.977,-36.302,3.774,-25.5,-25.065,-32.07,-18.772,-33.702,-24.749,-25.664,-38.656,-29.529,27.927,-42.683,20.799
2.8367803999999524,-24.406,-21.973,-11.768,13.912,-2.446,-31.023,-55.766,-22.281,-8.876,-17.722,-19.822,-24.332,-24.052,-14.411,-22.365,-27.556,10.43,-16.253,-19.405,-23.328,-8.507,-20.349,-11.404,-12.83,-29.909,-18.741,38.657,-35.468,22.828
2.849735199999941,-9.525,-5.558,-2.022,29.78,10.365,-11.525,-49.563,-5.353,5.478,-3.871,-7.507,-8.426,-13.781,-3.638,-10.559,-10.622,19.129,-10.089,-8.115,-11.01,5.334,-4.959,7.05,2.04,-11.948,-1.304,58.086,-18.527,34.076
2.849793700000191,-7.979,-9.65,-6.631,19.504,-4.503,-13.562,-46.952,-13.545,-3.237,-9.503,-11.086,-16.614,-20.428,-10.295,-7.475,-20.346,11.425,-23.912,-13.23,-16.122,7.89,-10.589,1.92,-0.012,-12.961,-3.352,65.713,-18.508,36.091
2.864733299999898,-7.458,-11.69,-7.649,12.824,-21.917,-22.77,-49.979,-19.166,-13.992,-14.104,-16.71,-28.381,-28.092,-17.969,-11.054,-32.108,1.168,-31.06,-19.876,-19.692,8.907,-14.677,-4.742,-2.573,-16.021,-8.984,65.135,-20.026,32.981
2.8664419000001544,3.82,3.691,8.752,29.205,-6.526,-14.038,-31.998,-1.729,-7.83,-3.844,-9.009,-16.569,-21.916,-11.803,-8.481,-20.293,5.777,-21.807,-10.635,-11.988,16.582,-3.392,6.534,8.188,-6.784,3.321,71.73,-7.711,43.194
2.8798209999999926,8.939,9.323,16.428,35.836,11.924,-6.852,-24.281,1.859,2.424,1.795,-1.827,-6.307,-12.16,-7.693,-5.911,-12.076,15.505,-16.662,-7.038,-9.926,21.689,1.735,10.626,14.327,-3.703,7.928,78.83,-7.191,51.86
2.8798869000002014,0.733,-2.47,3.604,20.431,4.74,-12.993,-44.237,-16.586,0.372,-2.817,-4.387,-10.399,-11.636,-6.148,-7.442,-18.212,17.027,-18.695,-13.179,-12.99,19.618,-4.927,1.393,7.653,-10.359,-2.838,78.239,-24.09,40.537
2.894862799999828,-7.464,-9.64,-10.232,12.726,-1.925,-14.517,-52.39,-21.692,-7.313,-5.376,-7.969,-9.876,-14.698,-5.118,-5.385,-17.681,17.522,-17.139,-11.116,-11.953,23.184,-6.971,-0.145,3.035,-15.985,-1.811,77.648,-32.263,29.226
2.8949446999999964,-8.482,-10.655,-11.246,17.837,4.737,-13.478,-47.214,-16.548,-8.843,-6.908,-4.887,-7.305,-13.146,-8.186,-3.331,-13.053,19.554,-15.585,-8.544,-11.428,30.846,-4.915,0.368,1.495,-19.555,2.802,79.62,-30.694,27.66
2.909844499999963,-10.522,-18.329,-15.333,9.622,-1.928,-18.587,-57.926,-23.191,-7.809,-9.975,-4.37,-11.908,-11.596,-4.592,-6.914,-14.577,19.022,-14.545,-13.658,-16.028,29.278,-7.984,-6.805,-3.118,-21.584,-4.886,81.077,-36.298,20.46
2.9099105999998756,-20.246,-29.581,-29.663,-5.245,-17.807,-20.618,-69.651,-26.754,-9.851,-10.477,-12.562,-16.507,-15.683,-1.001,-14.079,-19.173,15.929,-16.068,-17.743,-21.647,23.101,-16.173,-12.946,-8.75,-27.71,-10.516,78.947,-44.459,9.169
2.924851000000217,-26.373,-30.576,-33.732,-2.678,-16.765,-21.11,-60.872,-18.018,-9.329,-10.466,-19.722,-19.564,-19.766,-8.685,-20.725,-24.789,11.815,-21.175,-19.262,-24.699,24.103,-19.231,-13.445,-11.303,-35.367,-11.018,73.233,-45.951,7.623
2.926715200000217,-22.248,-27.472,-23.964,3.985,-9.576,-26.724,-48.516,-16.463,-4.196,-13.017,-16.116,-20.569,-19.746,-11.75,-21.216,-27.326,8.217,-25.252,-20.78,-23.65,26.64,-19.211,-9.846,-11.291,-30.721,-15.618,69.573,-44.881,12.738
2.939903999999842,-24.275,-34.104,-22.403,0.907,-11.615,-29.771,-47.442,-21.57,-5.217,-16.078,-14.563,-22.086,-21.263,-11.226,-18.121,-29.348,4.11,-29.325,-24.345,-23.114,26.613,-22.778,-8.299,-11.28,-21.981,-17.139,72.578,-48.934,12.725
2.939969200000178,-32.96,-41.242,-28.528,-0.631,-12.116,-27.692,-47.907,-17.45,-10.847,-16.062,-23.77,-27.699,-25.853,-18.899,-21.177,-37.003,-3.579,-34.931,-30.469,-30.263,28.124,-26.854,-12.389,-11.781,-24.521,-17.634,74.042,-58.107,5.54
2.954925500000172,-33.439,-42.226,-29.524,-0.118,-8.006,-29.714,-42.224,-10.26,-9.299,-18.095,-27.845,-30.745,-25.315,-21.442,-28.841,-44.138,-7.674,-33.872,-31.975,-35.868,31.682,-25.803,-13.914,-12.794,-25.009,-21.203,68.332,-63.172,0.924
2.954986199999894,-31.869,-44.233,-28.47,-3.704,-3.387,-33.27,-39.62,-15.373,-5.703,-19.102,-23.206,-27.128,-22.216,-16.81,-30.349,-41.533,-5.104,-31.788,-29.382,-32.246,34.212,-24.752,-11.338,-13.806,-20.373,-19.132,63.653,-57.986,6.558
2.9703786000000036,-29.788,-41.627,-25.88,-3.7,7.375,-28.626,-44.704,-21.505,-6.722,-14.472,-21.134,-21.978,-20.144,-16.281,-24.171,-32.269,0.536,-31.244,-26.791,-27.603,39.813,-20.629,-10.302,-12.255,-20.865,-14.502,67.176,-51.268,13.724
2.9704541000000972,-20.537,-32.876,-18.17,2.963,12.491,-21.425,-48.245,-16.36,-6.203,-10.359,-17.526,-15.296,-17.05,-11.654,-20.56,-22.503,8.733,-25.065,-20.616,-25.014,50.531,-10.875,-7.218,-4.046,-20.332,-12.951,73.769,-46.093,18.834
2.9849113999998735,-18.979,-31.306,-15.59,7.059,2.744,-20.891,-55.882,-16.344,-8.759,-14.96,-15.46,-13.744,-17.033,-6.519,-21.564,-23.505,11.285,-21.966,-19.059,-24.989,54.067,-11.376,-8.236,-0.456,-16.725,-9.352,75.744,-43.486,22.913
2.987312000000202,-24.596,-31.275,-17.111,7.564,-3.918,-21.383,-68.121,-25.037,-13.873,-18.018,-21.592,-22.952,-24.701,-12.148,-22.567,-33.216,2.053,-29.629,-26.724,-29.063,49.914,-21.611,-17.961,-7.628,-17.733,-10.879,74.644,-46.004,21.353
3.000037599999814,-23.034,-25.096,-12.996,10.118,2.233,-23.923,-60.881,-21.938,-9.761,-15.951,-21.058,-27.027,-27.75,-14.697,-23.057,-34.207,1.026,-27.55,-26.697,-30.058,51.914,-21.077,-18.968,-9.157,-16.691,-16.504,76.618,-44.933,23.381
3.0001006000002235,-24.036,-25.583,-8.884,8.059,4.28,-30.559,-45.963,-13.719,-6.165,-17.984,-17.963,-21.877,-23.111,-8.535,-24.571,-31.611,9.734,-18.814,-22.572,-27.467,56.473,-17.982,-11.264,-6.074,-15.649,-14.95,82.689,-41.814,28.993
3.0150385000001734,-30.159,-32.73,-14.511,1.903,-0.335,-31.553,-53.601,-18.316,-10.769,-22.065,-25.117,-25.954,-25.65,-9.551,-28.645,-38.752,9.212,-24.43,-30.747,-31.025,53.855,-25.136,-16.376,-12.215,-21.781,-15.96,83.119,-47.92,24.866
3.030027400000108,-27.568,-29.111,-20.644,4.975,3.252,-26.911,-59.183,-23.933,-12.808,-20.506,-27.654,-30.539,-30.747,-17.226,-31.178,-42.3,-0.019,-30.553,-34.814,-34.068,56.362,-29.21,-23.532,-16.302,-25.346,-24.141,75.351,-52.995,17.156
3.030091799999809,-23.954,-24.984,-20.623,7.531,9.908,-30.47,-47.853,-22.885,-14.844,-22.022,-21.991,-26.922,-28.667,-19.258,-30.122,-38.159,-3.093,-26.424,-28.632,-30.448,63.991,-24.057,-18.385,-15.261,-21.734,-21.555,72.714,-50.893,16.115
3.0450211000002128,-27.516,-29.569,-20.603,-0.673,5.8,-34.538,-51.904,-24.911,-17.391,-24.562,-23.506,-26.383,-27.102,-17.702,-26.506,-37.096,2.034,-27.423,-27.066,-27.856,61.365,-20.447,-15.805,-18.832,-22.225,-14.874,80.839,-52.379,13.537
3.0450792000001456,-28.513,-29.027,-24.168,1.377,-0.866,-29.893,-63.635,-22.837,-9.689,-19.414,-22.458,-24.819,-25.538,-13.586,-23.405,-32.448,10.741,-32.006,-24.478,-26.291,60.279,-19.402,-14.765,-16.764,-24.764,-15.884,86.393,-53.864,13.011
3.0600752999998804,-27.46,-24.388,-23.12,12.646,-2.402,-26.789,-57.936,-17.691,-8.142,-16.321,-17.824,-18.647,-20.389,-9.474,-22.87,-26.78,16.878,-31.974,-20.867,-24.216,69.953,-18.358,-13.213,-13.673,-23.715,-16.892,81.696,-48.687,17.096
3.0601394000000255,-30.506,-26.412,-20.535,7.511,-5.986,-29.324,-55.829,-19.21,-18.38,-19.891,-21.905,-21.19,-20.881,-11.513,-23.359,-29.315,19.422,-33.479,-25.969,-27.777,72.444,-22.438,-20.372,-21.344,-24.716,-17.388,79.053,-46.589,17.079
3.0751015999999254,-27.402,-27.411,-22.051,-1.206,-13.152,-27.245,-55.773,-22.777,-15.8,-21.408,-22.395,-26.292,-24.446,-14.063,-24.36,-33.897,22.477,-37.544,-27.992,-29.287,71.859,-22.928,-20.864,-22.347,-26.228,-16.858,87.683,-43.468,19.112
3.075166999999965,-21.227,-23.285,-22.029,5.455,-12.114,-24.656,-42.91,-23.267,-5.026,-20.362,-17.25,-24.216,-21.348,-12.512,-24.848,-32.838,22.454,-39.043,-21.817,-26.696,77.935,-15.733,-10.597,-11.054,-22.103,-12.23,98.354,-33.691,23.703
3.090458000000126,-23.767,-23.262,-26.106,6.474,-8.516,-23.095,-41.33,-23.756,-10.144,-23.415,-22.356,-25.217,-22.863,-15.061,-23.799,-35.367,16.797,-37.467,-24.357,-29.743,74.784,-14.692,-12.636,-12.068,-15.933,-12.218,96.206,-31.608,14.458
3.09052070000007,-27.842,-24.775,-35.301,-1.217,-7.483,-21.535,-51.022,-20.658,-13.72,-25.953,-25.92,-31.339,-29.501,-19.657,-24.287,-39.942,9.095,-36.917,-30.48,-34.836,64.975,-24.412,-19.796,-21.277,-17.454,-17.841,82.278,-35.675,4.71
3.1051360999999815,-25.253,-22.189,-36.803,1.346,-0.303,-21.001,-45.336,-16.027,-3.973,-19.78,-19.234,-32.845,-24.86,-19.125,-27.337,-41.439,2.426,-38.417,-28.4,-33.265,66.447,-27.973,-15.677,-21.256,-19.998,-19.873,73.998,-31.541,11.877
3.1052002999999786,-21.641,-16.531,-28.057,12.103,11.48,-16.881,-36.069,-15.498,0.13,-12.588,-17.165,-29.226,-18.175,-16.544,-27.309,-39.861,-0.138,-33.256,-23.249,-28.62,70.991,-19.748,-12.588,-12.013,-11.782,-16.779,74.437,-19.214,16.988
3.120170799999869,-18.546,-6.781,-21.369,20.8,16.592,-7.131,-36.033,-9.335,-0.895,-12.063,-18.685,-23.049,-20.207,-14.991,-22.671,-37.259,1.399,-22.977,-17.59,-24.493,69.896,-12.044,-6.94,-1.755,0.526,-10.102,72.313,-8.436,19.021
3.1202377999998134,-13.916,-0.626,-20.323,23.853,15.039,-5.074,-33.435,-4.715,2.692,-14.1,-15.08,-23.538,-18.137,-13.439,-19.063,-36.197,-0.139,-18.855,-11.937,-20.883,72.387,-9.983,3.826,2.345,6.673,-5.481,72.753,-4.329,27.199
3.135155699999814,-13.39,-2.675,-20.302,22.292,12.974,-9.168,-31.353,-12.395,5.763,-13.061,-14.04,-27.613,-12.996,-10.864,-20.068,-34.624,-2.701,-17.812,-8.851,-18.813,76.926,-8.436,2.285,-0.219,8.715,-5.476,79.34,-5.35,27.684
3.1352222999998958,-13.377,-3.185,-18.233,23.807,11.424,-5.572,-31.321,-15.456,7.807,-9.462,-14.539,-21.95,-14.007,-6.755,-16.974,-29.467,1.401,-10.621,-4.744,-14.695,77.361,-6.378,1.258,0.806,9.731,-4.446,78.749,-3.295,26.631
3.150228999999854,-9.777,2.454,-12.067,27.882,12.95,1.605,-27.704,-5.195,13.947,-4.842,-8.889,-10.145,-8.358,-4.699,-7.736,-22.777,6.01,-4.463,0.896,-9.045,78.821,-2.786,10.478,5.416,12.795,-2.904,72.522,2.344,36.339
3.1502913999997872,-8.743,3.988,-10.006,26.829,13.962,4.165,-28.701,0.446,18.543,-0.226,-2.22,-6.036,1.896,-3.157,-4.142,-17.119,10.615,-4.971,1.408,-6.987,82.328,-1.246,8.931,2.849,13.807,-5.975,74.499,3.878,36.302
3.1651667999999518,-10.783,-1.139,-14.606,23.216,2.165,5.698,-30.209,-3.653,16.476,-0.226,-0.681,-7.055,0.358,-2.642,-7.724,-14.54,15.215,-9.577,-1.155,-5.955,82.246,-5.343,1.237,-2.789,8.158,-9.555,83.134,0.8,26.02
3.1652288000000226,-8.211,-0.113,-15.616,28.316,-7.572,10.303,-24.543,-4.674,14.41,-0.226,-1.705,-7.56,-3.229,-4.688,-3.105,-16.575,12.638,-11.616,0.383,-2.363,83.7,-5.338,6.359,-2.274,8.15,-9.546,86.637,-1.25,29.58
3.180270400000154,0.506,12.183,-6.379,43.145,4.219,14.904,-26.568,1.478,19.006,4.898,1.371,-4.479,0.873,-4.171,6.632,-16.046,7.502,-5.457,5.505,-0.312,86.178,2.352,12.5,4.901,18.388,-4.413,83.476,4.899,42.87
3.1803337999999712,6.654,21.392,4.898,51.298,18.047,16.426,-37.812,4.038,22.573,3.868,2.394,-3.962,-0.665,-3.655,3.039,-13.981,4.933,-4.939,4.988,-1.848,80.969,2.862,9.414,7.457,19.906,0.714,80.319,15.653,49.488
3.1952636000000894,1.524,18.809,4.893,39.976,11.881,11.286,-35.725,-4.675,13.842,-5.87,-6.317,-14.716,-11.423,-11.336,-7.21,-25.238,0.83,-15.181,-2.19,-7.994,72.691,-2.264,6.843,3.351,16.3,-1.848,81.776,18.711,49.95
3.2106567000000723,-2.576,17.253,0.79,34.813,9.308,4.615,-21.345,-5.695,6.143,-6.888,-9.385,-20.337,-12.948,-12.861,-3.617,-31.36,0.829,-14.141,-1.163,-8.498,72.618,3.374,10.935,7.959,24.481,-1.846,83.231,19.717,48.876
3.210714899999857,6.136,21.847,1.301,50.148,19.545,5.635,-20.299,10.705,14.846,3.877,1.383,-6.484,-3.714,-1.065,5.096,-13.91,11.074,-4.905,10.109,2.781,79.206,14.641,18.096,18.709,31.629,6.865,82.635,24.82,48.827
3.225278100000196,11.765,17.726,-5.36,48.561,17.988,9.215,-28.988,13.768,22.516,6.435,4.968,0.694,0.901,1.497,0.48,-5.699,17.723,-8.999,12.148,7.389,79.639,13.602,18.59,17.154,25.962,8.907,82.04,21.209,41.606
3.2253390999999283,5.605,10.024,-16.113,25.971,6.7,5.108,-26.397,-2.64,15.321,-0.744,-1.697,-6.991,-2.174,-3.115,-4.644,-16.965,15.656,-11.551,5.476,1.234,72.387,6.928,12.936,10.989,22.862,4.288,69.663,14.016,30.806
3.240292599999975,6.112,14.625,-11.486,26.457,7.205,3.053,-24.834,-5.199,11.72,-0.231,-0.671,-4.422,0.39,0.986,3.046,-13.874,18.715,-1.294,7.007,2.769,69.241,9.995,16.51,13.539,23.351,7.357,48.076,17.588,34.873
3.242154500000197,10.204,18.709,-2.766,42.824,11.809,6.124,-38.641,-0.071,16.831,4.38,4.965,2.242,4.488,3.035,8.166,-3.101,25.868,-1.292,10.074,6.865,69.171,12.035,21.104,13.526,21.279,8.887,44.442,21.157,44.572
3.2554039000001467,9.682,18.69,-3.787,42.269,11.285,7.655,-39.627,-7.243,16.302,2.326,4.96,-0.834,-0.128,-1.067,4.571,-8.221,25.842,-4.877,6.99,3.784,63.467,5.362,14.423,8.902,25.356,5.804,58.742,22.16,44.528
3.255467299999964,12.746,26.356,-0.197,41.715,13.323,7.647,-24.219,-5.699,15.261,0.787,3.418,-1.858,-3.201,-0.553,5.591,-10.775,21.206,-0.261,6.983,3.781,58.792,3.308,12.871,11.454,33.015,8.36,64.831,31.359,51.143
3.2704226000000745,12.221,27.866,8.512,48.845,12.285,7.64,-23.17,5.066,17.295,-0.751,1.366,-2.881,-1.661,-1.065,6.098,-8.202,13.5,-3.847,5.952,4.289,59.758,6.891,17.982,14.004,31.958,8.351,58.619,34.914,62.363
3.270484900000156,0.426,16.568,6.967,43.161,1.002,3.021,-29.294,4.036,12.155,-4.336,-3.759,-9.538,-6.27,-3.626,-0.568,-14.854,7.851,-13.065,3.384,0.699,57.649,7.396,16.939,11.941,30.901,4.757,53.949,25.145,59.227
3.285531500000161,-3.673,13.99,3.373,37.482,-5.659,1.481,-25.167,-0.067,10.093,-1.77,-6.829,-11.577,-9.85,-0.036,-3.129,-17.913,14.503,-8.441,9.529,1.21,50.419,9.438,18.971,13.978,38.042,9.363,53.895,19.485,56.094
3.285663099999965,-1.62,15.513,4.907,42.056,-6.166,5.578,-23.604,0.446,15.719,1.305,-7.847,-12.078,-8.816,-1.06,-1.077,-17.895,20.124,-4.847,11.568,2.746,43.197,14.039,23.563,17.038,42.615,12.427,53.329,19.978,58.599
3.3004633999998987,-7.254,6.276,4.39,36.378,-14.869,0.962,-24.605,-3.653,12.117,-6.38,-10.401,-16.677,-14.442,-5.67,-3.125,-26.074,11.395,-11.502,4.897,-1.355,39.055,11.464,19.441,15.484,38.474,5.243,50.202,15.859,54.442
3.302163400000154,-6.222,5.245,2.336,27.12,-17.416,-4.162,-24.069,-6.723,6.469,-6.374,-8.853,-12.049,-13.915,-1.566,-2.097,-24.511,9.334,-12.003,6.941,1.208,40.553,8.891,17.885,14.444,35.874,4.213,41.955,14.819,52.338
3.3154553999997916,1.981,12.924,0.285,32.216,-4.591,4.039,-31.217,-2.618,13.123,3.366,-1.16,-2.816,-3.655,0.997,3.541,-12.704,18.034,-9.429,10.52,4.28,42.049,9.394,18.891,11.356,36.863,7.282,17.834,19.415,54.847
3.315518400000201,0.442,8.3,-3.302,38.332,-1.512,10.695,-38.87,4.044,20.282,4.387,2.428,-3.838,-2.115,-4.127,2.512,-15.765,18.016,-13.518,0.776,-0.847,37.396,2.212,7.602,2.635,30.678,-0.922,-9.848,15.809,48.645
3.3305091000001994,-2.632,5.218,-5.86,37.269,-6.121,7.098,-31.659,9.164,17.188,2.846,1.401,-5.371,-4.162,-3.098,0.973,-21.897,14.924,-15.554,-3.836,-3.92,32.236,-3.425,1.959,-1.466,27.061,-6.556,-11.375,8.621,43.986
3.3305704999997943,-0.068,9.824,-4.83,35.695,2.594,6.066,-18.82,4.544,13.584,6.429,0.887,-2.291,-0.059,-0.534,1.484,-15.727,16.958,-15.026,-0.246,-1.867,29.642,0.677,8.617,1.609,30.621,2.159,-3.167,9.637,47.015
3.346456300000227,-6.216,4.179,-3.8,34.122,8.227,4.523,-12.653,-5.195,12.546,-0.237,-3.212,-8.949,-6.719,-6.168,-1.591,-20.835,14.892,-21.159,-7.93,-7.5,21.928,-3.935,3.485,-0.441,26.491,2.157,-17.508,10.14,43.382
3.3465323000000353,-10.82,1.613,0.302,36.649,3.095,-0.604,-14.69,-1.603,10.484,-8.946,-10.382,-19.699,-15.934,-12.31,-7.225,-36.695,11.803,-27.797,-16.631,-14.153,11.147,-16.226,-6.765,-5.564,21.854,-11.165,-28.762,9.617,42.827
3.3605007999999543,-2.1,12.882,6.449,42.248,9.24,0.933,-18.773,5.57,12.011,-4.326,-8.834,-19.679,-12.844,-9.736,-6.193,-37.171,13.329,-26.745,-12.516,-11.065,9.599,-13.136,-0.098,-0.435,34.128,-9.617,-11.827,17.805,53.542
3.362226499999906,-1.073,13.381,4.394,40.669,15.891,6.056,-19.267,3.516,14.56,-0.224,-3.19,-16.585,-11.295,-5.628,-2.601,-29.449,10.241,-24.669,-9.942,-8.492,13.688,-2.877,4.513,6.737,40.754,3.201,0.48,20.861,54.001
3.375583800000186,-6.195,5.171,-4.32,37.042,5.116,4.513,-20.272,4.024,13.521,-1.248,-2.162,-15.544,-11.796,-6.135,-1.061,-29.932,5.62,-28.231,-11.981,-9.508,12.138,-2.874,-3.176,1.608,28.93,1.66,-0.032,12.643,42.676
3.3756508999999824,-1.066,7.215,-4.828,37.517,1.525,4.508,-24.863,2.483,13.508,4.901,0.401,-7.844,-4.099,-7.665,3.038,-25.291,6.639,-26.665,-9.92,-3.864,10.076,-2.359,-2.148,-3.517,23.778,-3.977,18.923,9.044,40.072
3.3905798999999206,1.496,7.72,-1.237,35.943,9.208,8.602,-27.4,-3.667,16.568,10.019,6.549,2.41,0.516,-4.072,7.134,-10.921,12.268,-16.393,-2.226,3.825,10.579,3.279,6.563,1.097,29.389,1.15,50.667,9.547,43.106
3.3906655999999202,-1.067,2.589,-6.359,34.37,6.638,7.569,-28.397,0.435,18.088,4.374,8.079,7.018,1.54,0.543,5.59,-0.152,21.99,-9.204,5.973,3.821,8.519,8.399,10.655,5.195,32.434,3.711,64.961,5.439,39.476
3.4054934000000685,-0.553,2.075,-13.012,36.385,-1.054,5.0,-30.93,5.558,14.996,0.271,4.997,6.499,3.588,0.543,4.047,-1.176,31.702,-7.145,7.504,3.305,4.924,9.927,12.181,2.628,33.938,-0.904,63.359,2.36,35.851
3.420472599999812,-1.577,2.585,-12.487,30.201,-9.25,5.507,-32.948,-4.694,12.932,1.295,3.968,1.882,0.51,-0.482,7.117,-8.348,29.621,-10.212,1.349,4.839,4.407,4.794,11.144,0.064,32.367,-0.903,64.321,2.87,35.815
3.4205359000002318,-4.65,0.533,-10.425,21.461,-25.634,6.014,-36.501,-15.447,9.333,-0.243,1.402,-5.805,-7.687,-0.994,4.036,-15.511,18.833,-19.423,-4.8,-0.802,0.304,-3.92,3.449,-3.01,23.626,-1.926,70.404,3.379,36.291
3.435562199999822,-2.083,4.119,-7.853,31.174,-36.879,11.131,-45.686,-13.383,3.688,-4.853,-4.747,-11.434,-12.29,-6.116,-1.091,-23.693,12.154,-23.502,-8.381,-5.924,-5.332,-6.99,-3.727,-7.106,18.479,-7.048,71.87,4.913,37.792
3.435624900000221,0.48,10.262,-3.747,41.901,-31.719,18.804,-53.838,-6.197,4.709,-4.336,-3.718,-10.911,-12.278,-5.598,5.57,-25.718,14.191,-17.331,-4.787,-0.283,-3.789,-1.347,-0.649,-5.049,23.584,-2.942,71.799,7.982,39.804
3.4505052999998043,5.091,13.326,0.355,36.736,-26.052,16.224,-46.612,-1.58,9.828,1.303,3.971,-6.801,-12.266,-2.006,12.737,-18.52,17.25,-12.703,5.464,5.865,-0.712,8.388,11.134,3.153,31.245,6.795,77.875,15.658,44.887
3.450561099999959,12.258,13.825,5.99,33.626,-25.002,10.06,-27.097,-5.165,7.256,0.277,3.454,-6.794,-13.278,-7.127,10.675,-15.94,15.184,-13.715,6.996,4.323,-1.223,12.99,16.246,8.785,34.287,10.886,80.87,24.864,54.063
3.465980599999966,10.709,15.348,8.033,38.203,-25.489,13.124,-23.484,-8.746,3.663,-3.309,-0.648,-8.325,-14.29,-11.731,11.176,-21.56,11.583,-16.775,0.329,0.732,-2.759,8.879,10.595,6.215,31.692,8.826,76.691,23.303,55.034
3.466042500000185,6.087,12.259,-1.708,34.066,-29.562,18.234,-39.342,-1.052,8.27,1.817,2.427,-4.73,-11.201,-6.084,13.214,-22.563,14.645,-18.295,0.328,0.219,-9.929,4.259,6.998,0.061,31.148,3.694,74.053,12.521,43.708
3.48057770000014,3.007,1.488,-15.027,27.884,-34.655,15.142,-39.303,5.609,13.385,5.914,3.961,-5.238,-8.116,-3.004,7.054,-23.565,18.216,-15.716,-2.233,-0.293,-20.165,-0.356,4.429,-6.087,31.629,-2.457,66.807,1.238,32.394
3.4806401999999252,-4.168,-8.247,-19.622,29.393,-39.232,12.565,-26.968,-1.569,13.884,1.81,1.396,-10.356,-6.059,-4.025,2.436,-29.689,14.612,-16.212,-10.428,-4.392,-22.706,-8.552,-3.26,-15.303,23.912,-7.065,61.104,-9.522,25.189
3.4956747999999607,-6.725,-9.776,-18.066,26.802,-47.389,12.04,-36.675,-7.715,12.845,2.833,1.907,-4.71,-3.491,-1.46,6.532,-25.561,14.597,-17.221,-7.856,-3.363,-20.634,-8.032,-8.38,-21.947,14.667,-8.595,71.802,-14.636,19.016
3.49574100000018,-4.157,-10.791,-17.023,18.066,-51.953,8.954,-53.032,-4.634,12.832,5.391,2.93,3.492,-1.951,1.615,11.648,-13.24,24.829,-9.006,0.349,6.375,-20.101,1.71,-2.736,-15.778,16.189,-5.0,82.488,-11.547,19.509
3.5106916999998248,-3.128,-9.755,-15.469,17.536,-47.802,9.458,-43.757,-3.092,13.844,2.824,3.951,3.488,0.1,4.175,12.661,-8.616,33.001,-3.362,2.397,11.491,-15.471,6.319,5.464,-4.491,24.882,1.152,79.332,-7.437,24.613
3.5107567000000017,0.461,-4.11,-14.429,26.74,-44.681,13.034,-32.955,-6.675,14.343,4.871,7.021,4.509,2.662,8.27,14.186,-6.558,33.993,-7.457,4.444,6.357,-14.43,5.288,5.971,-4.999,28.444,1.151,80.79,-5.381,27.15
3.525669900000139,1.997,-1.032,-12.878,31.836,-50.784,11.484,-38.045,-8.205,9.718,3.841,2.916,1.431,-1.44,8.261,14.684,-10.138,29.86,-6.425,1.366,2.252,-22.101,3.746,1.354,-9.605,26.366,-1.412,88.906,-4.351,31.734
3.5257283000000825,-5.177,-1.544,-5.693,27.194,-64.053,9.424,-41.081,-9.734,4.585,-5.384,-5.284,-12.403,-10.66,1.081,12.107,-23.96,19.584,-8.98,-7.345,0.713,-26.689,0.669,-0.697,-7.034,27.364,-2.947,90.866,-6.395,39.386
3.540693899999951,-3.635,1.532,6.608,30.753,-66.55,11.976,-35.917,-8.7,6.629,-1.793,-1.693,-16.489,-13.21,-8.142,11.071,-28.547,9.831,-23.316,-8.874,-0.313,-24.101,1.18,1.353,-1.903,33.997,-1.407,91.288,-2.291,46.007
3.540762099999938,7.64,9.727,14.286,48.14,-48.553,18.111,-29.733,1.555,15.844,10.505,8.043,-7.763,-7.05,-10.695,14.134,-17.247,9.309,-25.854,-5.279,4.299,-21.003,8.864,4.426,4.246,38.574,6.791,91.709,11.032,53.133
3.555767100000139,7.632,14.84,12.223,57.826,-36.209,19.63,-26.118,9.75,19.927,10.494,9.572,-3.657,-2.944,-6.586,18.218,-14.669,13.91,-17.631,-5.786,8.905,-22.519,11.416,5.958,9.877,36.998,12.42,89.568,15.119,56.666
3.555830799999967,-3.134,7.653,4.526,45.473,-47.444,10.901,-33.264,1.031,11.198,2.287,2.902,-7.239,-8.577,-8.629,14.613,-22.851,11.335,-21.712,-8.342,5.31,-31.718,3.72,1.854,2.695,27.74,3.186,85.892,3.321,46.364
3.5707751999998436,-9.791,-5.162,-1.626,32.62,-55.081,3.206,-42.452,-6.654,6.576,3.821,-2.224,-5.695,-10.617,-9.132,7.427,-20.779,10.811,-24.252,-9.87,0.694,-35.785,0.131,-3.783,-11.14,14.904,-5.014,77.609,-7.953,32.997
3.570840400000179,-10.806,-10.792,-3.161,31.562,-43.243,9.35,-43.946,-2.549,16.815,11.502,1.877,6.606,0.152,4.197,8.444,-7.95,24.12,-11.42,-5.25,4.792,-29.601,6.79,1.856,-11.641,16.938,-0.911,72.408,-12.044,32.964
3.5861132,-15.918,-16.417,-8.281,24.871,-35.515,9.341,-45.952,-6.645,16.286,7.392,4.436,11.722,2.201,11.877,10.997,-3.844,32.805,-6.285,-1.146,5.299,-31.621,2.685,3.903,-9.58,22.045,-3.472,69.262,-16.642,33.444
3.5861770000001343,-24.611,-25.622,-16.982,13.063,-43.164,-3.988,-52.054,-15.86,-0.124,-3.886,-3.765,-1.097,-9.072,2.131,1.764,-13.062,22.014,-14.476,-9.342,-4.44,-43.885,-12.687,-11.982,-19.817,7.166,-16.276,59.459,-23.798,24.189
3.599709300000086,-21.513,-22.01,-14.916,19.198,-44.658,-3.984,-50.465,-7.135,-3.198,-1.321,-7.347,-6.219,-9.063,-2.481,-3.361,-18.684,16.869,-15.486,-15.48,-9.559,-44.353,-12.162,-18.118,-22.358,0.498,-15.235,55.301,-24.287,23.14
3.614703300000201,-9.708,-12.767,-3.63,30.449,-34.367,1.655,-43.242,1.069,6.027,5.341,-2.729,-1.602,-2.906,2.132,7.401,-15.079,25.049,-9.323,-7.78,-1.864,-36.624,2.707,-2.731,-6.967,16.892,-1.387,61.394,-16.065,34.387
3.6165611000001263,-9.186,-13.778,0.984,25.296,-28.185,-5.519,-34.489,-9.178,4.484,-1.325,-3.751,-6.723,-10.588,-1.457,12.005,-13.015,26.049,-10.338,0.425,1.724,-35.051,7.315,6.494,4.823,21.998,7.323,60.82,-11.951,39.476
3.629839600000196,-8.153,-8.129,3.032,26.295,-27.644,-1.415,-28.307,-9.681,3.967,1.751,-1.698,-6.717,-10.577,-3.504,7.894,-9.416,24.486,-9.816,4.523,1.722,-27.843,12.431,9.561,7.38,23.513,11.414,65.882,-10.914,41.486
3.6299057999999604,5.176,2.125,5.591,41.638,-23.006,16.517,-32.89,9.284,14.21,16.093,6.501,5.073,2.753,3.159,13.522,0.328,31.121,0.44,9.641,10.942,-18.594,23.689,17.236,12.496,36.809,15.501,79.648,-5.78,43.494
3.6448679999998603,6.195,-4.025,-2.099,38.522,-19.397,14.452,-42.591,12.861,16.757,15.053,7.006,6.093,0.189,2.644,18.119,1.864,30.578,0.952,7.582,14.517,-23.698,19.055,12.096,9.409,29.088,12.924,72.397,-6.287,34.741
3.6449314000001323,-3.545,-11.193,-12.856,23.115,-18.353,2.142,-41.011,0.553,9.568,8.378,6.487,2.5,-5.959,-2.994,9.904,-3.773,22.862,-9.295,1.939,6.305,-30.847,6.228,-4.31,-6.482,4.98,2.665,58.492,-16.527,21.898
3.6598300999999083,0.045,-7.596,-14.38,24.628,-17.31,4.701,-35.847,-4.059,8.021,12.468,12.116,9.158,2.756,1.619,5.796,0.329,21.303,-7.236,0.4,3.225,-31.841,2.636,-8.917,-17.746,-0.148,-5.022,61.507,-21.121,18.29
3.6598912999997992,0.045,-11.687,-16.927,26.141,-21.391,7.258,-45.545,-8.665,8.526,10.918,8.518,9.661,2.241,4.692,9.376,0.329,21.281,-5.692,-5.235,1.685,-38.981,-4.027,-11.469,-21.827,-2.197,-8.603,57.347,-22.637,19.297
3.6748367000000144,-8.665,-15.773,-21.009,20.479,-24.443,2.64,-61.893,-11.731,6.468,6.297,3.386,2.991,-6.983,-0.948,9.879,-10.43,16.137,-17.982,-13.939,-4.977,-44.065,-14.781,-21.704,-25.903,-7.83,-11.668,47.556,-28.249,21.839
3.676538199999868,-4.045,-3.975,-13.815,30.193,-15.71,6.223,-59.27,-2.497,7.486,10.901,9.018,4.013,-2.365,-0.435,9.357,-10.419,15.609,-17.964,-12.901,-4.459,-36.849,-13.229,-21.17,-21.779,4.986,-12.169,55.193,-22.586,28.989
3.6898965999998836,0.57,2.177,-3.043,38.359,-8.009,7.242,-39.231,0.067,9.528,12.427,9.521,4.009,0.199,0.59,7.298,-6.823,17.13,-10.261,-9.814,-1.893,-35.787,-9.118,-10.39,-12.536,16.251,-10.62,57.699,-12.829,36.133
3.6899618000002192,-8.653,-6.022,-1.503,26.026,-11.075,-1.987,-32.531,-5.569,7.981,6.779,1.827,-3.167,-7.998,-6.071,3.705,-15.525,11.99,-18.448,-13.903,-5.99,-39.85,-9.621,-5.257,-9.962,11.624,-3.949,45.859,-14.866,38.146
3.705016599999908,-7.107,-10.627,-6.112,18.827,-14.138,-5.059,-45.306,0.584,5.924,4.723,-0.224,-4.701,-11.064,-6.065,5.238,-17.047,11.465,-18.942,-9.278,-4.447,-34.175,2.172,2.433,-4.316,13.662,5.276,47.862,-16.388,35.546
3.705080199999884,-1.977,-11.128,-13.279,19.833,-12.074,-1.98,-50.384,-0.441,-0.229,4.719,0.801,-4.696,-10.54,-3.497,6.257,-10.37,16.065,-6.628,5.076,2.73,-29.018,18.563,15.238,9.008,22.358,9.882,53.962,-12.785,32.949
3.7203153000000384,-11.709,-15.216,-16.851,11.104,-13.599,-7.101,-46.235,-18.371,-4.84,2.665,-2.274,-8.278,-13.604,-10.666,1.64,-11.896,11.95,-8.158,9.169,3.239,-31.038,20.594,18.297,12.585,24.384,12.433,46.736,-17.383,31.379
3.720389399999931,-12.722,-14.176,-13.761,10.068,-13.073,-11.705,-48.238,-17.328,1.825,5.223,0.29,-4.683,-11.029,-8.094,5.225,-8.298,9.377,-9.687,7.111,3.748,-25.371,22.11,17.766,8.986,26.409,18.056,47.201,-15.829,32.885
3.7349052999998094,0.099,-5.965,-6.062,26.964,-2.814,-4.521,-48.702,0.108,10.532,12.903,10.024,5.055,-1.284,5.747,14.441,7.592,21.15,3.643,14.276,10.405,-16.637,31.31,20.31,12.564,28.432,19.063,56.888,-4.03,40.536
3.7368302999998377,-2.463,-2.885,-0.421,29.499,-0.25,3.681,-47.117,-0.405,9.497,16.988,13.6,8.636,1.791,6.253,10.84,8.609,24.715,5.176,14.774,10.907,-20.206,27.18,14.142,8.965,20.719,9.31,49.659,-9.149,43.57
3.750025199999982,-8.608,-6.468,-1.957,20.248,-8.447,2.14,-49.119,-8.601,6.414,12.873,9.488,5.041,-1.284,0.612,5.194,1.428,19.055,-2.513,5.025,5.26,-27.358,13.321,6.956,-1.29,15.063,3.665,37.314,-18.874,35.329
3.7650196999998116,3.696,-1.339,-0.418,34.06,-3.315,2.65,-43.434,1.654,11.53,12.86,13.064,12.209,3.328,7.271,16.972,11.673,28.77,4.149,10.656,8.329,-20.159,15.869,13.096,5.371,23.245,10.322,46.498,-3.486,37.855
3.76507730000003,7.278,5.835,7.779,47.858,7.447,8.795,-37.243,9.849,13.056,19.507,19.711,22.955,9.472,9.313,23.103,18.833,33.352,7.219,17.305,12.931,-15.528,22.001,18.719,15.612,31.931,15.434,59.259,7.789,49.601
3.780040999999983,-11.172,-2.368,5.722,31.417,-1.782,5.2,-51.038,-0.919,2.284,14.365,7.909,11.149,-0.271,-0.942,7.71,1.908,14.876,-4.572,2.431,2.672,-28.32,11.22,10.503,3.301,24.727,6.71,49.466,-8.613,43.916
3.7801039000000856,-17.308,-10.05,-0.432,24.213,-8.953,-3.002,-59.184,-6.042,-3.866,3.08,-3.37,-5.256,-9.492,-7.089,-1.519,-9.877,7.688,-7.641,-3.207,-4.503,-34.439,3.012,4.857,-2.338,18.554,3.117,35.584,-16.289,36.187
3.7950817000000825,-7.557,-2.355,6.741,36.996,4.376,-2.999,-41.194,-1.937,0.749,6.15,3.806,2.434,-6.409,-5.033,4.63,-1.67,18.952,0.564,9.604,4.211,-23.647,13.255,9.975,13.034,27.245,11.311,39.135,-3.977,46.397
3.795146299999942,-11.648,-6.452,6.734,27.225,4.372,-6.582,-30.907,-11.157,-2.326,6.656,3.29,2.944,-10.501,-4.003,3.601,-2.181,20.982,-1.998,8.058,3.694,-24.647,18.365,13.551,13.021,29.779,11.299,40.12,-8.072,46.351
3.8101206000001184,-22.395,-22.839,-5.055,9.78,-16.125,-13.748,-43.684,-20.879,-8.471,-2.572,-9.009,-12.941,-17.663,-5.024,-1.526,-11.912,16.862,-9.169,-0.147,-6.043,-35.894,7.076,8.415,-1.337,19.503,2.067,31.371,-21.384,35.034
3.8101872000002004,-15.713,-19.742,-3.001,18.479,-20.719,-7.074,-50.812,-11.125,-3.339,1.529,-3.365,-6.268,-9.448,-2.457,3.599,-8.314,18.382,-6.598,3.439,0.111,-29.198,3.483,4.82,-0.823,17.947,5.138,38.512,-16.752,39.097
3.825125500000013,-4.938,-8.452,3.662,24.608,-13.526,-0.407,-42.052,-4.454,1.275,9.725,6.885,9.108,-3.291,2.668,11.28,2.965,20.413,0.581,6.509,8.307,-19.947,12.701,7.377,4.813,23.052,11.281,51.281,-12.636,45.718
3.8251894999998513,-3.909,-9.98,-1.465,18.948,-14.025,-2.456,-34.326,-9.06,2.298,9.203,5.341,7.562,-6.874,6.764,14.855,9.11,24.491,2.63,7.015,6.762,-24.538,15.249,6.857,1.734,19.443,7.171,46.619,-18.259,38.5
3.8411270999999942,-4.417,-10.483,-3.513,25.077,-12.987,3.182,-38.902,-2.391,9.98,14.829,6.36,7.042,-3.793,6.245,13.303,7.564,24.467,-0.959,7.52,4.194,-28.612,7.55,0.19,-0.317,13.788,3.578,40.425,-18.241,32.314
3.8411896000002343,-9.536,-8.935,-3.509,27.614,-12.974,6.765,-49.109,4.272,10.483,16.351,5.329,5.498,-3.79,0.603,5.605,-3.715,13.172,-7.618,-5.295,-4.007,-34.218,-0.655,-6.982,-6.976,9.163,-0.524,36.798,-21.297,30.232
3.855127899999843,-19.26,-14.049,-8.116,18.364,-16.547,-5.025,-48.036,-4.954,1.251,4.552,-2.873,-4.242,-9.933,-3.496,-1.06,-13.957,9.572,-13.758,-16.048,-14.249,-43.406,-8.851,-10.561,-15.166,1.982,-8.208,26.003,-29.472,27.128
3.8551900000002206,-15.655,-9.937,-0.936,21.932,-2.698,-7.581,-34.155,-6.999,2.786,6.084,0.204,-0.139,-5.825,0.606,-1.059,-8.82,18.272,-13.745,-8.347,-9.624,-39.264,-8.842,-6.452,-9.516,6.078,-3.077,22.903,-20.221,35.81
3.870357299999796,-12.565,-2.242,8.799,28.57,18.309,-3.475,-33.096,-0.844,6.37,10.689,0.204,2.935,-3.258,1.118,-6.181,-4.713,16.717,-9.12,-1.679,-3.979,-34.102,-2.173,0.727,-1.309,16.318,5.635,27.491,-7.906,44.996
3.870426999999836,-26.897,-14.023,-2.993,14.197,17.779,-16.279,-48.945,-11.601,-3.883,-5.204,-16.703,-14.486,-14.525,-9.642,-15.909,-16.491,7.478,-8.086,-3.727,-11.148,-46.875,-4.22,1.238,-4.894,13.228,0.507,17.217,-20.193,35.217
3.88518890000023,-32.506,-25.792,-17.847,0.863,10.589,-25.997,-50.433,-21.324,-10.539,-12.371,-21.809,-19.595,-20.146,-10.144,-16.918,-21.598,10.033,-8.591,-0.137,-12.161,-52.976,-4.729,2.262,-7.451,10.141,-1.543,5.417,-34.005,24.423
3.8852522000001954,-21.203,-19.106,-14.243,12.133,16.726,-14.7,-36.038,-11.056,-3.356,-0.063,-8.467,-7.28,-12.441,-0.4,-11.778,-9.793,17.195,-2.947,7.548,-3.952,-41.652,8.084,9.944,-1.296,19.352,6.143,11.047,-25.774,32.084
3.9001923000000716,-18.62,-11.403,-6.032,25.441,20.808,-7.001,-37.026,-3.361,3.307,5.06,-3.848,-4.711,-7.818,-2.449,-11.254,-2.611,16.153,0.13,10.102,-4.46,-34.438,12.174,13.52,3.316,24.969,8.186,19.233,-19.088,37.175
3.9002518000002055,-25.261,-13.44,-6.026,18.755,15.664,-12.117,-46.723,-7.968,1.255,1.469,-8.967,-7.78,-9.86,-7.057,-10.73,-6.707,10.501,-7.042,5.993,-8.042,-36.965,3.965,9.92,1.776,23.407,5.616,17.164,-27.779,31.502
3.915181500000017,-25.748,-17.013,-7.044,9.515,13.086,-15.179,-40.017,-12.058,-4.382,-3.143,-11.008,-7.26,-12.924,-3.464,-8.158,-9.262,10.491,-12.671,0.864,-7.009,-41.027,5.498,9.398,0.75,25.432,5.611,14.073,-28.263,30.958
3.9152423000000454,-22.136,-15.972,-2.939,18.215,16.659,-13.626,-31.78,-16.145,-6.939,-7.751,-10.997,-7.765,-13.935,-2.948,-7.637,-8.228,17.14,-8.559,0.864,-7.002,-44.572,9.591,14.0,4.335,28.481,6.117,13.547,-19.526,38.1
3.9302597000000787,-20.065,-8.271,5.773,29.98,20.741,-9.002,-34.309,-12.03,-3.346,-4.669,-9.961,-7.245,-11.872,-6.019,-7.63,-8.732,21.734,-9.575,1.887,-8.02,-42.991,2.921,13.986,4.843,29.477,5.599,8.922,-20.531,45.234
3.930330600000161,-21.07,-9.8,8.841,26.876,18.671,-7.968,-33.763,-2.797,-2.83,-2.615,-9.439,-10.824,-12.372,-6.013,-7.622,-14.359,20.688,-21.349,-7.848,-10.574,-43.972,-5.791,3.725,-4.383,26.886,-0.042,-13.628,-26.146,47.238
3.945327200000065,-26.684,-20.036,4.734,18.652,9.943,-17.182,-31.68,-8.429,-10.512,-12.859,-15.065,-20.547,-20.045,-9.593,-13.762,-23.053,22.204,-30.549,-18.087,-18.248,-52.637,-13.982,-10.111,-13.6,20.199,-9.776,-45.89,-25.095,41.555
3.960589400000117,-28.194,-16.942,5.754,22.219,9.421,-22.288,-36.771,-19.179,-12.039,-15.408,-21.197,-22.576,-23.611,-10.608,-21.433,-26.617,26.28,-26.42,-16.532,-21.815,-53.609,-17.042,-9.588,-13.075,17.617,-8.741,-59.676,-21.996,38.44
3.960647599999902,-26.117,-13.339,7.797,26.808,12.998,-14.069,-38.784,-13.525,-2.805,-7.195,-20.664,-17.43,-17.44,-6.499,-17.313,-25.053,24.205,-16.66,-13.441,-18.72,-50.994,-10.877,-1.382,-11.012,20.674,-0.023,-47.321,-21.462,41.987
3.9752732000001743,-29.164,-22.035,2.154,19.609,5.813,-9.444,-37.208,-9.413,-0.241,-6.676,-17.057,-16.388,-13.836,-6.493,-9.099,-21.442,20.082,-13.057,-14.965,-18.701,-57.603,-11.891,-7.016,-17.661,17.579,-4.634,-47.786,-25.026,35.285
3.975332299999991,-32.721,-22.525,-2.971,10.88,4.27,-11.484,-37.683,-17.088,-3.827,-6.157,-14.478,-12.273,-12.797,-5.462,-13.188,-14.76,21.599,-12.532,-8.802,-18.17,-59.595,-17.514,-14.181,-25.328,8.34,-13.339,-62.083,-27.051,24.492
3.990297499999997,-30.127,-19.941,-7.579,10.869,13.487,-8.911,-34.571,-18.608,1.3,-0.003,-10.878,-5.601,-5.1,0.691,-17.273,-9.11,23.114,-6.884,0.94,-12.004,-54.925,-9.812,-8.019,-22.741,7.819,-11.276,-58.435,-23.95,23.443
3.9920189999998,-31.634,-32.729,-18.842,5.735,9.375,-10.439,-33.512,-18.077,3.861,-3.077,-10.867,-9.694,-3.558,1.203,-15.207,-13.2,18.48,-2.778,-2.647,-10.455,-58.456,-8.265,-6.986,-21.182,10.373,-11.265,-49.155,-24.438,17.271
4.00716599999987,-38.775,-38.331,-23.434,-4.517,0.657,-18.625,-36.553,-23.694,-0.754,-10.758,-17.516,-18.393,-12.264,-0.335,-19.803,-19.334,10.265,-3.288,-9.816,-14.031,-62.496,-20.04,-19.275,-28.333,4.727,-18.426,-49.618,-28.512,6.496
4.007231800000227,-39.248,-27.535,-17.263,1.123,6.804,-15.533,-36.516,-18.035,2.833,-9.723,-22.622,-19.399,-12.764,0.178,-25.93,-22.901,-2.041,-2.772,-8.27,-14.529,-60.896,-21.557,-22.842,-31.378,1.136,-19.432,-35.736,-21.311,11.612
4.020441199999823,-34.086,-19.31,-13.659,15.467,8.846,-5.271,-32.381,-2.136,6.928,-7.152,-22.087,-21.429,-9.165,-8.02,-21.294,-26.464,-14.334,-3.794,-5.7,-14.515,-61.86,-15.388,-16.159,-25.711,10.357,-13.265,-7.011,-7.97,23.896
4.020506100000148,-29.441,-12.119,-9.547,18.525,2.69,-3.216,-25.689,-2.133,1.286,-9.194,-20.015,-23.969,-14.791,-14.159,-16.149,-24.388,-13.295,-1.741,-4.669,-12.963,-59.749,-12.811,-9.995,-19.538,21.617,-7.616,12.976,-0.79,27.458
4.035396499999933,-21.215,-5.446,-4.415,15.433,5.761,-3.213,-22.589,-14.427,1.285,-8.16,-15.897,-18.31,-15.289,-6.973,-12.547,-16.167,-0.474,7.482,1.995,-6.29,-51.492,-4.089,-0.764,-14.908,25.694,-3.51,24.746,4.334,28.968
4.035464000000047,-14.533,-4.416,-9.021,17.979,8.829,-0.136,-30.764,-19.023,4.87,-3.029,-9.733,-9.583,-9.638,-2.355,-7.411,-10.516,6.186,7.475,9.678,0.376,-47.342,4.112,6.922,-11.819,23.619,-0.945,29.332,9.965,30.988
4.050330600000052,-10.933,4.297,-10.037,26.67,11.894,3.45,-34.831,-13.369,5.889,2.61,-2.551,-3.425,-7.067,-3.377,-3.818,-4.87,7.205,4.906,15.304,6.011,-42.172,6.67,9.476,-8.733,24.62,5.203,29.303,16.615,33.519
4.052013399999851,0.861,17.613,0.732,36.89,30.325,12.668,-21.989,-2.597,16.642,13.365,8.722,8.361,4.211,4.823,2.334,8.455,14.882,23.856,21.948,14.202,-28.81,17.421,19.201,2.546,33.817,16.981,37.47,29.406,42.707
4.065448500000002,9.57,19.132,4.317,38.39,40.541,22.902,-14.282,6.627,27.896,22.574,16.91,19.111,15.99,16.089,10.016,18.181,21.527,40.738,26.537,16.237,-27.756,25.601,26.354,11.765,38.906,20.55,43.581,35.525,49.324
4.06551380000019,-2.735,10.404,-3.884,28.105,27.18,15.706,-24.002,4.572,21.721,15.379,7.16,11.92,8.802,15.561,3.858,9.453,17.407,28.402,18.826,8.024,-44.122,9.181,11.983,1.507,28.109,8.234,35.852,21.657,38.516
4.0804699999998775,-19.639,-0.877,-15.663,16.294,15.37,1.346,-37.81,-5.167,11.453,2.556,-9.754,-2.437,-3.503,6.323,-11.003,-8.487,9.193,14.029,3.438,-0.693,-56.886,-10.808,-9.034,-20.011,13.224,-3.557,26.595,4.217,21.059
4.0805381000000125,-21.156,-7.536,-24.357,11.667,16.379,-1.217,-39.821,-8.236,10.929,1.529,-13.843,-5.508,-4.011,1.194,-13.553,-12.065,4.061,14.528,-3.226,-3.254,-59.903,-13.871,-16.197,-29.725,8.6,-7.139,26.056,0.114,17.452
4.095936199999869,-8.839,2.717,-17.16,15.754,17.9,2.883,-27.998,-6.69,12.967,5.113,-6.656,-3.966,-2.47,2.217,-7.392,-3.856,6.106,14.513,2.925,0.335,-56.257,-9.758,-11.57,-25.085,9.616,-7.132,33.715,8.311,27.681
