Timestamp,Cz,Fz,Fp1,F3,C1,C3,T7,C5,CP5,CP3,CP1,P1,P3,O1,CPz,Pz,Oz,O2,P4,P2,CP2,CP4,CP6,C6,T8,C4,C2,F4,Fp2
0.0,181.663,-8.516,67.469,53.112,110.391,162.632,-52.877,-3.542,1.713,1.409,-5.017,8.256,15.887,0.935,-1.51,-12.092,-2.544,10.571,14.427,5.648,14.845,13.183,339.986,124.535,-66.986,43.294,-3.72,432.205,148.344
9.66999214142561e-05,149.206,-10.557,58.693,26.419,90.812,142.489,-85.1,-5.075,4.785,-3.203,-1.938,11.321,15.359,4.521,8.225,-4.395,-1.004,7.486,16.974,2.057,11.244,12.657,318.641,105.455,-47.963,24.807,29.071,399.498,176.373
0.015012399991974235,167.5,1.237,72.979,15.634,104.554,110.071,-80.404,-3.021,2.218,-4.737,6.773,9.261,6.634,0.418,7.193,-7.464,-14.835,-13.014,5.686,3.079,12.257,11.107,306.539,97.665,-41.255,42.713,13.161,420.615,144.946
0.015118200099095702,200.12,5.334,73.93,44.82,120.843,120.72,-47.536,-5.067,2.216,-1.658,-1.43,3.616,7.14,-5.218,-2.036,-12.068,-18.407,-28.37,-8.664,2.051,13.782,12.633,310.331,113.961,-63.755,42.158,7.512,434.539,112.525
0.03031970001757145,174.817,-5.43,42.093,44.775,112.525,150.313,-60.808,-4.55,6.825,-6.267,-6.04,3.612,6.62,4.521,19.995,-11.031,-11.728,-26.804,-13.266,0.513,4.546,11.084,291.578,102.576,-68.302,14.964,32.608,404.391,122.147
0.030414900043979287,142.367,-6.961,39.49,16.553,121.122,138.892,-93.023,-1.471,3.744,-9.847,0.114,7.707,3.028,6.566,31.758,-11.02,-14.79,-17.556,-12.741,6.66,0.956,6.462,259.011,74.297,-55.939,16.486,4.911,409.622,145.079
0.04548699990846217,169.889,-6.442,72.238,23.709,138.932,138.753,-83.196,-2.494,-4.457,-4.202,-5.009,9.236,9.685,-5.736,3.037,-14.083,-9.14,-6.268,-9.142,6.141,7.615,5.431,254.653,91.128,-57.42,31.326,-27.37,430.729,124.953
0.0474398999940604,197.896,-16.682,71.141,52.887,111.641,164.742,-75.94,-1.467,-1.378,-2.661,-10.127,9.74,12.236,-3.681,-7.724,-11.507,5.726,-1.651,-1.448,-3.087,11.706,13.622,278.477,121.263,-48.653,27.709,5.445,406.732,135.587
0.060094800079241395,165.423,-14.103,42.893,46.174,82.84,147.159,-99.943,1.608,6.82,-6.244,1.154,10.242,4.54,5.544,3.042,-4.323,1.109,-8.309,-1.447,-1.547,9.132,15.146,277.174,110.896,-26.575,33.829,38.228,385.833,168.239
0.06018849997781217,158.085,-4.868,57.195,13.852,108.885,115.248,-86.011,-0.955,1.69,-4.189,5.763,6.646,6.072,0.415,-17.966,-3.294,-9.65,-10.862,-15.278,2.553,5.537,3.86,256.405,104.125,-34.233,40.967,7.963,393.644,135.795
0.07493479992263019,190.715,-16.134,75.068,13.326,131.829,141.773,-53.137,-0.954,-2.41,-3.16,-5.513,2.541,13.238,0.927,-28.706,-7.39,-3.493,-6.753,-16.287,-4.109,2.458,0.782,261.271,120.415,-52.13,11.725,12.054,380.955,103.384
0.07502510002814233,179.253,-20.728,42.718,46.1,122.988,172.882,-80.236,0.584,7.838,-7.255,-6.532,6.636,10.663,10.66,4.11,-8.919,1.121,-4.697,1.148,-1.544,1.431,7.953,276.892,109.536,-41.319,-5.193,44.829,367.767,130.945
0.08995829988270998,151.922,-3.801,23.207,54.251,122.865,153.754,-112.431,-3.515,8.855,-6.223,3.72,11.241,9.628,5.014,15.377,-8.91,-7.589,0.431,5.757,8.192,1.429,7.433,275.078,90.983,-33.081,27.6,14.558,397.625,128.765
0.0900481001008302,178.41,-4.822,50.336,31.655,121.718,152.063,-79.531,-3.512,-6.011,-3.143,2.18,7.643,11.668,-3.7,-16.914,-7.364,-11.168,4.529,-3.47,1.523,3.989,4.352,275.315,109.848,-42.269,46.527,-17.732,419.257,98.41
0.10494189988821745,184.892,-20.187,45.163,30.087,106.227,182.65,-52.812,2.127,-2.931,-4.677,-3.97,6.099,8.582,1.939,-17.922,-4.283,-5.521,-5.21,-2.954,-6.163,9.108,8.958,281.187,122.546,-35.567,28.038,15.074,403.468,131.1
0.12002489995211363,157.554,-14.531,29.236,13.151,115.855,173.245,-71.714,2.125,8.343,-2.623,2.694,8.142,7.037,3.986,2.076,-4.279,-8.077,-11.864,0.123,-0.521,10.124,9.462,272.709,104.492,-26.822,29.547,43.236,395.38,154.022
0.1201154999434948,164.569,-1.709,60.97,-16.576,138.793,145.408,-48.076,-1.463,2.187,0.453,6.277,4.035,9.079,-4.727,-20.467,-8.373,-12.167,-6.217,-9.611,-2.058,4.991,4.841,266.801,105.412,-52.923,29.517,11.429,385.251,121.593
0.13503800006583333,183.36,-2.732,70.131,16.228,125.846,162.168,-24.462,0.075,1.16,-4.67,-0.901,1.982,6.508,-6.772,-23.008,-11.438,-4.983,-4.674,-11.139,-11.277,2.936,5.349,275.244,123.75,-83.609,2.335,20.127,358.738,118.91
0.13513160008005798,187.787,0.345,37.785,48.999,103.691,176.863,-56.713,0.587,11.918,-6.203,0.124,6.078,2.916,-2.154,9.802,-11.427,-4.466,-4.669,0.143,-9.217,3.958,5.344,279.579,122.089,-84.037,11.042,46.747,384.507,151.579
0.15036630001850426,213.727,5.98,37.747,31.532,114.346,149.022,-67.927,-0.438,8.832,-0.561,0.124,7.097,3.937,-4.713,-0.454,-8.854,-13.683,0.458,1.168,-5.109,3.954,1.24,277.25,124.529,-76.269,43.819,18.523,416.91,136.57
0.15045249997638166,228.883,-3.76,65.374,19.717,124.99,138.626,-35.071,1.1,1.138,-3.122,-10.122,7.602,7.007,-9.832,-32.729,-6.284,-8.546,-3.128,-6.518,-8.178,5.487,2.775,275.436,141.31,-73.631,42.75,11.845,407.784,139.507
0.1651010001078248,196.379,-14.002,56.087,35.579,108.471,167.177,-30.938,3.148,5.236,-6.193,-4.989,11.181,8.025,-4.699,-15.277,-4.228,6.319,-15.42,-8.561,-9.706,5.994,5.847,267.988,131.435,-56.139,33.486,44.621,375.101,172.156
0.1651965999044478,168.518,-12.964,47.834,13.002,113.486,184.941,-39.104,1.095,3.693,0.986,10.385,7.583,8.017,1.453,17.525,-4.736,10.412,-16.43,-12.651,-7.135,1.89,4.816,262.597,117.472,-45.837,51.896,14.862,383.435,155.077
0.18007780006155372,186.792,-13.463,65.717,2.231,145.135,189.366,-6.277,-3.517,-0.921,2.009,3.715,3.477,9.546,-3.159,-4.521,-12.928,8.864,-9.241,-17.249,-7.128,0.863,4.299,268.995,147.58,-64.234,43.647,-15.379,408.667,122.647
0.18017509998753667,198.901,-13.45,57.967,35.016,139.355,193.788,-5.758,-4.538,6.765,-7.726,-8.584,6.548,5.95,-3.156,-12.201,-19.575,8.343,-2.059,-9.035,-7.633,3.936,6.344,277.947,167.925,-71.342,13.377,17.424,385.717,150.701
0.19517529988661408,201.263,-6.776,33.831,50.35,113.6,174.126,-35.467,-2.484,10.344,-8.231,-1.403,7.566,3.895,6.069,20.599,-12.896,8.847,9.213,-1.853,-3.527,1.371,4.801,281.768,139.58,-54.877,26.684,41.485,394.04,183.338
0.1952756999526173,230.776,-9.843,40.457,20.074,119.634,148.849,-26.722,-0.944,2.137,-1.563,1.672,5.509,12.6,3.502,14.943,-7.76,11.4,23.037,-5.437,-0.962,-1.192,1.722,283.023,137.391,-54.31,57.908,9.168,426.434,150.879
0.21010660007596016,246.427,-18.543,57.835,28.763,117.978,170.217,-14.912,-4.53,-0.427,-2.073,-5.502,7.04,17.711,-4.187,-3.003,-14.924,11.901,36.334,-0.309,-3.01,4.956,3.769,283.765,166.455,-60.403,51.702,6.598,426.52,132.285
0.21019989997148514,213.905,-10.839,60.851,47.177,99.417,201.298,-29.754,-8.111,6.746,-4.633,-0.374,8.058,8.984,0.428,22.103,-14.397,10.864,52.179,19.159,-3.007,3.927,6.84,283.993,144.26,-46.51,32.695,39.379,393.818,164.941
0.22511909995228052,181.416,-4.169,73.598,25.101,121.859,184.703,-39.458,-6.054,10.325,-2.579,6.799,4.976,5.389,0.428,25.667,-11.309,8.804,52.127,20.677,1.606,-4.274,-0.852,286.271,111.84,-46.464,32.15,14.236,393.424,166.313
0.22520159999839962,204.288,-8.775,86.332,20.977,149.914,164.538,-49.665,-5.023,5.192,-4.626,-1.917,4.459,9.482,-3.159,-3.56,-20.007,-0.939,19.799,-2.91,-1.981,-1.708,-6.486,296.743,126.585,-67.422,24.433,-7.295,397.129,136.945
0.24016520008444786,225.088,1.48,70.876,41.961,125.685,168.472,-64.984,-6.555,1.088,-6.67,-9.087,4.454,5.886,1.455,1.566,-20.499,-9.135,-11.472,-13.666,-9.664,6.491,4.279,308.742,136.192,-66.842,10.064,19.353,385.461,160.886
0.24025929998606443,221.789,16.335,56.973,20.914,98.92,149.348,-67.481,-3.475,1.599,-3.59,-3.955,2.913,5.88,1.454,24.106,-9.72,-3.49,4.421,5.303,-2.994,3.922,11.959,304.847,117.613,-50.894,30.547,-9.868,413.765,170.459
0.255204499932006,237.449,5.048,65.113,-10.357,96.259,124.608,-64.852,1.139,-0.452,-3.074,-1.39,5.984,12.534,-0.085,15.885,-7.149,2.661,27.983,20.667,5.718,3.406,5.799,309.665,135.939,-53.917,59.205,-42.134,446.139,138.014
0.25530069996602833,225.941,-9.814,64.023,5.535,83.355,137.803,-72.984,2.163,0.061,-5.12,-3.95,10.076,10.985,9.137,4.086,-7.654,-0.928,17.709,19.622,3.151,12.112,8.355,342.143,148.61,-55.912,41.728,-9.304,417.516,151.196
0.2701719000469893,193.44,-2.632,61.91,19.361,88.907,144.838,-89.817,2.673,6.209,-4.603,-0.36,9.042,9.437,8.616,8.181,-8.159,-3.488,7.445,22.676,3.66,13.125,15.519,353.584,116.186,-47.659,18.632,23.493,384.823,183.832
0.2702570999972522,199.906,1.982,80.803,5.51,121.606,131.373,-89.215,-1.428,7.74,-3.061,4.251,6.471,16.087,-1.127,4.074,-15.323,-1.436,13.585,18.555,6.73,7.988,9.356,320.955,109.923,-57.858,28.347,-8.806,388.024,152.397
0.2861621999181807,232.494,-10.828,77.649,14.213,132.243,148.148,-59.412,-5.525,3.121,-3.058,1.686,5.44,12.997,3.485,-1.053,-15.82,1.64,6.4,-3.493,-1.986,7.468,6.785,288.359,142.6,-67.534,22.171,-27.753,380.976,119.97
0.30023159994743764,214.331,-17.99,45.296,20.347,100.348,160.295,-57.816,-1.421,5.679,-7.153,0.659,3.898,3.251,10.654,13.293,-7.607,0.101,-1.291,-9.637,-4.033,7.461,12.413,287.046,130.675,-43.388,1.657,5.063,366.763,140.854
0.30177000002004206,181.841,-11.312,40.127,-11.949,90.001,127.859,-90.033,1.142,4.649,-10.732,3.732,4.406,7.346,6.032,18.402,-8.624,-7.584,7.419,-0.406,6.217,2.842,9.839,294.955,101.342,-26.95,14.463,-6.213,395.085,139.177
0.31541369995102286,210.348,-4.64,72.875,-17.572,95.546,108.264,-93.529,-3.47,-4.577,-10.209,-2.419,6.451,13.486,-0.121,-0.571,-11.689,-10.65,1.264,-6.041,6.211,2.327,6.756,296.197,109.95,-49.465,26.231,-38.482,412.109,113.422
0.3155104999896139,212.7,-1.562,76.901,15.233,81.106,133.771,-92.411,-1.417,-2.523,-9.687,-9.077,4.395,7.325,-1.658,-0.058,-10.653,-5.516,-18.717,-12.182,-2.505,5.399,8.798,289.753,104.717,-59.662,10.324,-9.754,379.421,133.289
0.33037579990923405,180.211,0.489,64.528,21.878,83.074,141.322,-122.033,1.658,7.213,-7.116,-1.383,0.805,3.219,-1.656,14.286,-15.253,-3.461,-13.576,-4.998,-2.502,3.856,5.203,280.242,84.633,-41.159,15.436,13.822,360.086,149.037
0.33047050004824996,188.74,-5.659,84.444,-10.42,115.779,129.91,-94.246,-3.979,4.644,0.064,4.254,1.316,6.802,-1.655,-11.343,-14.726,-1.409,7.443,-0.894,-0.963,2.828,3.149,295.843,110.676,-38.556,27.716,-13.345,371.509,116.612
0.3453416998963803,219.802,-14.363,92.556,-17.069,119.249,134.903,-61.364,-2.951,2.078,-3.01,-4.972,5.413,7.308,-2.165,-37.972,-7.026,5.765,9.484,-2.943,-5.06,8.461,5.707,312.966,141.303,-45.69,-1.513,4.087,346.035,100.614
0.3454239000566304,202.164,-8.201,60.188,-8.343,95.052,131.182,-93.578,4.737,5.662,-13.253,-10.09,7.457,4.227,3.472,-15.905,-5.995,4.735,-0.259,-0.378,-3.518,6.915,4.677,294.722,124.768,-32.837,-22.004,36.871,327.246,115.883
0.3603328000754118,208.622,1.029,49.37,-23.704,102.641,115.169,-125.76,3.708,1.558,-8.629,-6.494,5.913,6.784,8.592,-2.569,-6.501,-5.516,1.791,0.647,3.658,-0.264,6.209,282.645,110.811,-29.73,0.048,4.559,359.706,98.349
0.36187119991518557,233.004,-3.583,63.665,-14.971,111.248,136.571,-92.846,0.63,-4.079,-1.448,-7.0,5.907,12.412,2.435,-19.473,-1.371,-6.023,3.838,-3.452,3.142,1.273,10.301,292.608,124.02,-46.606,1.584,-16.451,362.933,72.635
0.37542350008152425,200.496,-8.19,50.793,16.807,85.521,169.222,-63.552,2.166,1.561,-6.57,-4.943,7.438,11.888,-2.178,-6.133,-2.907,-3.455,-1.289,-6.01,-2.497,5.883,7.73,286.168,111.089,-50.146,-14.811,8.669,330.294,82.296
0.37551679997704923,168.02,-3.059,43.57,-0.116,89.534,161.368,-57.853,1.14,6.17,-7.076,3.771,4.869,8.802,-2.176,9.242,-11.101,-10.112,3.323,-4.98,-0.445,2.803,4.648,285.369,88.436,-46.51,4.159,4.049,345.845,91.948
0.39043079991824925,200.64,-6.642,66.068,-32.391,122.232,133.03,-25.008,-1.423,2.578,-2.458,4.279,2.815,9.305,-5.76,-23.042,-12.115,-10.614,12.029,-1.389,0.068,2.8,6.18,307.113,109.352,-65.419,16.45,5.07,365.48,89.806
0.39052790007553995,226.567,-15.857,56.781,-15.452,107.765,136.483,-26.519,-1.422,1.038,-3.992,-2.385,6.91,7.759,-7.291,-27.63,-4.93,-0.357,3.308,0.662,-8.642,4.847,6.686,305.781,133.834,-79.698,-2.009,37.853,333.351,106.623
0.4058058999944478,208.922,-6.619,29.572,6.08,75.382,131.223,-58.768,0.629,5.136,-3.988,-1.87,6.391,3.141,-3.697,5.185,-0.314,-0.869,-4.892,-2.412,-11.195,1.256,6.68,288.57,122.429,-63.224,12.85,45.499,348.899,108.565
0.4058982999995351,234.328,2.609,47.473,-2.123,93.238,107.526,-58.197,2.678,4.618,-2.447,-0.844,3.823,4.675,-3.694,2.618,-3.9,-10.602,1.26,-8.045,-6.06,0.742,4.111,289.306,122.307,-54.964,35.891,13.179,381.338,76.181
0.4204502999782562,246.389,-10.201,67.405,28.618,117.223,131.497,-25.351,-1.424,1.027,-7.056,-6.991,6.893,10.305,-5.227,-29.66,-10.556,-7.518,-0.278,-9.062,-7.079,4.84,3.083,289.529,136.529,-72.328,7.166,0.358,351.243,79.179
0.4221423000562936,213.867,-16.851,54.53,58.815,105.835,164.153,-20.203,-5.008,3.588,-7.049,-6.984,4.837,6.196,-7.271,-17.334,-13.107,-1.363,-2.839,-4.442,-8.609,2.786,8.203,287.19,117.949,-77.891,-2.575,27.51,318.616,111.888
0.4355121001135558,212.629,-5.564,63.185,26.481,99.581,141.447,-48.872,-3.466,6.146,0.131,-1.341,-0.803,3.116,-9.313,0.614,-15.143,-1.874,7.922,1.198,-1.428,1.246,7.682,300.735,114.245,-70.64,30.215,19.797,351.085,118.948
0.435605299891904,245.204,-6.07,77.466,1.351,102.043,123.375,-30.38,-3.463,2.041,-0.382,-2.877,4.321,9.261,-4.693,-26.027,-16.153,4.276,9.451,-1.365,-1.939,7.392,3.064,306.582,146.919,-66.984,35.308,20.802,383.522,86.554
0.4505576000083238,225.491,-12.724,50.237,34.138,91.695,144.256,-36.497,-2.947,0.502,-7.041,-4.923,8.415,7.203,0.947,-27.026,-10.501,11.956,-1.317,-8.024,-8.597,7.897,7.159,296.541,163.678,-51.035,2.997,53.569,350.863,97.226
0.45065629994496703,192.99,-0.928,32.256,44.35,92.116,137.964,-68.736,1.667,3.063,-7.034,-0.82,4.82,-1.002,0.434,5.789,-7.929,8.87,4.32,-9.553,-6.027,0.717,6.127,293.683,131.239,-39.713,12.216,54.54,350.512,129.916
0.4655369999818504,225.585,4.196,56.302,38.67,107.905,121.433,-44.077,0.128,1.011,-2.417,-2.356,6.352,6.172,-2.64,12.443,-13.044,7.837,23.271,-11.08,-2.947,0.716,-2.588,296.976,128.034,-63.752,32.183,22.21,382.949,110.831
0.4656342000234872,258.147,-8.104,71.102,70.907,104.211,145.39,-11.245,-5.507,0.498,-2.414,-8.501,7.371,16.412,-4.687,-10.111,-14.568,8.854,24.785,-13.118,-10.116,2.253,0.488,295.654,148.398,-83.668,15.757,18.602,379.493,85.105
0.48056649998761714,225.613,-5.534,63.347,67.762,90.275,161.638,-40.435,-4.99,4.083,-4.973,-4.907,2.24,11.784,-5.707,-0.367,-13.529,-3.45,3.243,-3.884,-11.131,-0.311,9.71,301.506,128.782,-67.191,9.082,20.12,366.818,107.049
0.4821097000967711,201.822,1.643,64.82,35.419,93.258,147.132,-72.67,-3.96,-1.044,-3.944,0.221,1.213,7.674,-7.75,8.343,-16.077,-11.132,-7.519,9.44,-2.41,3.275,11.237,318.623,105.599,-55.341,19.319,-10.126,391.042,123.848
0.4955907000694424,223.649,-9.629,71.928,42.043,92.653,136.739,-53.13,-3.956,-4.117,-1.891,0.221,4.798,9.716,-7.742,-15.232,-12.475,2.2,17.079,15.066,0.666,6.858,8.664,324.965,122.912,-56.822,4.442,2.692,376.818,125.773
0.49568090005777776,210.105,-9.107,69.807,52.247,76.166,118.671,-55.126,-0.366,5.621,-4.45,-0.291,6.33,5.608,-0.562,-16.241,-5.29,12.443,43.702,23.76,-2.408,-0.321,6.094,317.467,137.134,-49.593,-15.542,35.477,344.166,149.214
0.510634700069204,215.018,6.271,72.298,35.801,76.09,91.4,-69.928,0.659,8.177,-4.958,0.221,6.836,3.04,4.561,3.755,-8.359,6.283,39.048,35.52,-0.357,-1.858,6.6,331.494,124.189,-53.13,-1.694,3.166,367.388,138.306
0.5259227999486029,247.591,-0.907,80.423,47.036,87.797,107.19,-39.632,-0.366,-0.028,-1.367,-3.365,5.805,8.161,-0.566,-4.958,-16.035,1.666,27.738,28.824,2.205,7.878,9.667,356.266,117.405,-78.179,13.164,-29.113,395.71,105.892
0.5260081999003887,226.851,-13.202,72.658,58.772,77.463,139.871,-33.957,-2.927,-0.54,-3.415,-6.436,6.312,9.689,-0.566,-14.174,-14.994,0.128,21.563,6.766,-0.871,7.87,6.584,326.196,113.189,-79.126,1.881,3.704,374.31,123.717
0.5406369999982417,194.349,-3.967,65.925,31.561,72.262,127.948,-66.198,-6.511,1.51,-6.485,-3.355,7.33,7.63,3.533,-5.451,-10.369,-6.532,6.172,-7.585,-0.87,-0.847,3.503,293.594,94.633,-50.87,0.854,36.488,363.689,156.381
0.5407199000474066,210.548,-0.889,82.253,23.333,95.244,95.545,-84.063,-2.918,-2.59,-0.331,1.259,6.81,10.184,-3.643,-21.839,-8.821,-3.964,1.555,-1.43,5.278,2.228,7.598,299.961,98.637,-38.011,17.247,9.812,367.424,130.097
0.5557709001004696,243.126,-10.622,83.196,43.802,90.026,95.961,-58.363,4.257,-0.026,-0.331,0.233,9.877,12.736,-6.201,-40.773,-8.812,5.773,14.873,13.941,5.273,14.009,13.738,332.449,128.764,-50.781,7.496,12.876,334.781,97.691
0.5558617999777198,223.415,-4.976,52.886,39.659,61.759,100.476,-66.502,-0.358,7.146,-7.503,-1.816,9.355,7.6,4.564,-13.067,-9.828,-0.892,4.612,13.415,-0.368,14.507,15.262,344.924,115.315,-60.464,-13.516,45.651,313.442,103.229
0.5707247999962419,190.916,4.763,51.809,27.837,80.652,82.957,-92.563,-7.017,4.577,-8.007,-1.302,-1.413,0.932,1.486,8.463,-12.38,-18.822,-24.082,-10.165,3.731,6.808,9.611,312.303,82.925,-66.039,-16.064,13.33,345.916,84.171
0.5708184998948127,208.656,-2.414,79.422,39.592,109.773,87.485,-88.372,-4.961,-1.575,-10.049,-4.887,-3.461,4.517,-6.713,-6.915,-14.929,-19.316,-20.984,-21.426,7.314,4.752,5.503,284.327,87.965,-73.145,-26.294,-18.959,360.427,60.008
0.5857428000308573,209.472,-11.633,74.219,49.286,81.999,113.525,-87.259,-3.419,-1.573,-13.112,-5.907,4.74,11.685,0.979,-5.371,-14.402,-3.927,5.677,-0.912,2.696,5.259,10.62,311.707,117.591,-60.777,-32.416,13.847,327.791,92.736
0.5858416000846773,176.987,-9.06,55.189,45.651,61.425,111.875,-96.906,-2.391,-1.572,-5.415,0.759,3.71,6.55,0.465,1.806,-9.264,2.224,12.844,12.921,4.742,0.643,10.097,318.055,102.616,-32.539,-2.669,46.109,321.316,125.431
0.6007332000881433,173.224,-7.002,66.917,46.117,86.466,102.029,-84.001,0.685,-6.181,-3.36,0.758,-1.416,1.421,-10.294,-25.348,-8.231,-3.925,-0.489,-2.461,5.25,1.667,2.403,298.782,100.977,-25.846,8.604,13.788,334.314,93.03
0.6008180000353605,197.641,-10.069,72.998,44.022,95.089,109.612,-79.818,-0.34,-4.638,-10.017,-4.366,2.171,5.518,-2.599,-38.13,-12.321,-5.458,-8.173,-15.778,-4.489,7.813,5.986,297.458,133.151,-36.067,-21.118,22.995,310.414,60.661
0.6157466999720782,187.198,-10.059,59.605,25.023,90.383,111.039,-94.083,-0.34,4.076,-6.421,-0.775,4.218,5.0,7.138,-16.575,-10.259,-3.404,-6.116,-10.127,-5.509,4.219,7.005,297.161,120.722,-38.08,-28.27,54.223,289.611,66.748
0.6158453000243753,182.4,-6.463,64.156,11.678,106.687,107.854,-68.374,0.173,4.072,-5.902,-0.774,3.189,2.434,-0.554,-17.583,-8.2,-5.962,-0.474,-5.506,0.131,-1.42,-2.223,289.691,94.986,-46.751,-23.631,23.43,303.666,47.214
0.6308220000937581,203.734,-3.382,70.752,31.134,95.821,120.554,-47.813,-3.926,-0.031,-13.581,-11.02,5.748,10.628,-4.652,-29.861,-13.315,-3.394,5.674,-3.452,-4.479,3.704,0.853,303.746,118.458,-64.123,-43.075,5.476,299.776,29.236
0.630917799891904,193.284,-2.354,46.091,46.984,63.45,124.532,-80.041,-1.361,0.994,-9.469,-7.423,5.742,14.716,-2.086,-14.462,-9.715,0.707,9.255,3.724,-3.963,6.262,11.098,318.812,126.024,-60.985,-32.785,38.258,291.792,61.994
0.6458105999045074,178.746,-6.963,33.237,15.174,66.973,105.452,-89.182,2.739,-1.056,-2.799,5.905,2.15,6.504,-5.157,-17.009,-0.996,-3.904,6.172,4.233,3.726,1.645,7.501,304.148,103.356,-51.19,0.035,37.195,324.288,78.839
0.6612084999214858,201.109,-14.128,55.745,-13.018,94.058,94.076,-56.305,-4.436,-4.129,-6.382,2.825,4.71,6.498,-5.665,-47.73,-4.581,-7.486,-3.056,-4.481,-1.913,4.205,4.419,291.036,114.011,-53.188,-1.502,37.158,329.599,50.583
0.661302600055933,194.248,-10.528,58.763,10.049,97.038,101.666,-62.909,-4.431,2.023,-4.327,-6.912,8.291,7.516,-3.097,-34.875,-10.212,-1.331,-7.664,-7.038,-9.596,9.324,9.026,295.869,121.582,-53.135,-33.776,69.909,296.994,55.655
0.6613562998827547,164.34,-2.32,37.7,28.482,101.552,111.298,-95.121,2.745,4.582,-1.761,-2.294,3.672,-2.226,-5.656,-2.052,-9.177,-0.817,-3.558,-4.469,-2.414,3.679,6.455,296.597,99.431,-57.692,-38.353,43.711,293.623,64.309
0.6758721000514925,196.963,-4.88,44.322,25.892,111.696,113.749,-79.145,-3.405,-1.058,-7.907,-0.242,-1.967,-1.711,-8.212,-13.833,-13.267,-8.501,3.618,-4.977,2.199,-0.423,1.838,301.424,113.676,-79.152,-16.285,11.392,326.117,31.969
0.6759744000155479,229.554,-11.535,58.11,53.531,92.117,112.61,-46.278,-7.5,-0.544,-7.899,-7.414,0.084,7.512,-8.204,-43.533,-15.815,-5.931,8.738,-1.386,-1.389,5.725,5.935,315.979,145.326,-84.196,-14.22,44.168,328.865,38.085
0.6908996000420302,197.049,-11.523,41.658,68.334,70.508,108.399,-75.433,-0.833,2.018,-3.793,-6.382,6.232,2.382,-4.609,-26.584,-8.627,0.735,4.118,2.714,-0.363,3.158,9.515,312.077,128.786,-61.058,-3.447,76.912,304.458,70.834
0.7059981999918818,175.847,-8.95,43.153,35.99,82.221,105.729,-106.096,-3.393,-1.57,-4.813,-1.765,4.689,1.355,0.519,-12.725,-7.594,-2.34,-6.645,-2.924,0.662,-2.993,6.431,295.884,119.948,-49.726,25.246,44.56,330.281,79.473
0.7061014000792056,208.459,-7.916,72.824,20.073,98.02,119.968,-73.202,-6.976,-1.056,-3.784,-5.862,0.073,11.599,-1.531,-33.204,-14.246,1.761,-10.224,-9.581,-6.511,3.67,5.913,297.125,152.616,-58.385,16.511,12.24,350.955,47.118
0.7209067998919636,196.468,-5.347,66.604,52.84,96.897,141.365,-53.149,-1.334,4.068,-4.293,-5.856,0.585,7.489,-3.579,-31.634,-12.695,15.591,-5.091,-8.035,-13.165,8.277,6.931,307.074,156.05,-62.425,-15.268,45.015,318.329,54.243
0.7210019999183714,163.996,-2.78,38.872,67.644,101.923,135.076,-85.372,-1.845,5.088,-7.874,-0.727,1.609,-2.764,2.06,-8.549,-11.145,12.502,0.55,-8.027,-6.491,-1.977,3.338,307.791,123.618,-62.363,-15.253,51.118,299.567,83.903
0.7348877000622451,196.62,-0.728,46.518,45.035,111.043,115.986,-84.262,-6.966,1.497,-6.33,-8.411,-0.442,1.849,0.009,-12.126,-14.208,-5.441,6.185,-6.482,1.2,-5.562,-0.251,310.557,124.519,-70.497,-6.016,18.791,332.056,63.327
0.7365133999846876,229.211,1.834,58.255,58.31,91.977,120.993,-86.739,-5.934,-1.578,-7.86,-15.063,2.633,5.946,-5.627,-15.7,-10.607,-6.973,13.351,2.746,-2.9,1.104,4.872,318.956,146.936,-68.378,-8.06,47.462,350.679,59.165
0.7499432999175042,206.952,2.857,49.999,42.883,59.609,123.433,-112.267,-3.367,-1.064,-7.852,-3.777,6.729,5.428,1.039,4.295,-3.937,6.354,26.657,0.694,-9.557,1.103,7.429,314.026,143.715,-48.842,17.564,72.005,360.574,89.332
0.7500352000351995,199.573,2.342,65.319,10.564,42.644,108.965,-90.638,1.76,-2.088,2.914,0.325,6.21,11.058,3.599,2.242,-4.958,15.569,40.975,-13.139,-10.572,-4.021,-1.8,299.367,139.986,-49.817,41.625,39.658,388.391,88.218
0.7649910999462008,203.984,-0.222,86.258,26.435,56.433,119.615,-65.445,3.295,-1.574,2.399,-6.847,5.179,11.559,-3.576,-22.351,-10.588,15.042,41.959,-4.416,-12.611,-4.017,-5.897,300.605,145.993,-75.895,9.308,37.057,369.559,81.982
0.7650866999756545,171.505,-2.271,77.975,59.197,73.283,130.253,-96.63,-3.881,5.6,-11.948,-3.766,4.149,3.863,0.013,-17.206,-14.676,7.854,36.794,19.667,-5.938,-1.964,0.257,315.161,129.453,-78.381,-22.977,69.807,336.914,108.54
0.7809514999389648,181.579,-0.22,76.36,28.911,75.259,97.848,-103.706,-5.414,6.619,-10.399,-0.689,1.583,3.859,3.599,2.791,-15.173,-0.351,31.122,14.524,3.802,-2.987,-1.793,322.018,115.492,-64.47,-6.048,37.462,363.73,109.968
0.781038099899888,214.186,-4.83,73.722,-3.393,59.302,80.844,-71.326,-1.31,-3.633,-2.192,-5.811,2.606,7.441,-0.503,-5.408,-9.523,-3.424,15.209,-2.909,-2.35,-0.422,-2.303,328.869,141.504,-72.09,14.451,5.149,396.154,82.194
0.7949896999634802,189.893,-14.559,44.447,23.25,27.48,100.743,-77.915,-0.796,-4.654,-8.338,-3.756,7.727,6.921,6.158,-14.112,-1.316,3.239,13.657,17.074,-5.934,7.775,11.019,344.421,159.806,-69.969,2.653,23.075,369.63,95.944
0.7965359000954777,157.428,-8.909,52.087,18.104,9.009,93.982,-101.403,3.303,3.035,-8.329,0.858,9.768,6.914,9.226,-14.61,1.246,10.408,46.431,49.844,6.88,8.792,16.643,354.835,142.227,-51.456,2.65,37.909,339.546,118.902
0.8101826999336481,152.659,2.37,84.823,-7.017,32.054,78.519,-90.544,6.373,3.544,3.975,-2.729,8.734,8.957,-5.128,-40.723,-4.903,9.886,61.754,52.356,11.996,2.635,9.967,365.239,134.4,-72.922,1.111,8.157,339.719,87.02
0.8102782000787556,185.294,-5.829,75.516,25.778,50.465,96.884,-75.596,-1.83,1.491,2.946,-3.751,8.213,9.972,-5.123,-51.953,-13.095,8.339,30.954,29.25,3.275,9.805,13.543,386.903,142.463,-99.489,-31.166,11.223,307.104,61.83
0.8250784000847489,180.498,-16.069,43.165,50.343,28.385,97.299,-78.594,-4.39,1.49,-5.766,1.889,4.618,9.45,9.227,-19.114,-12.057,8.331,9.406,14.364,2.759,16.968,18.652,382.93,133.611,-72.749,-43.43,43.999,274.521,74.576
0.8251712000928819,180.318,-6.319,52.856,18.017,24.258,68.512,-87.737,0.738,-3.122,-4.736,1.374,0.003,5.855,2.557,-0.139,-5.385,1.15,15.032,9.226,5.318,5.168,6.851,350.272,120.67,-56.283,-20.845,34.733,307.035,50.423
0.8400888000614941,206.265,2.396,74.832,6.216,40.628,65.882,-104.556,-2.337,-6.705,-5.756,-7.336,0.003,4.312,-8.716,-29.853,-7.429,-7.56,6.82,2.045,1.727,0.552,0.696,324.306,116.963,-83.891,-29.533,2.423,339.515,18.097
0.8401816000696272,194.788,-0.68,61.95,31.825,13.435,74.526,-132.116,-7.457,-2.6,-11.898,-12.964,1.54,5.332,-1.023,-31.872,-13.057,-11.139,-17.266,-2.056,1.725,12.847,10.429,342.937,98.915,-94.053,-47.947,8.569,306.9,50.866
0.8550740999635309,162.318,1.882,63.425,18.985,-7.583,66.767,-155.55,-7.45,-2.598,-11.373,-8.341,-0.511,4.814,0.515,-18.008,-12.019,-16.763,-27.494,-4.615,4.797,12.321,13.493,346.18,71.152,-90.373,-30.48,10.097,277.392,83.603
0.8701267000287771,148.323,3.417,81.292,14.356,25.212,81.044,-140.537,-8.467,-8.743,-9.313,-4.746,-3.584,4.81,-10.244,-35.409,-12.007,-16.747,-23.881,-13.832,1.206,1.038,5.282,313.559,72.618,-94.893,-30.45,-21.164,298.119,51.244
0.8702227999456227,143.564,-6.832,66.866,37.395,35.946,112.214,-107.609,-8.459,-9.246,-11.865,-7.303,-3.068,3.78,-9.209,-39.472,-16.093,-5.459,-18.734,-19.966,-4.943,0.525,2.716,285.068,97.648,-71.232,-55.01,-14.483,272.206,18.918
0.8851785000879318,130.613,-8.362,47.332,20.964,13.88,101.856,-109.038,-3.839,-4.626,-11.341,-3.197,-0.504,0.703,-1.515,-25.6,-10.954,0.182,-7.957,-12.261,-2.889,3.598,3.225,301.177,111.383,-38.373,-41.123,18.319,253.49,46.051
0.8852802999317646,163.27,-0.157,59.067,-10.82,18.99,69.479,-126.86,-1.786,-3.085,-9.28,0.392,3.083,4.288,-0.489,-46.579,-2.234,-4.941,3.834,-7.638,1.725,4.619,-0.877,320.856,112.296,-39.36,-16.491,30.596,286.025,54.714
0.9005752000957727,195.895,-2.206,56.959,9.683,10.774,73.508,-119.561,-0.76,-4.619,-12.857,-10.879,5.642,9.407,-2.025,-63.951,-1.207,-4.936,-0.268,-13.779,-1.863,4.102,-0.363,305.678,108.085,-45.468,-30.307,34.152,285.739,29.044
0.9006725000217557,163.423,1.382,29.75,37.85,-16.389,93.414,-133.786,0.778,-6.151,-12.332,-13.942,3.074,4.787,-3.56,-38.272,-1.206,-2.882,-10.514,-13.765,-6.984,-0.513,2.199,283.343,90.559,-39.787,-31.301,36.167,253.177,23.892
0.9152210999745876,135.083,11.115,36.38,20.906,6.681,85.636,-139.288,-1.785,-5.12,-2.586,-0.096,-0.003,3.757,-1.507,-34.135,-3.254,-6.978,-5.893,-7.091,0.707,0.0,2.196,294.331,80.734,-51.53,-0.531,5.905,278.027,24.893
0.9153100999537855,167.736,-2.729,67.082,9.615,39.462,84.526,-106.361,-6.394,-0.504,-2.583,-0.096,2.559,11.438,1.568,-65.864,-10.423,-4.922,2.31,-5.035,6.342,7.685,5.268,316.066,98.584,-69.41,-8.728,3.337,293.631,20.769
0.9302656999789178,157.834,-15.534,59.33,27.536,31.225,102.884,-94.983,-3.826,3.595,-9.241,-9.829,6.143,7.328,-3.557,-59.65,-10.413,1.743,1.283,-2.98,-1.349,6.653,8.337,313.7,105.146,-73.439,-40.994,36.122,261.062,41.241
0.9303651999216527,138.721,-1.686,34.168,19.311,24.022,90.486,-127.164,2.326,2.054,-4.621,-4.184,5.624,-3.438,-8.164,-26.803,-2.205,-0.82,-0.767,0.096,-4.421,1.011,4.742,308.776,94.282,-70.804,-14.826,58.627,277.195,52.983
0.9452961999922991,171.37,3.951,39.257,4.947,32.195,66.317,-130.111,3.348,-1.534,-0.005,-2.131,4.082,1.177,-6.106,-29.85,-1.178,-4.405,-0.254,-6.051,-1.855,2.546,1.151,315.639,115.192,-64.073,17.977,26.293,309.705,22.703
0.9453968000598252,191.691,-6.299,43.829,37.73,19.867,85.206,-97.193,-1.266,0.517,-9.227,-10.838,3.053,6.298,-4.051,-44.165,-7.325,-0.815,-2.815,-12.705,-3.903,4.593,2.687,310.713,142.23,-59.398,-8.681,12.947,299.662,24.73
0.9602123000659049,159.224,-2.194,32.002,70.48,12.163,109.199,-122.711,-4.851,3.59,-12.291,-8.265,-1.049,0.144,-0.973,-25.165,-10.904,-3.888,-5.374,-8.082,-3.387,2.027,5.758,299.644,115.96,-64.974,-37.362,37.012,267.087,57.493
0.9602979000192136,150.355,3.443,48.876,38.134,31.106,102.43,-121.051,-4.846,0.0,-4.082,-4.159,-1.048,2.706,0.052,-18.992,-11.405,-11.056,-4.856,-5.0,-2.359,-0.024,3.191,303.955,88.179,-75.667,-4.537,34.926,276.041,54.362
0.9752648000139743,182.992,-4.245,79.053,6.845,45.419,112.062,-88.143,-2.792,-3.074,-4.078,-11.327,1.515,8.851,-7.12,-41.002,-11.394,-5.922,-2.29,-10.118,-10.041,3.05,-1.423,310.311,120.879,-84.813,21.595,22.083,288.573,22.032
0.9753431999124587,163.342,-2.703,64.117,39.626,40.251,133.979,-89.079,-2.789,-1.021,-10.222,-10.803,-0.536,0.133,-9.162,-36.863,-10.87,5.355,1.811,-8.059,-12.08,5.096,1.14,310.001,153.545,-83.192,-2.505,18.475,279.575,39.941
0.9904920000117272,130.903,3.447,32.802,28.316,37.649,113.865,-121.265,-1.249,-2.557,-9.699,-4.645,-1.048,-2.941,-5.054,-25.043,-7.273,7.911,0.784,-5.489,-4.896,0.992,4.213,310.715,150.318,-74.399,-9.674,-13.819,285.443,72.688
0.990617899922654,142.555,-3.729,39.429,-3.988,35.05,85.062,-129.341,1.826,-8.19,-8.153,-8.738,4.077,6.796,-5.049,-49.609,-1.63,6.366,-6.901,-15.73,-5.403,-2.083,-1.939,306.306,133.262,-77.399,-8.128,-29.174,279.522,44.951
1.0054111001081765,175.2,-6.287,61.931,28.804,23.744,101.371,-112.305,1.312,-4.596,-11.218,-12.828,6.122,5.764,-1.971,-47.51,-3.678,9.946,-5.87,-21.862,-6.935,-2.593,-2.962,299.852,119.296,-79.37,-19.39,3.643,264.386,12.631
1.0055120000615716,207.813,4.478,65.456,61.563,28.844,129.958,-94.775,-1.764,2.581,-8.646,-10.254,3.554,1.66,1.105,-14.675,-10.847,11.473,11.042,-14.155,-3.341,-5.664,3.189,303.138,99.709,-69.557,-6.051,34.378,296.909,34.135
1.0203956998884678,226.048,1.912,62.316,29.226,52.893,128.292,-65.478,-2.786,-1.007,0.585,-6.145,1.501,9.343,-5.556,-16.197,-12.885,5.314,26.913,-10.555,-5.9,-2.585,0.624,310.52,102.683,-79.222,9.324,2.068,329.4,59.716
1.020492000039667,210.453,-11.41,60.717,3.069,44.643,112.282,-84.881,-4.833,-4.08,0.072,-2.041,2.524,11.383,-6.575,-48.456,-12.872,1.722,24.837,-11.569,-11.017,6.64,-2.451,317.894,129.22,-89.901,-11.177,-7.156,320.361,92.444
1.0359221000690013,183.602,-4.738,57.07,30.218,18.983,101.411,-117.071,-4.316,2.071,-9.15,-0.502,6.108,3.174,0.604,-39.186,-8.249,5.819,17.64,-4.897,-7.42,2.022,2.675,325.261,131.653,-61.122,-21.925,25.639,296.987,125.139
1.0360427999403328,193.665,6.025,63.161,-2.088,33.821,89.526,-110.806,2.861,2.582,-5.042,0.011,8.151,3.171,-0.934,-24.802,1.494,10.936,32.991,10.477,0.272,-9.763,0.111,323.911,127.423,-46.716,-8.07,4.609,312.571,107.084
1.050455099903047,226.259,-2.69,70.27,-19.504,44.546,85.338,-77.908,4.395,-2.032,2.135,-0.501,7.118,8.804,0.604,-40.147,-2.094,17.073,64.721,25.323,4.371,-8.729,-6.037,312.828,160.083,-78.945,-19.333,-27.671,323.53,74.701
1.0505552000831813,227.057,-4.737,56.88,13.303,13.251,100.11,-78.342,-1.757,2.069,-4.527,-5.624,6.087,9.819,10.85,-23.201,-12.85,20.13,66.194,26.323,2.829,-1.548,-0.396,308.929,170.169,-94.235,-41.855,-9.713,307.837,87.946
1.0654714999254793,194.555,3.465,50.163,13.29,15.287,110.768,-98.756,-2.78,4.116,-7.084,-5.618,5.056,8.273,8.79,-3.197,-10.276,8.839,33.852,16.562,3.339,1.528,6.265,323.477,137.723,-69.55,-34.641,1.568,303.431,100.154
1.0805484000593424,175.405,-7.81,71.117,-18.999,48.059,104.51,-92.51,-1.24,-2.548,-0.929,-0.489,4.539,8.777,-2.49,-35.469,-7.704,-3.466,9.74,8.861,7.434,5.113,6.771,337.499,112.483,-65.382,-20.774,-30.709,301.078,71.364
1.080644499976188,206.48,-21.634,73.095,-11.295,32.642,105.942,-83.708,-3.288,-4.595,-4.515,-4.075,6.071,8.768,-2.487,-59.512,-12.307,-1.925,7.168,0.655,5.89,6.644,8.813,324.353,145.158,-70.952,-26.389,2.109,268.501,83.588
1.0954869000706822,194.491,-8.292,46.382,21.504,1.871,102.25,-90.797,-2.773,0.533,-7.072,-4.071,6.065,4.661,1.101,-26.665,-9.221,4.737,9.21,-1.907,0.761,5.101,6.755,319.931,150.136,-52.95,-35.584,34.895,241.593,116.293
1.095580100081861,175.853,5.036,47.873,5.601,14.676,75.508,-94.804,-1.745,3.606,2.157,5.155,4.01,3.119,-1.461,-13.319,-6.138,5.244,17.398,12.44,2.297,9.194,3.162,352.398,127.956,-52.385,-41.696,2.585,274.139,83.901
1.1105502001009881,204.367,0.42,64.731,-2.09,24.396,71.334,-100.345,-2.256,3.09,0.618,1.563,4.518,7.214,-1.972,-32.261,-12.28,2.678,24.041,15.501,2.807,11.746,5.721,364.341,132.951,-79.485,-59.585,-29.693,306.653,51.542
1.1123480999376625,196.99,-2.142,53.396,10.72,17.199,92.78,-112.028,-1.741,4.112,-11.678,-7.66,4.001,3.621,2.641,-23.519,-15.341,-0.399,13.258,-5.007,-2.319,3.538,1.104,331.702,122.06,-76.844,-72.333,1.075,274.071,67.884
1.1255614999681711,164.518,2.471,54.879,9.173,24.866,86.027,-104.743,-4.301,0.009,-11.154,-5.091,1.948,1.056,3.15,-9.663,-13.789,-0.399,6.073,-10.637,-1.805,-4.663,-5.557,299.094,95.81,-44.492,-57.916,-6.611,244.595,88.821
1.1256556999869645,184.845,0.419,83.001,5.065,20.231,75.182,-92.855,-5.321,-7.675,-4.483,-6.11,3.483,11.813,-3.001,-31.171,-13.263,6.774,16.313,1.157,-1.803,-2.096,2.646,327.997,116.207,-31.639,-43.001,-30.683,270.478,63.629
1.140584799926728,185.173,-6.241,71.648,-1.6,-11.04,92.526,-113.767,-0.193,-4.082,-6.528,-8.665,5.016,11.801,-5.047,-44.972,-8.639,10.354,18.346,1.668,-6.924,3.541,10.327,340.477,145.804,-33.657,-43.471,2.136,260.986,62.541
1.1406839999835938,152.712,-6.235,41.35,-24.652,-20.763,84.236,-132.097,1.344,2.07,-6.521,-0.972,0.4,-0.506,1.106,-37.242,-5.556,1.122,3.983,-9.092,-2.819,5.074,4.682,325.792,125.679,-25.426,-35.23,30.823,232.548,83.995
1.155959599884227,163.318,-3.667,58.727,-43.583,6.41,56.487,-110.96,-1.731,-6.129,-5.49,-3.02,-1.649,2.569,3.154,-49.5,-11.186,-5.539,-3.194,-17.28,4.869,1.483,-0.446,332.638,104.548,-33.598,-38.269,-1.484,241.025,51.636
1.156056399922818,195.942,-1.102,70.451,-30.732,21.773,75.899,-109.824,0.32,-7.66,-13.169,-14.288,2.451,11.788,1.614,-54.062,-12.2,-0.923,0.908,-15.726,0.765,-0.568,0.067,333.33,115.715,-57.13,-70.506,-3.531,234.636,19.309
1.1706189000979066,170.643,2.998,38.105,-10.209,4.845,102.975,-141.99,1.344,2.082,-14.693,-8.639,2.449,7.677,3.149,-24.806,-4.503,1.639,2.956,-4.439,0.252,0.458,0.579,322.238,112.525,-50.413,-62.751,29.26,222.106,52.077
1.1721284000668675,166.374,1.97,31.92,-24.543,-3.869,86.99,-147.996,-0.194,-3.556,-4.432,0.079,-0.628,6.133,-0.44,-30.929,-2.961,-2.973,-1.145,-3.923,8.449,2.506,3.652,327.551,96.019,-32.432,-29.901,7.714,254.672,70.468
1.1856358998920768,198.996,-10.327,59.552,-40.4,6.381,84.342,-115.06,-1.219,-11.749,-2.891,-6.068,2.447,9.2,-8.636,-63.173,-7.057,-4.507,-8.828,-14.165,4.854,3.529,6.722,326.199,103.607,-36.498,-28.334,0.021,263.126,38.122
1.185728200012818,181.378,-13.391,51.296,-24.478,4.837,104.238,-95.477,-2.754,-0.979,-8.523,-8.624,8.08,4.58,-5.042,-57.475,-4.488,-3.478,-13.43,-12.102,-3.86,3.525,4.667,312.041,108.627,-29.802,-60.581,32.809,230.588,67.798
1.2006558999419212,158.655,1.992,33.826,-28.552,7.394,88.764,-127.657,0.835,4.658,-4.928,-3.492,4.485,0.99,0.599,-24.63,-1.41,-6.036,-15.466,-10.04,-1.807,3.009,2.613,311.729,90.587,-15.94,-46.688,39.949,236.505,94.37
1.200755399884656,191.284,5.576,52.748,-41.331,36.076,74.331,-142.386,6.469,-1.495,-3.387,-4.513,-1.154,5.087,-4.525,-29.216,-5.507,-7.567,-14.426,-22.326,-1.292,3.518,3.122,315.515,97.157,-44.101,-29.223,7.633,269.056,62.0
1.2156555999536067,216.196,-6.213,56.793,-8.502,42.7,99.872,-109.456,1.852,1.581,-9.531,-7.583,0.896,5.594,-6.057,-41.994,-11.649,-4.485,-9.289,-22.303,-8.463,3.515,2.095,317.761,121.138,-76.332,-56.346,4.552,262.639,52.717
1.2157487000804394,183.704,-6.206,30.096,24.294,20.628,104.895,-110.371,-2.761,4.653,-9.009,-9.112,3.457,-1.071,-2.465,-19.923,-13.687,-4.481,-4.156,-7.424,-6.918,-0.587,0.556,326.153,108.209,-74.206,-58.851,37.335,244.958,85.452
1.2306673000566661,173.787,-1.589,34.677,-8.006,23.681,82.249,-141.512,-0.709,-2.524,-5.414,-8.591,1.916,-1.582,-5.537,-17.342,-10.599,-8.575,-2.615,-6.904,0.774,-2.123,1.58,327.364,99.904,-64.398,-28.054,22.441,262.132,94.075
1.2321748998947442,206.401,-6.711,61.282,-32.589,29.805,96.511,-109.095,-1.733,-4.571,-8.482,-6.533,3.451,7.128,-8.605,-41.403,-5.978,-3.956,-4.15,-14.07,-1.276,3.514,3.627,322.426,129.006,-61.772,-25.976,3.975,270.066,75.026
1.2457002000883222,194.411,-4.143,57.635,-0.281,13.382,121.517,-86.957,-2.243,-0.98,-7.962,-6.014,6.522,7.634,-4.498,-34.701,-3.923,6.807,-10.293,-12.006,-6.911,4.023,2.087,324.152,132.975,-54.026,-30.049,27.025,256.989,94.931
1.2457898000720888,161.941,5.083,47.844,-17.186,21.565,112.174,-108.386,0.321,-3.541,-1.806,-6.008,2.417,1.478,-3.469,-13.15,-4.431,8.849,-13.357,-14.556,-8.953,-1.616,-2.526,321.267,118.498,-62.169,-12.088,14.19,258.269,74.344
1.2607525999192148,188.42,3.029,60.603,-37.149,45.622,111.55,-89.323,-2.241,-3.025,-3.341,-7.539,0.877,3.014,-1.416,-20.821,-8.013,4.742,-6.171,-22.226,-10.481,-1.615,-4.573,321.458,146.556,-81.062,-21.298,5.979,265.183,41.994
1.2767370999790728,221.019,-0.561,58.494,-4.324,38.916,128.857,-59.52,-2.751,5.688,-9.998,-9.068,4.975,5.572,3.196,-23.874,-12.615,5.249,2.032,-15.031,-6.884,0.436,-1.494,334.456,157.68,-72.784,-45.867,38.761,264.405,74.74
1.2768329998943955,224.384,1.489,43.066,9.512,26.582,108.748,-86.1,2.375,4.145,-6.914,-6.498,4.458,2.493,-1.93,-6.432,-10.041,3.707,4.592,-2.209,1.832,-3.151,0.556,340.782,125.247,-55.293,-20.718,38.722,294.367,107.453
1.2907549999654293,230.82,1.488,54.294,-22.773,27.068,76.364,-118.289,2.884,-7.13,1.29,-5.466,1.892,8.638,-10.125,-13.598,-4.396,-3.469,7.149,-4.768,-1.756,-0.586,1.58,337.879,134.343,-60.873,12.09,6.408,326.86,81.73
1.2908501999918371,241.347,0.974,70.633,-16.09,18.331,91.144,-122.782,0.832,-5.586,0.776,-6.998,6.5,14.777,-1.918,-35.613,-3.879,3.195,19.437,-17.059,-13.025,5.562,3.116,334.468,166.997,-65.423,-12.0,26.382,319.361,91.894
1.3057868999894708,208.83,-1.076,64.927,16.714,21.387,107.447,-106.265,1.856,5.69,-5.884,-0.843,9.055,8.102,7.305,-26.868,-6.949,17.024,41.959,-17.554,-11.475,1.971,0.039,327.986,149.411,-52.55,-44.264,59.143,286.766,124.59
1.3058831999078393,185.568,-2.612,66.399,-15.578,47.493,86.335,-82.08,-0.195,5.172,-5.878,3.256,3.411,3.996,-0.386,-18.132,-10.016,11.884,51.139,-4.216,-5.316,-3.154,-6.109,331.244,116.987,-51.985,-37.559,26.808,290.066,108.072
1.3207807999569923,218.17,2.001,72.48,-44.252,47.446,79.589,-87.121,-2.244,0.044,-3.823,-5.969,1.871,8.603,-5.509,-29.897,-10.518,1.113,31.62,5.009,-4.798,1.46,-4.566,348.331,136.337,-77.548,-47.256,-5.494,302.583,75.688
1.3208832999225706,222.05,1.999,54.477,-11.42,15.123,95.903,-118.285,-0.193,1.069,-7.918,-9.037,3.918,4.495,4.743,-20.646,-5.897,3.674,15.707,10.64,-0.183,2.483,4.66,353.618,147.984,-81.569,-72.824,6.295,280.764,100.716
1.3357748999260366,189.553,-4.15,43.664,-10.384,-3.335,88.635,-120.728,1.345,-0.982,-7.91,-2.368,4.426,1.929,6.787,-4.231,-2.305,4.695,28.499,20.875,6.99,-2.643,7.217,352.24,131.442,-48.7,-42.012,19.608,296.877,129.304
1.3358720000833273,187.826,-6.195,63.088,-42.649,20.234,81.886,-102.677,3.392,-5.079,-1.755,-5.439,8.52,10.124,-2.954,-27.793,-4.352,3.153,43.839,29.564,5.446,2.995,8.747,375.966,142.069,-39.942,-9.183,-10.637,321.683,96.899
1.3508667000569403,208.131,-6.702,77.882,-29.286,40.706,99.735,-100.013,3.389,0.561,0.809,-7.483,12.098,13.188,-0.389,-52.356,-5.885,10.322,39.185,35.169,2.879,16.824,15.398,408.378,155.759,-69.103,-41.449,-2.942,289.086,97.315
1.3509637000970542,192.041,-6.695,75.243,3.531,33.493,100.148,-96.326,-1.737,7.221,-0.729,3.283,7.475,10.613,10.37,-34.885,-8.44,12.361,28.899,36.159,5.95,17.32,14.87,419.24,137.673,-76.207,-73.683,29.849,256.522,130.005
1.3658348999451846,188.775,-0.541,75.167,-9.28,38.071,88.264,-85.472,-5.322,3.115,-2.777,4.817,1.832,13.677,1.65,-17.944,-14.579,2.103,18.624,14.094,2.87,6.544,5.122,386.545,121.141,-62.298,-57.215,10.863,288.54,97.6
1.3659312000963837,206.517,2.022,63.821,-27.714,51.865,98.422,-93.583,-4.292,1.063,-6.361,-5.434,2.343,9.564,-9.11,-18.951,-15.589,-0.973,4.261,-9.999,-3.793,3.464,2.043,353.884,121.02,-61.724,-69.454,-18.861,297.986,65.227
1.3808762000408024,195.552,-0.542,37.63,-24.1,27.735,91.664,-117.568,-1.726,5.16,-6.867,-4.916,3.365,-1.716,0.121,-8.686,-9.426,1.077,-0.354,-4.354,0.822,4.997,4.09,350.456,113.727,-52.953,-90.389,12.408,275.659,89.752
1.3809714000672102,185.111,4.582,46.814,-29.712,-4.569,59.297,-124.623,0.325,0.544,-3.274,-1.325,1.825,1.36,3.194,-9.19,-5.831,-7.121,4.257,1.798,8.505,3.455,4.598,379.307,94.145,-42.141,-57.511,24.179,297.924,114.253
1.3958584000356495,194.659,6.626,79.555,-33.268,-0.466,59.75,-112.715,-3.774,-8.165,-5.32,-11.058,1.823,10.068,-10.129,-34.283,-8.386,-13.262,-12.141,-15.11,3.886,3.452,6.13,368.169,75.608,-61.567,-44.645,-8.121,305.311,81.864
1.3959540999494493,162.189,2.521,73.327,-20.427,5.17,92.478,-118.238,-9.405,-6.108,-10.437,-14.121,-0.228,4.422,-9.094,-33.737,-13.501,-10.175,-36.72,-22.779,-3.29,4.473,7.149,335.526,69.385,-72.264,-76.876,1.109,272.73,79.22
1.4113344000652432,129.752,4.056,45.59,-29.116,6.19,90.336,-137.075,-6.835,-1.491,-7.353,0.75,-4.326,-3.267,1.161,-15.772,-14.0,-9.14,-22.851,-14.047,-2.262,2.932,2.019,337.239,79.049,-51.699,-69.627,33.896,258.113,103.732
1.4114375999197364,155.75,2.515,58.352,-58.288,28.725,63.606,-123.618,-2.217,-2.514,-5.809,4.848,-1.248,1.859,-4.475,-38.81,-8.35,-5.544,8.935,-9.422,2.351,2.929,-1.057,359.956,101.0,-40.377,-45.991,3.636,280.397,71.353
1.4259438998997211,188.382,-8.246,62.392,-58.742,27.672,68.665,-113.76,-3.752,-1.487,-14.0,-9.501,6.438,5.956,-7.032,-59.264,-6.293,4.195,7.902,-7.364,3.373,3.438,3.555,362.67,122.928,-33.676,-76.684,3.632,265.772,45.154
1.4260392999276519,176.41,-6.189,30.054,-42.802,-4.631,75.256,-145.922,-0.674,1.076,-13.986,-11.029,6.431,3.901,6.295,-32.052,-4.237,5.215,-4.914,-2.233,1.833,1.898,7.137,353.598,123.317,-13.663,-64.824,36.416,266.53,77.896
1.4399492000229657,180.332,4.063,27.975,-48.907,1.521,64.423,-162.17,4.45,-4.048,-3.214,-0.772,3.863,6.971,6.288,-28.946,-0.135,-4.011,-0.298,-5.305,2.343,2.408,4.568,346.584,102.702,-14.161,-31.971,22.035,299.052,86.015
1.4549469000194222,199.619,-3.625,51.513,-41.686,30.721,86.388,-129.22,0.347,-9.167,-3.723,-1.796,5.909,13.112,-6.526,-61.193,-5.258,-8.106,-2.347,-12.984,3.366,1.893,3.539,341.627,91.84,-35.152,-48.846,-10.262,293.629,53.654
1.4550421999301761,167.144,-13.868,43.264,-11.93,29.153,119.089,-96.303,-4.777,-1.474,-7.817,-4.355,4.878,10.537,-6.007,-52.935,-10.888,-2.462,-9.517,-8.36,0.801,1.379,6.61,345.896,87.138,-39.215,-81.072,22.536,261.06,73.58
1.469956000102684,150.071,-4.12,34.512,-25.238,31.173,99.502,-128.482,-0.673,9.799,-1.662,-0.252,-0.762,5.403,-1.39,-23.168,-4.729,0.102,-3.872,-2.204,-3.299,3.427,4.554,355.284,85.001,-44.811,-62.036,55.301,265.41,106.294
1.4700464999768883,182.709,5.106,48.31,-57.489,45.487,67.127,-160.629,0.864,4.666,-1.66,-4.351,-0.249,3.861,-7.024,-34.416,-3.7,-5.534,0.743,-10.911,-6.881,2.911,-0.574,357.49,109.507,-69.869,-35.334,22.97,297.932,73.913
1.4849551999941468,210.703,1.514,37.503,-36.426,28.535,84.479,-127.681,-2.21,-7.122,-8.319,-9.982,2.313,-0.754,-8.554,-35.406,-8.307,-5.016,-1.82,-14.487,-11.998,2.908,1.476,355.084,133.476,-74.923,-47.594,1.942,305.831,46.686
1.486512300092727,178.217,3.562,16.973,-7.701,12.625,103.349,-129.09,0.353,-3.529,-5.236,-5.873,3.847,-1.265,-3.422,-2.583,-3.688,-1.425,-0.793,-7.3,-8.399,5.467,4.036,349.093,116.437,-50.257,-42.423,34.728,298.353,79.427
1.5000094000715762,172.916,5.095,35.399,-26.648,32.593,86.34,-146.379,2.402,1.598,-3.694,-5.867,4.868,6.421,-2.907,-11.802,-3.684,-9.62,-3.866,-12.928,-1.219,-0.174,-1.091,342.596,99.926,-47.645,-29.573,31.62,307.789,89.082
1.5001062001101673,201.432,-2.594,62.516,-17.4,40.245,102.135,-113.445,-2.723,-4.039,-11.375,-12.009,0.765,7.951,-5.465,-44.065,-16.488,-14.734,-8.986,-17.526,-5.316,-4.784,-2.627,344.303,109.048,-73.213,-40.814,2.899,287.501,73.111
1.5150138000026345,179.201,-2.079,58.355,12.843,25.86,134.821,-87.204,-3.745,-4.035,-11.364,-7.899,-2.822,1.795,-4.947,-26.603,-17.496,-5.497,-6.927,-5.213,-10.946,-0.169,0.962,349.594,102.791,-74.164,-37.699,23.388,260.061,103.777
1.5151039001066238,154.944,0.997,46.001,-19.445,36.592,113.681,-115.294,-2.717,-1.469,-1.619,-1.743,0.767,2.818,-8.016,-9.158,-5.183,-2.418,-3.847,-5.208,-4.787,-0.169,0.961,353.343,108.836,-53.085,-13.071,30.025,289.515,112.382
1.5299879000522196,187.576,-6.177,42.882,-47.09,47.826,83.341,-114.154,-3.226,-5.054,-1.617,-7.377,2.815,6.402,-10.57,-38.35,-2.104,-2.416,-1.794,-18.01,-5.295,-1.705,0.448,358.625,141.515,-54.569,-13.57,28.97,320.476,79.994
1.5300733998883516,216.078,-4.634,34.642,-14.255,27.286,101.701,-99.695,0.363,-1.463,-8.788,-11.98,3.837,2.297,-2.875,-36.775,-3.639,5.784,-0.767,-12.869,-11.95,3.932,3.009,358.266,152.644,-57.076,-29.438,61.729,299.663,97.845
1.5454357000999153,211.763,5.617,35.119,1.128,25.722,99.55,-119.063,5.998,4.686,-6.217,-6.333,6.907,2.294,2.251,-3.95,-0.049,8.852,-4.865,-4.659,-5.79,0.854,-0.068,350.736,120.216,-45.236,-20.699,59.618,306.024,130.535
1.5470658000558615,220.261,2.025,55.064,-31.148,50.799,74.86,-118.944,1.381,-0.954,-0.576,-4.277,4.851,11.001,-5.436,-8.045,-3.635,9.355,-4.86,-13.876,-1.686,-3.758,-2.63,348.848,114.46,-61.585,-2.748,27.283,338.505,98.641
1.5600850000046194,226.188,-6.174,65.255,-5.502,42.039,97.839,-95.259,-3.743,-3.002,-3.649,-7.859,1.772,13.552,-10.041,-37.238,-11.316,14.469,1.805,-17.961,-11.418,5.468,3.521,355.159,147.134,-82.528,-12.991,29.817,330.482,92.395
1.5601796000264585,200.347,-4.63,55.969,24.218,20.481,117.721,-97.725,-0.666,3.661,-6.719,-0.679,4.844,4.829,-2.859,-25.93,-10.793,4.721,2.315,-7.184,-10.894,5.974,7.103,363.001,132.642,-57.342,-28.348,62.575,305.561,125.09
1.5751336999237537,197.073,-4.114,55.4,-8.082,39.415,85.328,-103.775,1.384,1.096,-3.126,4.957,3.815,1.238,-0.806,-17.195,-6.171,-5.018,11.535,-3.079,-3.199,-3.765,0.949,368.786,115.603,-36.28,-20.122,40.483,338.043,142.896
1.57522809994407,229.663,-7.183,58.931,-40.349,46.036,63.213,-107.258,-1.691,-4.541,-1.074,-6.319,2.274,8.922,-1.83,-35.109,-4.116,10.869,34.065,-8.711,-5.245,0.337,-1.614,366.368,148.275,-58.273,-26.25,8.167,346.927,110.478
1.5901784000452608,220.724,-4.102,49.138,-7.521,13.715,91.839,-124.569,0.872,-0.438,-4.147,-11.435,6.883,10.45,6.881,-25.34,-3.087,20.079,42.74,4.618,-2.678,2.386,2.998,359.341,156.836,-65.9,-56.962,19.43,314.304,110.367
1.6052310999948531,179.307,2.563,36.242,55.475,-23.167,141.321,-124.815,7.528,5.194,-8.234,-5.26,11.987,5.304,20.691,10.05,-3.594,15.419,50.843,50.191,11.157,-4.793,9.648,359.142,132.948,-58.075,-83.97,44.995,290.654,128.077
1.6201229998841882,174.517,-4.1,49.014,50.296,8.62,137.081,-91.902,1.885,0.578,-6.689,-6.279,9.926,8.373,14.522,-2.767,-7.689,8.231,46.693,54.751,8.072,0.847,11.175,372.103,122.569,-67.751,-58.271,12.675,320.59,115.654
1.6219218000769615,181.515,-9.219,51.014,42.561,8.611,131.821,-124.086,-3.752,2.115,-8.219,-14.47,11.453,13.487,13.995,-25.306,-8.706,11.809,22.568,22.421,-1.67,9.555,12.701,363.021,129.106,-82.028,-75.118,17.785,287.994,124.247
1.6351970001123846,157.767,1.037,46.864,27.662,-6.767,127.078,-156.237,-0.675,3.137,-11.285,-8.308,8.88,10.4,14.494,-20.158,-6.136,10.261,4.615,9.079,1.918,2.886,9.102,350.363,110.534,-67.089,-96.048,50.555,255.431,141.029
1.6352864000946283,175.54,10.77,58.088,13.802,1.949,112.607,-123.293,0.351,0.06,-8.199,-4.713,7.334,11.414,5.77,-21.162,-5.105,11.275,19.467,25.976,4.99,5.444,8.068,377.677,117.596,-53.702,-75.46,44.357,286.426,108.613
1.6502408999949694,208.152,3.586,50.858,27.108,-4.201,100.199,-90.382,-1.699,4.671,-4.093,-9.831,10.401,11.403,3.715,-28.313,-6.125,14.337,26.108,29.024,-2.187,17.222,15.233,410.087,143.606,-64.919,-74.872,36.628,299.972,76.229
1.6503337000031024,177.206,-0.516,20.581,39.889,-28.787,100.099,-122.567,1.377,10.302,-8.699,-6.748,4.755,3.707,12.42,-3.182,-9.192,4.589,5.077,12.088,-2.185,13.106,15.217,385.599,115.285,-79.199,-107.072,55.034,268.933,87.936
1.6656170999631286,144.753,10.756,31.831,20.381,-18.0,100.511,-154.72,-0.162,2.607,-13.301,-5.716,0.14,5.24,10.871,10.654,-11.745,-7.198,-4.662,0.806,9.088,3.872,4.444,352.938,82.895,-79.632,-110.039,22.704,270.714,80.675
1.6657157998997718,172.273,9.72,64.587,15.75,4.56,103.484,-132.024,-8.871,-2.007,-9.702,-14.932,7.312,12.919,2.663,-20.608,-13.27,-0.531,5.589,1.317,7.03,4.892,2.902,344.9,99.206,-71.868,-97.634,-9.594,286.837,55.492
1.680277399951592,180.298,-7.196,46.592,48.522,-13.376,116.701,-99.104,-7.325,5.168,-6.618,-12.868,9.866,6.759,4.198,-34.42,-10.695,16.375,16.854,11.05,-2.711,6.937,12.121,352.752,131.894,-52.328,-100.61,23.203,265.545,88.224
1.6818393000867218,147.842,-8.213,14.27,37.715,-33.855,106.338,-107.714,0.879,4.65,-6.1,-3.634,5.245,1.117,9.829,-22.09,-3.512,18.408,16.325,13.6,4.976,6.93,13.133,346.764,136.373,-24.099,-85.14,55.968,251.96,116.825
1.6952808001078665,157.94,3.066,36.285,5.402,-21.013,73.956,-139.882,1.903,-3.551,-8.655,-8.753,6.265,7.775,7.257,-39.998,-0.435,7.631,1.964,-0.246,12.143,7.947,6.46,347.442,107.547,-23.562,-70.71,23.636,262.466,84.433
1.710293099982664,190.57,2.551,49.056,-0.751,-12.795,82.591,-154.086,1.389,-1.499,-14.282,-19.503,8.82,9.305,4.176,-55.328,-4.02,3.525,-9.309,-7.418,0.86,6.915,6.454,341.971,96.169,-51.204,-97.28,18.49,246.835,52.073
1.7103879998903722,164.252,-0.013,16.731,32.037,-18.93,115.296,-151.371,3.437,3.626,-13.755,-17.434,9.323,6.221,10.32,-26.583,-3.504,5.059,-4.689,-2.287,-1.19,4.346,10.546,324.723,92.999,-52.689,-109.99,51.259,233.268,84.809
1.7104422999545932,156.915,5.622,15.69,37.64,-7.64,116.206,-154.293,4.458,-0.476,-7.594,-10.244,9.314,9.289,14.408,-18.36,-1.451,2.492,5.05,1.813,9.058,2.293,7.974,333.108,84.197,-36.243,-77.092,23.543,264.798,83.187
1.725315900053829,189.546,1.518,43.851,11.987,4.15,111.991,-121.351,3.429,-3.549,-7.586,-9.209,6.231,11.841,6.197,-50.104,-5.548,1.977,9.143,8.472,5.462,3.827,6.941,354.292,91.285,-51.063,-62.671,-8.756,276.316,51.853
1.7254198999144137,180.135,-8.218,29.975,19.66,-5.588,126.736,-88.442,1.376,0.553,-11.165,-9.713,6.737,6.706,-3.543,-55.177,-4.006,7.098,8.109,13.586,-1.203,8.434,11.545,350.351,99.391,-64.845,-84.637,24.04,243.764,84.589
1.7403522001113743,159.463,-1.037,16.113,10.931,-6.607,113.802,-119.092,2.399,3.114,-9.104,-7.141,8.267,3.626,-0.978,-37.704,2.658,9.653,5.027,8.45,-0.69,6.889,9.484,344.878,94.168,-48.386,-88.139,56.804,234.299,117.292
1.7553787000942975,192.091,8.186,42.737,-16.232,11.331,93.708,-151.249,7.008,1.574,-6.021,-5.597,3.136,7.721,3.121,-41.764,0.094,7.082,5.022,2.806,-4.275,2.784,5.376,350.681,108.419,-49.874,-74.218,24.472,264.803,84.899
1.755470999982208,203.682,4.079,42.182,16.572,13.369,120.254,-129.58,6.488,1.572,-8.577,-8.665,2.62,7.713,3.118,-29.94,-6.566,8.099,3.993,1.778,-4.783,3.805,7.42,344.695,125.729,-70.317,-74.656,8.054,266.587,72.007
1.7555259999353439,171.203,5.612,9.864,49.343,0.035,145.237,-125.865,-0.178,5.157,-10.617,-11.218,8.253,0.021,6.701,2.878,-6.047,7.067,1.94,3.313,-0.167,1.24,4.339,341.276,105.623,-77.931,-76.631,35.71,267.858,90.378
1.770368600031361,180.253,10.729,18.051,23.678,-2.014,123.575,-135.985,-2.227,3.102,-11.119,-13.256,4.659,-0.492,6.182,-6.859,-5.529,0.912,11.159,7.409,-0.68,-0.81,-0.276,353.742,98.857,-87.075,-67.845,11.084,300.378,76.967
1.7704606999177486,212.86,0.472,44.673,2.65,-4.061,115.767,-103.061,-1.2,-4.073,-13.67,-17.854,1.58,7.706,-3.046,-39.127,-8.597,3.985,19.857,7.913,-1.191,4.314,6.896,357.487,128.985,-90.574,-59.58,1.339,300.077,91.747
1.7854001000523567,199.328,-5.163,30.796,25.701,-17.377,135.631,-91.175,-1.711,-3.045,-11.607,-17.324,8.239,4.624,-2.018,-32.94,-6.539,13.202,11.128,5.856,-2.215,2.772,12.012,350.47,129.88,-63.331,-45.688,34.125,267.502,124.443
1.7854979000985622,167.365,5.6,19.495,1.085,-13.261,121.663,-123.359,3.413,4.643,-2.886,-9.622,9.255,-2.553,6.693,-0.12,-0.897,6.529,1.383,5.85,-5.286,-1.841,4.316,347.045,118.992,-47.386,-25.15,31.017,283.628,112.536
1.801372299902141,186.666,5.595,40.992,-25.556,11.343,104.635,-118.113,8.021,4.126,-3.908,-8.075,6.172,6.671,8.223,-16.513,-0.384,1.912,2.919,-0.815,-5.793,3.796,1.238,344.137,146.537,-66.806,-36.396,13.568,307.423,80.148
1.8155131998937577,201.848,-4.657,41.463,7.257,19.528,132.195,-85.719,3.402,4.634,-13.125,-13.19,10.264,11.275,12.314,-33.915,-5.507,15.23,2.403,-3.376,-4.251,5.841,5.847,339.694,149.977,-76.474,-68.635,45.317,274.84,96.461
1.8156334001105279,189.863,-1.066,19.393,35.939,10.8,134.112,-108.175,0.325,11.29,-10.038,-12.152,10.254,1.018,12.301,-1.606,-7.551,14.19,3.938,8.923,-0.148,-0.312,5.841,344.99,117.552,-69.225,-69.079,43.223,277.639,129.153
1.8304473999887705,222.461,5.595,25.521,3.628,8.227,101.703,-108.579,2.374,7.692,-2.344,-10.091,6.145,5.115,-0.519,7.105,-6.518,-1.706,16.229,14.037,3.951,3.787,4.811,356.428,133.316,-72.229,-36.222,10.904,310.149,119.29
1.845473299967125,255.026,0.978,38.815,15.407,-1.003,110.822,-84.392,0.834,1.537,-4.903,-12.642,9.213,16.381,1.019,-18.005,-6.0,7.005,22.361,4.801,-2.713,9.931,9.417,360.17,165.97,-69.596,-33.624,25.75,320.085,128.904
1.8455713000148535,222.496,-1.072,32.117,42.032,-15.858,139.913,-108.899,2.883,8.708,-6.435,-7.507,10.228,8.68,11.264,-10.815,-5.481,23.904,22.339,2.235,-10.395,2.236,10.432,353.662,145.312,-52.62,-64.841,58.512,287.49,161.563
1.8754732999950647,189.998,3.028,45.405,9.714,4.137,121.33,-116.987,6.978,11.773,-2.33,0.185,6.632,2.011,6.13,3.54,-5.476,20.294,36.149,5.307,-5.774,-4.939,0.175,350.235,126.723,-52.055,-58.629,31.813,296.936,156.278
1.8755657998844981,222.596,4.049,66.876,-1.566,36.921,110.963,-84.082,2.873,5.101,-5.401,-5.963,7.65,8.669,5.099,-10.808,-12.13,15.663,51.482,11.449,-0.645,-2.884,-4.948,356.544,148.626,-74.032,-54.984,-0.494,313.545,123.847
1.8756194000598043,234.668,6.607,50.928,31.223,22.027,128.782,-84.51,-3.79,5.096,-12.056,-13.129,7.13,8.661,14.315,-6.699,-16.217,17.697,38.11,25.782,-1.669,-0.832,2.742,363.36,140.28,-84.204,-87.204,0.019,280.956,129.358
1.8771631999406964,202.158,7.625,30.897,11.724,-6.684,121.481,-109.017,-3.274,5.603,-9.995,-7.48,6.611,4.554,9.69,14.825,-8.516,10.507,13.481,24.219,1.919,0.193,6.837,368.632,107.865,-72.337,-83.531,-17.399,287.848,143.573
1.8904987000860274,205.542,-0.58,36.501,-20.563,1.007,113.163,-100.711,1.34,0.474,-5.886,-5.936,11.215,9.16,4.045,3.027,-3.384,5.373,14.492,9.338,3.454,6.853,4.781,379.022,118.515,-62.531,-50.66,-49.145,320.348,127.548
1.8905877999495715,203.288,-7.752,34.928,9.684,-4.117,131.493,-108.807,4.925,4.06,-11.516,-10.541,12.228,11.712,10.701,-21.054,-5.942,11.516,31.896,21.624,2.426,12.482,11.949,393.5,146.574,-61.444,-65.978,-20.407,287.752,141.765
1.9055053999181837,170.809,-1.084,36.942,24.531,-31.777,127.263,-139.436,5.432,8.667,-12.017,-4.895,11.191,11.188,11.715,-16.935,-4.912,15.09,37.5,46.706,9.083,10.42,19.622,412.574,128.496,-57.796,-96.651,12.401,255.189,174.411
1.9055985000450164,184.47,8.139,59.959,-7.769,-13.815,108.693,-127.002,0.816,3.023,-1.246,-0.792,13.229,16.3,6.58,-6.159,-5.419,10.464,31.827,37.95,10.099,9.385,16.016,427.018,109.925,-64.398,-90.919,-14.763,276.45,141.962
1.9205710000824183,217.074,5.569,55.288,7.608,18.474,115.244,-94.087,-4.82,3.02,-2.782,-9.5,8.605,14.747,7.598,-7.178,-13.098,7.892,17.451,11.784,-1.182,12.962,12.926,399.951,126.721,-80.728,-105.685,-45.999,287.957,109.544
1.9206602999474853,195.852,1.977,22.958,34.753,-2.549,116.666,-105.776,-1.741,9.164,-16.099,-9.49,3.474,3.974,11.177,-3.585,-11.548,7.372,2.576,3.575,-3.23,8.85,11.376,367.276,119.422,-75.012,-125.559,-13.166,257.955,126.853
1.9355800000485033,163.381,5.049,23.959,2.442,-24.575,90.934,-136.921,2.359,3.008,-14.034,-3.333,8.081,1.408,9.116,-4.093,-1.803,3.266,5.647,5.109,2.921,0.132,4.705,345.904,87.027,-51.883,-96.744,-5.98,272.042,159.514
1.9371478999964893,185.759,0.946,54.161,-21.126,-15.329,84.183,-126.538,-1.742,-3.655,-3.773,-12.039,10.634,10.116,2.447,-22.02,-2.826,1.726,10.765,3.567,4.455,4.23,5.212,376.809,93.088,-47.22,-79.229,-38.25,296.873,130.665
1.9509807000868022,193.77,-7.764,51.546,11.683,-25.56,105.615,-111.042,-4.814,2.496,-8.38,-19.199,6.013,11.13,1.933,-28.146,-9.995,4.798,-8.201,2.026,3.938,13.448,13.916,385.654,121.684,-59.98,-100.667,-18.231,264.301,112.091
1.951082699932158,161.301,-1.609,34.588,17.306,-35.781,110.12,-130.911,-2.76,6.592,-12.983,-8.422,1.909,2.922,6.029,-20.433,-11.01,3.257,-21.513,-3.611,2.397,9.848,11.853,363.751,99.533,-66.581,-99.029,14.575,231.761,129.91
1.9806464000139385,153.455,4.54,47.873,-14.986,-2.957,98.227,-126.682,-4.294,-0.075,-6.822,-4.827,1.907,2.407,2.949,-30.659,-8.437,1.204,-5.098,-7.706,0.858,2.666,2.62,355.703,76.38,-58.317,-90.733,-17.715,238.702,101.091
1.9957115999422967,186.089,-5.71,50.899,-16.508,16.001,106.326,-97.866,-1.728,-2.124,-7.84,-15.581,7.54,10.089,2.434,-38.313,-6.892,9.4,11.301,1.523,3.419,5.225,5.179,360.47,109.091,-39.816,-111.135,-36.653,238.463,68.714
1.9958091001026332,189.489,-5.705,18.573,5.025,-13.217,114.417,-130.043,6.982,5.051,-14.492,-16.078,11.119,10.079,14.215,-18.807,-3.299,11.952,12.315,13.305,3.927,6.244,14.907,367.282,133.06,-29.017,-112.048,-3.829,238.737,98.36
2.0106651999522,170.344,10.183,10.358,-3.689,-34.208,97.396,-162.189,6.463,2.996,-11.404,-6.84,5.985,6.483,15.737,-14.177,-1.246,3.231,9.741,10.73,2.899,1.627,15.405,372.038,107.824,-32.574,-79.149,-17.145,271.286,111.069
2.0257353000342846,180.932,8.123,34.426,-11.882,-23.928,102.422,-129.239,0.309,-5.716,-6.782,-6.833,5.979,10.575,4.451,-32.606,-3.294,4.252,6.657,3.547,4.945,4.187,9.754,361.42,94.396,-34.591,-65.749,-49.403,287.921,82.269
2.027421100065112,176.141,-6.742,34.904,7.597,-12.121,135.107,-96.322,3.383,2.487,-9.336,-10.412,10.583,11.589,5.471,-30.012,-4.316,9.883,6.65,5.08,1.354,10.331,9.232,356.96,99.937,-37.118,-82.59,-16.566,255.357,99.605
2.0411771999206394,162.132,-3.661,29.746,0.93,1.724,132.923,-119.279,6.453,14.78,-9.839,-6.304,7.499,5.942,9.564,-22.297,-4.311,3.726,12.279,10.198,-1.721,7.759,8.71,374.021,85.493,-55.524,-85.069,1.894,245.368,123.584
2.041276500094682,194.758,3.515,53.794,-22.637,20.678,109.224,-97.131,-0.213,5.543,-6.756,-3.223,4.418,4.912,1.357,-38.156,-8.918,4.747,14.828,9.163,1.354,3.653,6.14,380.82,86.432,-83.133,-76.787,-30.384,258.955,91.185
2.055742299882695,221.715,-1.1,48.618,9.661,10.411,122.434,-66.295,-3.287,-1.122,-10.335,-10.392,7.487,5.419,-2.742,-29.409,-9.934,13.963,12.252,6.593,-5.819,6.723,9.208,374.803,118.621,-92.272,-84.395,-9.349,243.839,80.335
2.055832700105384,196.391,0.438,16.294,42.439,-20.338,123.849,-98.504,2.352,7.076,-11.349,-14.481,7.992,0.29,2.896,3.408,-2.751,6.265,9.678,8.123,-8.887,6.716,9.199,373.916,125.675,-75.273,-81.749,23.448,256.403,113.042
2.077920800074935,191.584,7.61,19.863,10.121,-19.293,95.036,-124.534,3.374,2.458,-8.264,-9.343,7.984,0.803,1.868,-8.891,-1.212,-5.012,9.669,6.066,3.417,1.074,0.993,369.956,111.717,-58.292,-58.613,-8.85,288.934,111.392
2.078019500011578,220.081,4.017,52.631,-10.382,0.706,109.285,-91.621,-1.24,-6.766,-9.793,-9.334,10.537,8.486,-1.72,-41.157,-7.871,0.628,8.122,-1.113,0.34,0.048,2.016,362.926,120.314,-64.893,-57.53,-31.383,275.838,92.838
2.094634599983692,205.516,2.988,50.529,22.416,1.73,141.964,-92.042,-0.727,4.511,-8.758,-13.423,7.965,7.966,0.331,-23.185,-8.375,6.263,4.015,1.962,-10.931,1.585,9.186,360.514,118.145,-71.488,-69.255,0.924,243.286,125.533
2.0962658000644296,176.622,7.083,29.474,24.956,12.487,123.891,-124.225,2.86,14.241,-3.114,-8.286,6.42,0.273,3.405,7.576,-5.293,4.207,5.036,10.157,0.35,2.096,6.616,359.129,106.243,-65.782,-52.28,7.583,272.245,143.338
2.1007797000929713,207.184,-0.096,40.203,-0.685,32.967,102.762,-91.313,1.32,6.03,-4.648,-5.716,7.951,2.834,5.451,-16.51,-6.312,4.203,11.179,5.536,5.473,5.168,3.023,364.917,137.388,-65.716,-45.568,7.063,304.76,110.919
2.100869700079784,239.764,-4.707,48.36,14.173,14.49,118.029,-83.537,2.856,4.487,-9.767,-13.395,9.48,6.93,8.519,-30.838,-4.769,3.687,8.094,-0.105,-8.877,8.236,6.094,369.163,157.231,-61.552,-67.551,39.843,277.303,113.37
2.1182979999575764,232.352,5.544,31.918,26.454,-10.115,110.739,-115.729,11.05,10.63,-4.121,-13.894,11.52,-0.249,9.535,1.981,0.871,5.732,0.913,6.556,-6.307,2.08,6.088,358.548,124.798,-49.195,-55.701,51.074,282.661,146.044
2.178089400054887,236.73,7.588,31.373,7.472,4.752,89.111,-109.978,9.502,8.058,3.055,-7.22,10.484,0.775,5.427,9.663,0.358,14.436,5.011,6.549,1.897,0.029,5.057,356.14,122.112,-58.367,-22.857,18.748,315.166,128.48
2.178187800105661,248.789,-1.129,51.322,23.346,15.506,118.223,-85.277,-0.241,1.902,-1.559,-8.238,6.887,12.045,1.835,-10.326,-6.815,20.569,13.715,-5.753,-8.351,6.689,7.613,362.956,154.265,-76.752,-43.327,-2.275,296.92,96.076
2.1782482000999153,249.9,0.636,51.943,21.351,19.09,116.844,-85.894,-0.184,2.3,-0.249,-7.44,6.374,11.361,0.014,-9.528,-6.757,20.054,13.827,-6.663,-8.749,6.574,6.759,364.965,153.565,-76.516,-41.273,-3.869,299.05,94.528
2.1782968000043184,251.011,2.401,52.563,19.357,22.675,115.465,-86.511,-0.127,2.698,1.06,-6.642,5.861,10.677,-1.808,-8.73,-6.699,19.54,13.94,-7.573,-9.146,6.46,5.904,366.974,152.864,-76.279,-39.219,-5.463,301.18,92.981
2.179981099907309,252.122,4.165,53.183,17.362,26.259,114.085,-87.128,-0.07,3.097,2.369,-5.844,5.348,9.992,-3.63,-7.932,-6.641,19.025,14.052,-8.483,-9.544,6.345,5.049,368.983,152.164,-76.043,-37.165,-7.056,303.31,91.433
2.1800579999107867,253.232,5.93,53.804,15.367,29.844,112.706,-87.744,-0.013,3.495,3.679,-5.046,4.835,9.308,-5.452,-7.134,-6.584,18.511,14.164,-9.393,-9.942,6.231,4.195,370.992,151.464,-75.807,-35.111,-8.65,305.441,89.886
2.180101400008425,254.343,7.695,54.424,13.372,33.428,111.327,-88.361,0.043,3.893,4.988,-4.249,4.322,8.623,-7.273,-6.336,-6.526,17.996,14.277,-10.304,-10.339,6.116,3.34,373.001,150.764,-75.571,-33.057,-10.243,307.571,88.338
2.180141600081697,255.454,9.459,55.045,11.377,37.013,109.948,-88.978,0.1,4.291,6.298,-3.451,3.808,7.939,-9.095,-5.538,-6.468,17.481,14.389,-11.214,-10.737,6.001,2.485,375.01,150.064,-75.334,-31.003,-11.837,309.701,86.79
2.1801813000347465,256.565,11.224,55.665,9.382,40.597,108.568,-89.594,0.157,4.69,7.607,-2.653,3.295,7.255,-10.917,-4.74,-6.411,16.967,14.501,-12.124,-11.134,5.887,1.631,377.019,149.363,-75.098,-28.948,-13.431,311.831,85.243
2.1802199999801815,257.676,12.989,56.286,7.387,44.181,107.189,-90.211,0.214,5.088,8.916,-1.855,2.782,6.57,-12.738,-3.942,-6.353,16.452,14.614,-13.034,-11.532,5.772,0.776,379.028,148.663,-74.862,-26.894,-15.024,313.961,83.695
2.180259099928662,258.786,14.754,56.906,5.392,47.766,105.81,-90.828,0.271,5.486,10.226,-1.057,2.269,5.886,-14.56,-3.144,-6.295,15.938,14.726,-13.944,-11.929,5.658,-0.079,381.037,147.963,-74.626,-24.84,-16.618,316.091,82.148
2.180301700020209,291.315,16.276,59.411,-10.495,64.112,75.478,-120.451,-1.266,2.407,10.728,-7.716,1.242,3.831,-15.57,-28.244,-4.752,14.897,10.1,-15.467,-13.966,9.75,-4.177,385.779,180.603,-92.994,-13.545,-48.877,348.563,49.79
2.1816052000503987,282.827,-1.159,31.687,-1.263,31.772,72.328,-125.453,-1.265,4.966,-1.578,-8.733,6.364,4.851,3.913,-19.506,0.888,23.591,12.14,-9.304,-8.829,13.839,7.61,378.733,185.545,-79.069,-45.807,-16.04,321.574,65.109
2.181687399977818,250.269,2.428,33.192,4.886,26.618,81.478,-126.865,-0.239,8.547,-0.552,-3.601,6.87,5.871,-2.751,-1.556,-2.187,16.908,22.374,-2.122,-4.722,7.678,7.09,399.871,153.084,-70.281,-46.785,-5.778,292.051,97.832
2.181749700102955,260.777,8.061,65.946,5.394,55.793,80.884,-117.004,-3.312,-0.171,7.646,-7.696,6.351,8.427,-19.654,-22.047,-11.918,5.108,16.716,-4.169,-7.279,2.035,-1.114,414.328,136.537,-96.85,-18.562,-38.047,320.96,73.143
2.1818043999373913,280.496,-2.705,64.856,21.782,45.491,90.537,-91.272,-7.408,-1.195,3.539,-12.299,4.295,8.418,-15.024,-34.832,-12.931,10.738,-0.719,-17.485,-12.395,5.619,6.06,381.638,169.188,-102.901,-31.351,-24.689,312.955,44.893
2.192170799942687,247.94,4.47,46.348,24.322,32.637,97.619,-106.037,-4.839,6.491,-1.075,-6.652,-3.394,2.775,-9.886,-26.088,-10.869,13.289,-11.989,-30.275,-11.87,5.101,6.566,348.981,166.458,-71.035,-45.152,8.123,280.366,61.242
2.2058196999132633,232.323,16.761,55.011,-7.978,60.269,77.029,-138.207,1.314,-0.688,2.0,-6.645,-5.952,-1.839,-14.487,-38.357,-10.346,4.566,-15.564,-33.831,-8.272,0.997,-3.175,364.514,139.139,-59.693,-25.127,-13.402,288.795,43.763
2.2059160000644624,264.879,7.523,53.419,-29.487,70.968,61.582,-142.167,-1.761,-7.86,-0.051,-17.397,-0.823,2.261,-15.497,-49.59,-3.675,5.074,-17.085,-37.896,-9.288,4.07,-1.122,375.932,154.881,-75.515,-34.323,-43.615,301.314,11.444
2.22082949988544,272.811,7.515,29.799,3.33,51.941,79.452,-128.192,-5.858,-0.679,-5.174,-20.965,1.74,6.87,-10.358,-31.609,0.427,10.704,-19.629,-42.469,-11.841,2.529,0.416,347.38,169.071,-76.977,-59.392,-13.345,272.836,10.92
2.222332499921322,257.169,19.803,38.991,32.529,60.598,101.401,-117.818,-1.241,0.346,-0.558,-12.235,0.201,6.863,-4.2,-22.869,-6.746,9.157,-14.999,-33.205,-10.804,-5.67,-5.732,340.372,142.262,-70.752,-40.889,-21.529,286.395,26.278
2.235882299952209,276.891,14.148,63.031,25.324,75.907,114.62,-90.548,-0.728,-4.265,6.615,-7.612,0.713,8.905,-9.831,-35.141,-9.813,8.635,-2.689,-23.95,-10.793,-0.542,-1.628,360.012,135.972,-76.317,-25.992,-49.172,315.823,13.956
2.235977000091225,261.245,7.474,43.5,39.131,56.876,132.436,-72.014,-5.85,1.887,3.022,-12.728,1.737,8.896,-20.068,-32.544,-5.705,9.651,-3.198,-27.512,-13.344,10.217,2.472,357.603,154.279,-68.043,-39.798,-16.335,285.793,25.726
2.2509141000919044,228.709,16.688,26.55,32.944,47.597,129.742,-85.775,-3.795,5.471,-0.055,-12.715,1.735,3.764,-18.511,-28.413,-5.187,4.519,-12.929,-29.534,-14.355,2.523,-3.166,348.536,146.44,-52.606,-25.926,16.469,278.847,58.487
2.2510110000148416,261.268,18.208,51.627,0.636,71.116,98.874,-99.009,0.307,-1.707,2.507,-5.018,-0.828,3.761,-19.005,-45.804,-5.182,1.44,-10.867,-33.603,-16.903,-5.165,-3.675,354.847,145.781,-63.312,-7.457,-12.236,311.356,42.035
2.266867300029844,293.794,4.87,44.403,14.467,56.188,90.066,-103.521,-1.742,-3.242,0.455,-6.55,-0.827,4.269,-20.522,-42.684,-2.615,9.636,-9.319,-40.229,-20.984,4.062,-1.11,352.443,174.837,-71.446,-32.552,-33.741,292.09,9.718
2.266954299993813,261.225,2.816,12.083,47.241,23.856,96.636,-119.811,-2.253,0.347,-1.083,-10.641,3.784,-1.883,-9.743,-9.853,-2.1,11.163,-17.507,-37.628,-18.914,3.546,-4.182,340.308,165.953,-54.468,-47.377,-15.264,267.719,21.491
2.2799076999071985,228.688,20.231,37.686,30.287,33.566,83.731,-122.765,-1.738,-2.215,3.529,-8.069,3.268,-1.369,-12.808,-4.721,-7.733,-3.193,-16.977,-36.053,-14.284,-9.778,-8.789,337.918,133.512,-68.758,-25.812,-26.52,300.239,24.031
2.281593600055203,261.247,20.723,70.436,-0.482,66.32,93.894,-94.465,-4.298,-4.262,3.526,-12.672,-2.883,7.342,-29.701,-36.991,-12.849,-4.214,-10.812,-39.603,-16.319,-7.207,-8.78,342.703,145.161,-100.965,-21.688,-53.133,305.062,10.175
2.2950281999073923,270.72,-3.888,43.214,25.647,50.885,126.588,-79.002,-4.806,-2.72,-0.064,-18.295,-1.343,3.236,-20.962,-45.151,-9.762,11.159,-14.387,-30.342,-19.889,3.047,-2.624,347.996,177.804,-82.421,-23.203,-27.465,272.481,42.952
2.295119700022042,242.272,-2.86,10.895,23.059,18.559,107.506,-87.632,0.322,-3.742,2.498,-8.543,3.269,-4.452,-8.133,-12.318,-1.043,10.636,-16.935,-26.213,-16.795,-1.567,-1.597,348.673,183.774,-49.551,7.558,5.35,293.726,75.697
2.310011199908331,273.793,18.148,41.623,-9.239,51.328,75.123,-84.47,3.395,-4.251,4.544,-3.923,1.729,4.262,-15.297,-25.114,0.495,-0.133,-15.381,-41.044,-14.729,-5.152,-8.255,343.713,189.738,-63.333,17.285,-2.34,326.22,43.346
2.310105999931693,299.647,11.982,52.852,17.922,77.916,101.688,-90.021,2.367,1.901,0.441,-14.165,1.727,10.406,-12.721,-43.019,-4.629,9.088,-16.902,-42.027,-19.325,2.026,-5.685,344.394,203.38,-84.787,-15.008,-6.948,299.766,23.323
2.3249929000157863,267.072,8.384,23.597,50.692,48.125,122.078,-117.083,-0.197,4.973,-0.071,-13.127,2.238,3.223,-3.486,-10.189,-8.722,18.813,-16.885,-28.665,-20.843,0.487,-0.556,347.636,176.537,-84.702,-32.412,2.793,281.023,56.087
2.325082200113684,277.563,26.818,25.623,40.908,51.15,101.464,-104.159,-1.221,-0.667,5.052,-4.917,0.187,4.244,-12.192,9.802,-9.226,15.208,-13.282,-31.711,-16.724,-6.686,-8.24,346.776,150.745,-95.888,0.409,-17.702,313.53,56.031
2.339996200054884,310.073,19.619,44.04,30.108,70.567,106.998,-74.341,0.829,-3.74,9.145,-8.498,3.26,13.974,-17.303,-22.484,-9.217,21.853,-4.56,-41.925,-18.244,-0.531,-7.208,354.626,178.771,-102.965,20.388,-37.152,333.708,33.946
2.3415286999661475,282.099,3.718,38.361,35.201,44.881,122.772,-106.542,0.829,0.362,8.111,-9.002,5.818,10.886,-11.65,-25.535,-7.671,34.639,13.376,-40.346,-26.935,6.641,1.509,359.394,200.622,-87.492,-0.637,-20.209,313.395,66.699
2.3550913000945,249.541,16.01,47.032,2.891,43.812,100.108,-138.711,0.828,1.386,5.542,-1.308,0.177,1.654,-13.176,-0.919,-3.052,31.018,30.268,-32.109,-27.42,-0.538,-8.739,347.764,193.761,-82.282,-8.833,-18.652,321.791,95.322
2.355186600005254,274.907,19.068,73.112,-29.388,71.432,83.102,-105.784,1.852,-0.152,6.049,-4.893,1.202,6.775,-14.699,-23.459,0.025,30.987,47.144,-22.343,-20.733,-8.222,-20.001,346.904,213.547,-96.544,-15.484,-39.126,324.03,73.197
2.3700671000406146,281.292,11.364,69.966,3.43,48.819,101.974,-78.526,-0.2,4.459,5.53,-13.085,6.324,11.379,-11.099,-28.559,-5.098,40.178,65.54,-13.099,-20.2,-9.238,-11.784,356.803,226.141,-108.231,-47.744,-36.013,291.431,68.001
2.385008499957621,250.272,23.648,50.94,25.968,26.229,112.118,-92.792,-0.199,7.016,1.939,-11.535,1.194,3.171,-10.063,4.257,-10.216,28.867,61.376,-4.377,-17.618,-10.766,-6.649,354.397,193.64,-106.586,-50.77,-53.907,299.336,79.204
2.385095400037244,265.904,22.6,52.426,-6.334,47.72,100.735,-82.966,2.875,-0.676,-0.625,-8.962,-1.881,2.143,-10.053,3.741,-9.182,12.956,40.31,12.021,-6.33,-9.73,-5.618,366.851,181.151,-96.745,-17.932,-86.129,331.825,59.145
2.4004460000433028,283.569,-1.501,56.472,-5.303,39.987,96.024,-66.489,1.335,-3.237,0.4,-10.49,4.781,12.387,-7.993,-28.538,-7.123,22.677,37.196,28.916,-2.737,-2.036,4.122,399.272,212.22,-91.013,-12.791,-67.6,314.587,73.43
2.400526799960062,251.01,-2.012,46.682,20.83,10.746,95.416,-84.865,1.334,3.939,3.474,-6.893,6.825,12.375,-7.985,-34.658,-3.53,32.901,47.405,31.961,-8.37,3.601,10.778,420.901,208.934,-84.774,-45.053,-34.744,281.997,106.144
2.4151794998906553,231.803,10.798,48.172,-4.806,32.764,82.512,-87.342,5.431,5.472,9.106,-0.739,5.282,4.678,-10.027,-1.835,-0.452,24.158,47.87,29.367,-7.849,4.622,7.693,429.19,192.844,-81.616,-39.885,-52.64,299.646,88.62
2.4152774000540376,264.359,6.688,55.296,-17.609,55.785,69.11,-61.127,1.839,3.417,10.633,-2.787,5.276,8.259,-10.529,-7.981,-6.087,23.622,46.797,28.825,-5.28,9.741,8.71,453.864,215.193,-102.539,-33.698,-84.863,332.134,56.256
2.430214999942109,274.853,3.095,38.335,15.196,28.065,72.627,-71.824,-3.798,7.512,4.475,-6.37,4.247,12.349,-6.932,-23.342,-9.667,29.234,45.214,23.673,-3.225,16.391,11.263,461.094,211.391,-120.879,-65.939,-58.651,299.526,50.564
2.430312199983746,242.303,10.777,29.075,17.23,18.815,69.993,-104.028,0.304,9.041,3.446,-5.852,5.267,6.701,-6.413,-0.265,-3.51,14.86,26.213,9.817,0.364,10.227,7.665,429.383,178.904,-106.926,-66.898,-32.464,279.759,83.301
2.4451621999032795,247.184,14.352,53.124,-15.062,40.826,55.066,-118.268,0.304,0.323,7.541,-10.457,6.286,6.182,-15.628,1.272,-5.556,-0.012,1.084,-10.172,-4.759,3.045,2.022,404.875,162.332,-103.233,-34.044,-64.707,312.267,73.996
2.4454047000035644,258.72,6.653,62.805,-12.998,21.83,62.695,-92.535,-7.381,-4.288,5.484,-18.643,2.182,11.812,-20.223,-31.005,-14.259,5.623,-10.7,-19.384,-14.488,11.238,2.533,404.982,194.957,-116.45,-34.009,-56.445,290.438,41.647
2.460197899956256,226.186,5.11,41.738,14.167,-5.857,81.588,-76.048,-7.374,-0.697,-2.206,-11.452,-3.456,5.652,-12.006,-36.097,-10.659,7.667,-17.35,-17.827,-10.888,11.739,7.653,391.769,184.004,-104.038,-66.251,-23.601,257.872,55.95
2.4602922000922263,193.684,13.814,42.721,-5.827,26.424,82.019,-86.219,-4.292,-2.234,-4.765,-1.195,-7.039,-4.6,-9.945,-20.691,-7.575,-5.661,-32.189,-31.642,-5.241,-0.568,3.547,360.127,151.544,-89.077,-68.234,-43.045,267.348,56.406
2.475253500044346,226.278,14.825,54.973,-24.776,59.186,85.523,-100.477,-6.85,-6.33,-4.76,-9.39,-8.056,-3.57,-14.033,-27.331,-14.227,-9.241,-41.891,-53.127,-9.847,-1.592,-5.678,337.225,158.053,-99.746,-71.239,-75.278,288.597,24.075
2.4753471000585705,235.786,9.175,36.987,-13.481,39.659,93.634,-114.209,-5.306,-2.737,-6.293,-17.578,-3.437,2.069,-9.921,-25.254,-12.164,-1.035,-31.091,-48.463,-12.911,0.971,-4.136,327.154,183.51,-99.134,-79.877,-42.415,263.718,14.317
2.490256499964744,230.427,16.85,25.167,-15.516,26.299,82.27,-120.755,1.359,-1.198,-3.725,-10.388,2.201,4.116,-8.374,-12.933,-3.442,3.577,-13.129,-30.996,-10.849,-7.226,-1.57,322.729,172.056,-73.932,-56.231,-37.249,270.627,27.622
2.505307500017807,262.984,16.833,37.95,-14.476,30.884,88.848,-89.383,-0.179,-8.881,1.402,-9.865,2.711,7.185,-16.563,-25.728,-2.926,7.159,-7.48,-29.428,-12.887,-4.145,-5.154,324.455,170.859,-54.903,-33.121,-69.487,303.144,13.762
2.5053997000213712,261.184,1.959,29.203,11.153,12.41,120.522,-56.506,-3.253,-6.311,2.938,-14.978,1.684,7.691,-18.083,-35.436,-5.485,9.714,-15.157,-33.497,-15.436,7.13,-0.539,322.594,187.082,-47.163,-42.31,-36.63,292.594,33.216
2.5054538999684155,228.648,7.081,14.829,3.97,12.91,109.131,-73.356,-1.2,2.917,-0.139,-7.279,0.658,3.584,-14.991,-22.081,-1.893,4.581,-23.339,-35.513,-14.396,2.512,3.56,317.66,167.427,-41.993,-45.854,-3.806,274.883,65.971
2.5206667000893503,247.887,20.906,40.429,-28.309,45.684,76.746,-88.139,-1.199,-2.721,0.886,-2.661,-0.367,3.581,-19.075,-22.571,-1.379,2.527,-20.754,-39.576,-15.406,-5.688,-6.689,323.49,154.452,-54.246,-38.123,-36.078,285.879,33.629
2.5207577999681234,280.426,12.176,50.123,-4.203,56.909,88.452,-66.022,-1.71,-4.768,1.909,-11.88,0.145,2.04,-22.129,-24.598,-3.939,8.16,-14.586,-39.024,-20.001,-0.559,-7.195,329.827,187.085,-84.418,-50.38,-68.317,280.47,1.32
2.535429700044915,260.166,4.479,17.797,28.589,24.577,115.004,-81.837,0.341,8.045,-1.679,-13.405,0.145,-2.06,-15.96,-2.544,-4.96,5.078,-14.059,-33.35,-21.518,-0.046,3.571,325.399,198.169,-89.969,-58.527,-35.461,280.19,34.107
2.5355295999906957,240.95,11.134,11.632,10.118,16.868,97.983,-114.031,1.365,6.5,-1.165,-9.293,-2.929,3.577,-14.919,-3.054,-3.93,-2.099,-13.533,-33.317,-15.349,-5.169,-2.068,324.561,180.04,-63.239,-34.902,-29.278,312.697,58.151
2.5504276000428945,268.886,8.049,44.408,-22.168,29.146,89.688,-92.912,-2.222,-8.876,0.886,-15.944,-2.414,7.672,-22.076,-35.326,-3.926,1.489,-14.031,-39.943,-12.26,-0.553,-9.238,326.286,192.156,-52.418,-19.498,-61.524,324.68,29.404
2.5505288999993354,262.982,3.943,46.925,-1.653,19.896,115.726,-60.032,-2.732,-3.744,-2.189,-19.002,-0.874,1.517,-21.03,-32.729,-5.972,7.123,-22.727,-38.366,-19.932,2.009,0.505,321.349,206.308,-62.611,-25.626,-47.63,292.08,53.965
2.565352200064808,244.788,12.648,18.189,31.136,20.9,116.123,-72.779,0.856,8.043,0.887,-9.249,-1.898,2.54,-12.299,-1.446,-6.99,3.53,-23.728,-32.18,-20.937,-2.092,1.016,321.539,191.757,-67.16,-11.768,-14.795,282.054,85.674
2.580404199892655,272.208,18.783,37.126,7.026,53.667,100.637,-75.268,2.393,0.35,7.546,-5.141,-1.384,9.71,-12.799,-6.055,-4.422,2.501,-13.459,-35.734,-14.256,-2.602,-8.718,328.39,196.688,-82.462,0.539,-23.489,314.56,53.313
2.5804876999463886,286.281,14.154,56.557,-3.739,68.983,114.369,-56.237,-1.196,-6.31,2.415,-12.308,2.204,6.626,-17.91,-23.467,-5.442,9.159,-12.933,-39.285,-17.828,-0.038,-4.611,329.086,219.546,-99.285,-27.126,-40.372,309.634,31.743
2.5954040999058634,272.162,11.066,24.225,25.979,44.835,111.693,-75.137,-1.707,0.868,-2.198,-15.37,5.788,3.033,-14.306,-3.976,-7.998,17.859,-15.481,-32.073,-21.396,-1.575,2.566,327.22,216.252,-86.891,-41.444,-19.839,291.394,64.499
2.5969426999799907,300.579,14.641,11.393,19.805,28.909,81.867,-88.894,2.393,-0.157,4.464,-12.793,7.319,9.178,-10.705,7.299,-4.916,23.477,-6.244,-33.578,-18.301,-4.135,-5.121,327.406,203.228,-82.193,-11.689,-29.553,323.89,69.045
2.6104705000761896,333.066,17.188,42.12,9.027,36.052,102.79,-61.14,2.903,-6.305,4.46,-11.755,3.725,10.706,-15.305,-11.152,-3.375,27.551,5.545,-44.815,-23.918,-6.18,-10.752,325.541,206.611,-96.455,-0.406,-50.528,349.694,36.701
2.6105661999899894,300.458,15.121,48.225,38.731,34.479,135.475,-63.641,1.875,0.874,0.357,-8.67,1.16,4.547,-17.339,-1.919,-5.933,33.159,22.446,-42.721,-31.579,-4.637,-6.643,325.216,212.04,-87.65,-22.435,-34.084,324.754,63.816
2.625508700031787,267.882,16.643,42.03,24.348,33.933,116.384,-94.828,4.435,9.07,5.992,-1.489,3.72,0.957,-12.199,18.063,-4.902,33.638,35.743,-38.068,-26.424,-4.632,-8.173,328.477,212.34,-81.927,-31.122,-42.759,324.429,96.54
2.625603900058195,288.106,18.163,61.967,-7.952,48.756,83.992,-75.777,2.381,4.963,6.498,-4.561,1.667,4.542,-10.65,-4.497,-5.922,26.433,26.486,-46.226,-21.787,-10.263,-14.825,336.857,222.374,-106.435,-37.238,-74.992,337.937,83.124
2.640835599973798,320.606,10.973,59.344,19.209,39.485,98.765,-44.451,-3.769,0.347,-0.68,-16.852,-1.408,8.123,-14.225,-17.3,-7.453,22.82,24.922,-34.909,-22.79,-9.228,-9.174,347.279,236.496,-109.403,-61.792,-60.572,314.545,73.819
2.6409245999529958,299.793,10.45,27.009,49.416,7.17,107.376,-62.337,0.334,0.346,2.906,-14.786,5.766,4.529,-12.162,13.456,-1.298,27.408,57.685,-2.087,-13.545,-3.071,0.056,345.907,241.383,-85.727,-56.095,-55.388,320.378,90.651
2.6554858000017703,274.39,18.636,34.155,17.091,1.016,74.993,-75.083,6.481,1.371,9.051,-4.013,9.858,3.5,-6.514,10.881,2.802,31.991,79.144,19.944,-2.773,-5.629,-3.53,342.487,247.801,-87.691,-23.251,-87.608,352.845,75.192
2.657158700050786,285.386,9.908,63.322,2.729,29.192,73.381,-57.077,3.401,1.369,5.968,-6.058,5.75,14.255,-5.483,-21.406,-1.812,35.033,64.208,14.289,-4.82,-6.648,-4.551,363.662,254.214,-102.972,-31.937,-100.841,333.025,61.284
2.670571600086987,257.949,-7.008,49.939,35.514,34.798,106.095,-64.192,0.323,2.393,4.938,-8.613,4.72,16.29,-3.941,-16.261,-3.859,33.461,54.923,21.447,-5.84,1.043,6.724,396.086,235.516,-98.771,-64.18,-67.952,300.416,94.01
2.67066719988361,225.415,-1.878,32.47,34.454,28.103,96.768,-80.009,1.348,6.489,10.568,0.105,2.153,4.491,-4.449,15.518,-3.855,26.255,55.892,36.795,0.314,4.116,9.279,416.182,216.838,-96.111,-65.141,-60.712,302.165,105.187
2.685887600062415,257.978,8.882,44.221,2.144,34.735,64.396,-59.949,-0.191,7.507,9.533,-1.432,0.614,4.998,-10.08,3.72,-5.9,20.594,37.393,19.34,-0.711,6.161,3.634,427.549,233.527,-107.285,-41.509,-92.927,334.651,72.807
2.6860527999233454,284.36,5.8,35.98,17.511,18.819,59.721,-56.816,-0.703,2.889,2.863,-9.116,7.786,11.141,-9.557,-17.801,-2.308,18.012,14.302,-7.32,-7.37,15.376,10.803,451.2,230.732,-106.666,-62.985,-75.927,317.41,53.778
2.7006995999254286,251.8,7.331,18.525,37.986,-10.402,61.71,-89.034,-0.702,1.861,0.299,-7.057,6.241,1.908,-5.449,-3.439,-0.769,11.334,11.726,0.372,-4.289,16.898,14.891,468.167,198.226,-99.387,-72.143,-43.064,288.403,86.512
2.700842200079933,244.888,12.959,44.122,13.357,1.392,54.476,-97.142,-3.775,5.445,1.836,-8.075,-4.011,-2.704,-11.592,7.836,-7.941,2.101,8.128,7.032,1.351,10.221,4.63,449.256,177.023,-116.193,-39.284,-75.296,317.316,80.278
2.7156078000552952,265.136,9.872,65.595,25.639,20.858,72.865,-69.38,-7.87,3.391,0.809,-16.776,-6.056,7.545,-17.215,-7.541,-14.593,-1.488,-18.007,-23.714,-7.36,9.698,3.601,416.531,198.875,-138.107,-41.806,-107.496,306.753,47.922
2.7171120001003146,232.595,11.399,46.574,53.278,12.64,99.432,-84.168,-11.448,-2.76,-3.802,-13.173,-6.563,4.463,-13.612,-12.657,-16.627,-3.023,-40.019,-48.793,-17.599,9.689,9.232,383.839,187.918,-125.673,-70.966,-74.601,274.171,50.436
2.730627000099048,213.407,16.511,42.941,20.949,18.775,92.672,-105.088,-11.949,-6.344,-4.311,-6.5,-7.581,-6.3,-17.697,-9.058,-13.025,-5.069,-35.88,-46.695,-11.946,2.507,2.051,357.84,164.164,-97.37,-52.452,-58.133,284.143,66.779
2.730718299979344,245.981,11.884,54.681,-11.347,29.003,81.309,-78.343,-5.277,-6.85,-4.819,-15.203,-2.962,-1.683,-21.265,-23.394,-5.327,-1.99,-28.16,-48.697,-6.811,0.455,-6.661,359.019,189.615,-82.416,-38.054,-64.222,316.646,39.048
2.7456598000135273,243.686,11.359,33.11,9.157,0.797,85.326,-94.146,0.364,-4.794,-8.912,-20.311,0.115,2.93,-9.461,-24.907,-2.248,4.672,-36.328,-53.772,-12.952,-0.058,-3.58,348.414,210.942,-71.063,-62.095,-31.37,284.054,35.935
2.745753299910575,224.999,20.057,16.17,17.857,-10.475,76.531,-126.328,-1.174,-6.838,-7.879,-13.118,0.627,-0.147,-6.378,-2.853,-3.782,1.593,-38.854,-49.107,-12.426,-6.718,-2.552,333.721,178.456,-66.381,-50.25,-35.437,273.012,53.318
2.7645040000788867,257.562,13.377,37.159,5.031,20.274,74.918,-93.414,-4.759,-11.954,0.838,-12.08,0.626,6.513,-16.618,-5.412,-4.291,-4.044,-27.544,-45.984,-8.316,-4.662,-6.648,343.633,161.371,-72.975,-24.072,-67.677,305.526,23.551
2.7765502999536693,252.694,1.068,38.146,29.617,26.914,106.606,-60.532,-4.242,-4.258,1.862,-14.117,-1.424,12.654,-13.015,-22.825,-7.873,1.596,-18.807,-43.889,-13.43,5.077,-2.543,351.487,186.313,-66.242,-53.249,-47.63,292.926,19.941
2.7768240000586957,220.166,12.338,16.591,45.469,17.153,114.184,-91.723,-0.139,7.017,-1.726,-6.931,-0.91,7.006,-8.903,-15.63,-7.865,6.205,-17.252,-37.698,-15.978,1.998,1.046,344.987,183.053,-46.708,-73.176,-14.794,260.357,52.709
2.7967874999158084,252.733,26.158,24.772,13.148,41.214,81.795,-123.906,0.886,1.887,3.399,-2.826,3.702,1.876,-22.214,-9.979,1.877,2.612,-17.747,-41.246,-14.938,-4.664,-4.078,350.79,170.062,-45.124,-40.315,-39.883,292.885,52.144
2.7968886999879032,285.268,14.861,32.431,0.327,50.907,80.176,-98.167,-2.189,-5.799,3.395,-10.507,1.649,1.874,-26.291,-16.116,4.949,5.171,-22.852,-46.84,-19.021,2.0,-4.074,350.952,202.68,-47.128,-25.418,-72.118,325.379,19.816
2.8057899000123143,252.708,6.137,6.271,33.115,18.581,97.514,-68.867,-3.211,-1.183,-5.83,-16.132,-2.964,-1.714,-12.944,0.806,-3.253,8.752,-25.391,-44.744,-15.416,3.535,1.565,333.182,226.043,-32.224,-39.737,-41.82,292.779,27.993
2.8058863999322057,220.179,14.84,10.364,61.771,8.316,76.412,-93.902,-3.72,-2.206,-3.262,-10.993,-2.961,-2.224,-10.37,12.076,-6.836,-0.478,-20.242,-45.724,-4.642,-5.69,-1.51,336.948,193.542,-37.315,-32.525,-20.773,279.166,51.019
2.8208794998936355,252.747,15.85,43.141,29.434,40.071,71.725,-83.049,-6.278,-8.352,4.938,-7.396,-1.933,4.438,-18.044,-13.552,-7.854,-2.527,-16.123,-44.654,-9.761,-4.147,-4.07,354.029,181.565,-69.553,-29.419,-53.028,311.674,30.476
2.820973000023514,285.282,7.125,47.196,20.183,48.228,104.441,-50.178,-3.71,-2.196,0.835,-14.048,2.167,4.434,-15.977,-26.858,-9.895,7.722,-16.62,-37.437,-21.534,3.542,-0.48,349.577,214.171,-84.853,-40.148,-44.266,307.777,35.056
2.835808499949053,253.234,8.142,14.874,41.167,32.298,110.996,-49.616,2.953,5.491,-1.216,-14.547,4.727,-1.206,-9.813,-10.95,-4.762,8.739,-19.677,-37.399,-22.025,0.977,-3.041,345.641,218.056,-62.739,-13.98,-11.434,275.193,67.809
2.835899699945003,233.513,15.307,7.174,27.806,38.413,82.196,-59.3,5.0,-2.711,5.958,-3.261,1.136,2.381,-12.365,-11.451,0.366,5.144,-18.12,-42.997,-16.88,-5.684,-8.161,355.029,210.665,-54.991,17.285,-5.787,304.12,68.253
2.8508669999428093,266.067,13.242,33.295,21.63,51.695,92.872,-55.142,1.921,-8.344,3.903,-3.258,0.622,5.453,-15.426,-15.538,-3.221,14.36,-13.491,-44.491,-18.4,-5.679,-6.103,355.699,232.484,-67.744,-7.323,-20.638,336.603,53.328
2.85095619992353,268.875,11.692,28.651,49.786,49.082,110.71,-67.383,1.919,1.398,-1.224,-15.038,2.671,-0.701,-9.776,14.704,-4.242,21.518,-15.527,-48.033,-22.992,-2.599,-7.634,349.708,230.202,-73.312,-37.542,-23.179,317.311,69.668
2.8659216999076307,248.113,19.877,19.4,55.371,46.983,88.058,-75.512,0.892,4.983,2.876,-12.974,-1.43,-1.212,-7.717,35.694,-2.701,19.96,-11.413,-49.009,-22.969,-4.646,-11.213,348.846,204.869,-83.485,-19.574,-55.431,319.556,76.259
2.8660124000161886,280.653,22.931,42.947,51.73,45.399,87.458,-60.58,-3.719,-4.756,4.922,-5.788,-2.966,9.035,-16.418,13.116,-8.334,25.063,12.164,-44.35,-22.946,-8.227,-8.128,351.571,215.423,-101.332,0.938,-80.479,351.511,54.153
2.880869100103155,287.545,18.81,52.126,64.486,31.009,120.158,-67.179,-3.716,-2.702,1.843,-10.906,2.673,9.538,-16.402,5.931,-9.862,30.673,26.497,-43.793,-25.997,-3.608,-6.07,355.83,234.675,-92.009,-14.432,-47.611,348.598,72.542
2.8809509000275284,254.982,18.791,36.192,34.195,25.855,108.255,-94.777,1.923,6.522,3.89,-10.895,3.182,0.82,-3.578,25.393,-1.143,26.032,30.569,-35.04,-23.922,-0.531,-9.138,359.06,238.026,-64.765,-24.664,-14.775,345.688,105.257
2.896308199968189,276.244,16.21,44.353,1.886,39.149,75.871,-85.46,3.971,2.417,6.448,-1.15,3.179,2.356,-1.012,7.437,2.956,30.104,57.178,-9.902,-15.189,-7.703,-10.154,361.775,270.576,-70.335,-17.979,-47.036,363.273,106.177
2.8964068999048322,308.755,12.096,58.653,30.573,38.086,79.894,-54.124,3.967,-3.22,4.905,-4.735,8.811,10.55,-7.671,-14.088,0.392,45.443,79.663,2.404,-16.198,-9.744,-8.607,359.876,303.093,-96.905,-35.379,-65.944,346.004,73.795
2.9109257999807596,276.171,21.305,38.614,63.33,25.24,112.601,-53.558,6.012,2.93,5.412,-13.952,5.729,10.027,-4.59,18.714,-0.121,43.349,66.263,-4.259,-19.768,-3.587,-9.11,349.782,270.515,-96.808,-49.689,-47.948,332.85,79.357
2.911021800013259,243.619,19.747,29.354,36.627,30.338,99.681,-59.652,2.42,6.001,6.944,-9.839,0.088,6.944,-2.536,28.429,-1.145,26.912,60.049,-0.668,-8.477,-5.12,-9.613,356.093,237.969,-85.441,-18.901,-80.175,365.305,99.77
2.924950199900195,264.893,-3.327,52.891,9.438,32.869,68.331,-48.321,-2.706,2.409,3.863,-3.682,5.723,12.572,-6.632,-3.875,-5.755,27.909,75.358,18.8,1.777,-2.553,-2.431,388.524,257.198,-90.478,-6.586,-108.784,352.644,81.227
2.9250354000832886,261.042,-4.86,54.375,26.334,15.93,82.607,-61.593,1.908,1.382,3.347,-5.215,8.791,14.609,-5.601,-15.654,-3.7,36.591,68.623,33.638,-5.397,8.72,9.866,420.923,265.138,-87.314,-38.855,-75.888,320.016,97.539
2.939978800015524,228.505,14.612,31.267,18.111,14.377,83.549,-89.708,7.029,4.455,8.979,-3.161,3.659,8.446,-3.034,17.149,1.939,25.796,44.988,34.629,-7.953,9.736,12.418,440.483,242.331,-74.419,-40.353,-44.049,325.844,125.107
2.962144900113344,253.892,11.012,29.699,-6.498,28.707,51.19,-70.663,1.899,5.987,6.921,-1.108,2.631,8.438,-5.08,22.768,-4.211,13.987,38.283,27.934,2.813,8.189,10.869,461.559,250.798,-90.226,-23.919,-76.28,358.306,92.706
2.9622482999693602,286.426,2.291,39.403,13.489,27.654,55.75,-40.366,-1.689,4.957,-0.259,-5.718,2.628,10.991,-4.562,4.814,-11.379,16.022,36.196,20.734,3.323,15.353,17.005,469.294,257.208,-119.85,-56.17,-92.598,343.091,60.338
2.9788565998896956,253.864,16.634,37.826,36.017,26.602,88.482,-65.429,-1.687,3.927,-2.82,-7.249,0.064,4.832,-4.558,21.203,-8.294,8.834,15.155,11.492,-4.365,12.776,14.939,451.407,224.675,-123.316,-81.217,-82.259,310.472,93.065
2.9805801999755204,221.335,21.74,41.375,18.562,36.309,78.147,-92.004,-5.272,3.923,-1.28,-6.73,-0.961,2.778,-12.238,27.33,-8.798,-7.057,-13.037,-8.5,-2.824,6.104,1.604,436.098,192.175,-117.557,-48.348,-107.28,322.969,125.76
2.9850649000145495,242.118,10.448,49.018,10.859,25.002,60.65,-80.129,-7.828,-2.741,-1.791,-14.407,-5.058,7.386,-17.861,-2.924,-14.424,-8.074,-30.443,-31.033,-4.358,8.659,2.627,414.145,212.987,-123.587,-37.542,-111.783,325.72,93.359
2.9851518999785185,232.654,12.486,42.821,23.656,-1.663,85.693,-92.856,-4.234,-8.886,-3.839,-16.955,-8.639,2.768,-15.282,-9.581,-10.824,-4.48,-39.121,-41.76,-12.038,5.064,10.309,381.456,233.779,-112.193,-57.996,-78.884,293.119,67.65
3.0157729000784457,200.146,16.06,36.631,2.115,0.388,88.169,-119.916,-4.23,-3.754,-4.347,-8.741,-5.044,-4.919,-14.754,5.286,-3.64,-11.648,-45.742,-49.403,-13.051,-0.064,2.102,348.799,210.491,-85.441,-38.983,-77.268,284.629,81.927
3.0160497999750078,215.316,8.359,42.23,-30.162,21.392,59.904,-89.57,-7.3,0.861,-3.831,-11.806,-4.015,-0.304,-18.326,-9.577,-5.686,-13.173,-44.672,-56.526,-9.964,5.059,-6.097,363.819,205.67,-89.966,-35.87,-109.466,306.886,56.23
3.0171050999779254,239.691,10.913,37.064,-4.004,18.297,69.577,-68.988,-5.755,-2.214,-8.437,-20.503,-6.572,5.844,-12.672,-22.887,-10.291,-8.037,-36.43,-51.859,-10.466,3.517,-2.505,362.943,225.444,-105.758,-68.11,-82.204,280.964,33.12
3.0173074998892844,218.447,19.099,20.121,28.787,3.934,93.074,-101.194,-0.626,-4.773,-8.941,-12.798,-3.492,4.302,-7.024,4.288,-10.281,-2.906,-24.099,-40.536,-9.943,-7.245,-3.527,331.329,217.534,-76.963,-59.845,-60.093,263.777,47.431
3.0307376999408007,222.839,13.956,19.589,2.631,16.738,88.37,-97.507,1.423,-8.355,3.363,-4.076,0.098,5.834,-14.701,12.481,-3.098,3.245,-12.291,-38.958,-9.421,-5.188,-7.622,334.072,208.608,-44.098,-26.997,-92.308,296.3,49.433
3.0347279000561684,255.404,4.209,26.229,-19.913,30.553,94.942,-64.622,-2.164,-7.322,6.946,-9.195,-0.415,6.341,-17.76,-19.807,1.003,2.729,-14.841,-44.043,-10.949,3.014,-2.491,355.767,235.039,-42.005,-30.044,-75.822,315.472,53.994
3.0613798000849783,234.144,3.692,14.932,0.599,19.764,105.605,-73.779,-2.674,1.395,-2.795,-9.186,0.098,1.724,-10.57,-27.472,-0.535,1.702,-29.17,-42.974,-10.938,1.474,3.659,343.116,246.075,-31.717,-55.117,-42.958,282.881,86.216
3.061574700055644,206.245,12.398,14.405,-6.574,29.99,81.934,-105.98,3.988,2.418,0.282,-3.029,1.635,0.185,-13.634,3.806,1.515,8.36,-25.555,-40.882,-12.464,-2.626,-0.443,329.965,225.336,-9.143,-43.279,-72.629,277.987,72.297
3.064790999982506,238.827,18.533,34.883,-20.4,56.088,68.532,-92.042,1.935,-2.195,6.429,-8.149,0.096,1.722,-18.231,8.413,1.001,7.327,-14.259,-44.939,-17.062,-0.574,-4.029,342.443,233.308,-35.774,-35.039,-104.832,310.497,39.949
3.0649540000595152,268.814,10.317,25.114,12.409,40.663,92.029,-59.162,-7.801,3.442,-3.311,-13.776,-0.416,1.208,-11.04,2.257,-10.27,2.197,-17.831,-42.845,-17.045,1.988,0.074,350.297,260.227,-68.014,-52.422,-71.939,299.428,58.865
3.075535299954936,236.27,9.283,5.621,45.184,16.031,102.696,-80.108,-4.719,4.976,-5.869,-10.176,0.609,2.231,-11.029,21.723,-13.846,6.293,-16.276,-35.118,-12.929,-1.088,1.098,349.947,244.085,-64.872,-50.32,-39.08,277.099,91.594
3.075736700091511,228.349,21.056,32.256,12.863,30.872,91.322,-103.081,5.02,-7.837,5.407,-8.629,-0.416,5.303,-18.703,16.066,-1.537,1.164,-9.087,-37.132,-11.892,-3.648,-5.05,352.671,224.373,-44.827,-18.507,-71.316,309.61,89.965
3.0906048000324517,260.908,16.425,52.716,-19.425,38.014,94.817,-70.191,3.478,-7.829,6.939,-12.719,-0.416,3.248,-17.66,-14.689,5.124,-4.985,-20.861,-43.755,-18.028,-2.108,-6.582,346.683,253.351,-47.344,2.516,-85.077,328.768,67.846
3.0940072000958025,257.573,4.625,23.974,13.382,21.582,109.067,-62.948,1.937,2.937,2.833,-11.682,1.634,0.683,-11.494,-3.916,1.021,9.877,-32.111,-43.199,-25.694,-1.593,-2.99,339.164,279.225,-49.858,-6.708,-52.204,296.164,83.66
3.115577399963513,225.04,14.867,19.851,46.156,41.028,113.056,-83.89,4.497,-1.164,3.855,-4.498,0.095,4.269,-10.458,20.167,-2.566,16.015,-26.956,-44.18,-23.619,-3.129,-5.036,343.436,269.724,-52.882,-20.533,-67.521,291.769,79.478
3.120343500049785,243.771,23.049,48.008,25.106,73.775,113.968,-69.461,0.394,-5.261,1.802,-3.981,0.095,5.289,-10.96,17.585,-5.125,4.728,-19.244,-45.16,-18.985,-2.101,-8.105,350.264,270.479,-69.223,-29.222,-79.237,310.945,58.906
3.120468799956143,268.63,15.341,36.69,39.425,57.307,112.829,-58.121,-2.68,4.99,-0.249,-11.662,2.144,0.673,-8.9,30.887,-5.632,10.358,-12.565,-39.48,-21.015,-1.587,-6.047,355.037,274.819,-76.326,-33.804,-46.37,311.147,80.364
3.1358990999870002,268.361,16.35,14.624,62.952,25.487,99.909,-72.407,-0.628,2.424,3.337,-12.675,0.605,2.209,-7.866,47.25,-2.041,21.619,-9.991,-39.44,-20.482,-5.171,-3.992,357.756,252.515,-68.565,-10.716,-46.836,333.377,101.288
3.1360235998872668,296.27,19.92,35.614,39.835,29.56,96.735,-68.749,-1.652,-10.899,4.871,-8.563,0.605,10.404,-13.494,20.563,0.011,23.134,-4.858,-45.549,-18.925,-6.191,-5.525,355.861,257.386,-66.447,21.058,-79.065,365.831,89.916
3.1506854000035673,302.121,7.605,50.947,37.746,33.629,116.618,-70.217,-3.188,-4.228,3.841,-7.53,5.727,9.369,-14.505,6.198,-2.551,34.894,27.934,-37.819,-27.103,-1.574,-7.569,353.456,289.916,-66.893,1.057,-67.715,352.658,109.294
3.1508663999848068,269.544,6.573,36.039,48.979,25.91,112.403,-97.299,-1.135,8.584,4.862,-3.424,5.721,1.675,-3.732,30.27,-4.085,43.568,59.67,-27.535,-29.125,-5.158,-11.66,348.492,292.7,-66.314,-31.22,-34.859,320.03,141.972
3.1780101999174803,262.614,21.423,42.663,16.655,48.426,80.015,-95.665,-0.11,2.428,5.882,1.702,-0.944,3.21,-2.704,26.141,-3.057,32.254,45.265,-33.655,-20.386,-14.887,-17.283,346.094,265.767,-77.518,-30.164,-67.1,320.734,120.826
3.1781190999317914,295.139,17.815,58.502,11.515,64.259,79.935,-62.782,2.452,-3.722,6.388,-3.423,0.593,7.306,-13.459,4.598,-3.566,27.611,32.925,-32.596,-18.317,-12.31,-12.143,357.019,279.846,-88.199,-23.474,-99.308,345.004,88.429
3.180483300006017,284.598,3.965,34.878,44.291,31.919,112.643,-58.108,3.474,2.429,4.333,-11.104,7.253,3.712,-8.835,24.061,-4.587,31.682,61.581,-7.461,-15.224,-4.101,-3.422,361.273,304.157,-77.353,-34.209,-78.716,348.758,115.493
3.1806397000327706,252.038,9.597,17.936,29.39,0.637,95.112,-84.178,1.934,3.963,3.304,-9.043,7.246,4.221,-0.629,38.382,-0.484,28.064,78.938,14.576,-3.939,-4.609,-3.93,359.887,292.582,-60.369,-9.071,-54.559,347.897,143.555
3.195479799993336,260.495,13.685,50.706,-2.915,31.375,62.742,-92.29,6.543,-0.139,7.911,-3.911,5.701,12.926,-8.313,6.068,4.127,28.036,71.687,19.684,-1.885,-0.506,0.684,392.315,286.654,-64.919,14.504,-79.608,341.401,114.722
3.1956120999529958,287.387,-1.185,68.074,10.408,47.737,84.196,-74.78,9.61,3.96,9.44,-3.907,8.77,13.937,-12.403,-19.041,0.025,36.717,75.713,32.472,-4.445,10.765,14.516,424.71,299.175,-80.736,-17.786,-93.361,308.784,101.8
3.2102572000585496,254.824,0.353,37.78,43.185,27.709,107.678,-62.922,1.403,12.153,4.82,-2.367,7.224,8.288,-5.731,13.766,-6.123,35.144,74.613,45.248,0.17,10.242,12.964,426.847,289.142,-84.754,-50.044,-74.312,278.762,124.752
3.210367999970913,251.496,19.82,21.86,38.531,35.878,84.004,-63.883,-2.696,11.628,5.328,-0.315,0.044,8.28,-4.701,46.54,-8.678,22.301,47.898,26.759,-0.342,6.133,3.73,403.878,263.75,-83.644,-33.6,-74.237,311.271,100.036
3.2261087000370026,284.032,20.825,36.696,40.03,52.236,76.235,-72.529,-2.181,3.42,5.322,-5.438,-2.517,8.784,-7.77,22.415,-8.67,11.008,21.211,-1.444,-3.928,15.861,9.874,432.164,250.166,-90.733,-30.492,-84.922,342.21,67.661
3.2262142999097705,266.329,11.583,33.073,36.404,27.593,86.917,-99.609,-4.741,0.342,-0.831,-11.58,-0.978,2.115,-9.299,5.998,-6.099,3.312,2.234,-4.004,-1.875,16.87,12.426,442.49,228.399,-93.716,-47.88,-74.078,309.593,99.356
3.2402586999814957,233.788,17.719,24.843,4.092,10.147,68.387,-121.538,-2.687,-0.17,-0.318,-12.081,-0.464,-0.449,-11.339,18.288,-4.044,-3.351,-13.65,-9.124,-1.873,3.02,2.167,409.772,201.531,-94.135,-30.414,-84.25,286.229,132.044
3.240353500004858,250.46,20.263,42.749,2.551,21.92,65.758,-98.363,-3.196,-5.293,2.244,-11.556,-4.562,3.65,-13.889,6.486,-9.675,-6.934,-28.493,-34.217,-7.507,1.993,3.189,377.087,207.477,-103.775,-19.625,-108.245,300.288,99.637
3.2552732001058757,255.333,13.07,52.44,35.336,16.775,98.479,-73.674,-13.439,-3.751,-4.418,-10.008,-11.218,3.134,-15.924,-10.426,-15.813,-4.366,-44.858,-46.991,-11.597,10.188,11.383,379.784,212.905,-104.695,-49.832,-83.033,271.298,67.262
3.2553691000211984,222.802,14.594,37.53,28.128,13.685,95.307,-92.555,-11.889,3.425,-5.95,-6.924,-11.719,-5.066,-15.909,6.49,-12.724,-4.874,-46.35,-42.846,-11.074,4.542,3.175,349.178,185.027,-83.074,-53.88,-53.749,238.751,77.953
3.271198800066486,243.584,19.19,35.956,-4.175,37.237,62.936,-98.611,-2.143,1.885,-1.334,-10.503,-6.584,-5.061,-12.306,5.972,-7.588,-5.381,-28.373,-46.901,-6.964,-1.098,-9.124,318.09,185.867,-64.548,-24.113,-70.089,268.739,70.703
3.271285800030455,276.128,16.609,37.457,9.149,29.515,67.997,-86.729,-2.141,-6.314,-4.919,-17.665,-1.967,3.654,-11.27,-20.162,-5.531,3.846,-27.32,-55.563,-10.031,0.44,-5.528,320.846,218.469,-61.922,-28.699,-64.383,276.667,46.041
3.285288899904117,248.699,14.031,14.366,41.927,-2.79,99.179,-118.917,-2.139,-8.357,-6.451,-15.598,1.109,3.138,-12.795,-14.507,-0.915,8.965,-39.588,-50.897,-15.656,-1.609,0.625,309.254,210.053,-49.052,-36.867,-42.802,253.849,63.926
3.2853808999061584,216.175,9.406,5.642,9.61,11.045,99.08,-130.582,2.986,-6.299,1.24,-6.873,2.132,-2.501,-11.245,2.414,1.648,-2.315,-32.377,-45.723,-10.005,-3.145,-3.474,297.162,187.814,-25.949,-4.043,-73.498,286.383,77.694
3.3012377000413835,248.747,0.688,25.616,-10.892,43.822,101.543,-97.663,2.471,-4.244,3.288,-5.842,1.618,4.162,-12.259,-12.958,-2.453,-6.411,-24.147,-50.288,-6.409,1.981,-3.471,313.259,211.192,-15.165,7.744,-74.449,306.589,58.661
3.301511900033802,260.281,2.224,31.738,21.907,41.729,127.569,-64.778,1.444,-0.654,-2.863,-7.885,1.616,9.281,-15.32,-16.018,-6.549,5.379,-27.709,-50.75,-13.575,0.443,2.68,318.069,219.178,-18.223,-24.539,-41.587,274.007,68.337
3.331149100093171,231.844,14.005,26.071,32.643,39.638,123.343,-96.989,0.418,2.933,-1.323,-4.291,-0.434,0.562,-12.231,13.711,-5.517,7.935,-19.997,-40.966,-12.537,-5.193,-1.421,315.701,195.905,-27.427,-26.564,-38.984,275.269,87.736
3.331412199884653,264.4,16.552,30.144,0.335,57.017,90.944,-129.167,-3.169,0.881,3.802,-5.824,-2.996,-1.488,-12.731,20.87,-5.512,0.755,-13.317,-40.925,-9.45,-1.602,-8.079,328.193,219.275,-38.67,6.251,-71.22,307.782,64.594
3.3316051000729203,296.923,10.388,22.429,31.073,42.103,85.73,-96.25,-3.166,-2.706,-0.301,-17.601,-0.431,2.612,-17.329,-3.742,-6.019,0.754,-23.55,-49.081,-15.076,2.498,-4.485,322.23,251.844,-36.582,0.097,-61.927,307.986,58.894
3.3464788000565022,264.351,8.841,12.16,63.83,17.47,105.624,-109.474,-0.601,-2.703,-7.473,-17.583,0.594,-0.464,-12.701,-9.886,-3.963,2.29,-28.649,-43.396,-16.086,-2.627,0.13,310.637,221.878,-27.836,-23.47,-29.078,275.403,91.623
3.3519981999415904,231.811,13.443,33.153,31.491,35.383,110.129,-141.64,-2.137,-1.676,-3.367,-7.32,-1.456,-1.488,-10.639,3.444,-2.423,0.751,-22.985,-36.18,-13.508,-3.649,-3.968,319.548,189.381,-40.616,-3.978,-61.324,284.349,108.95
3.3884880000259727,258.732,16.503,51.563,-0.816,56.353,116.167,-108.71,-4.184,-1.674,3.809,-12.948,0.595,1.587,-19.85,1.904,-4.469,-0.274,-23.475,-43.829,-20.667,0.453,-7.038,320.253,217.368,-64.654,12.932,-93.538,310.193,83.226
3.388636599993333,273.842,15.974,32.043,31.973,47.587,135.519,-76.326,-1.106,0.889,0.219,-14.984,1.107,-1.488,-19.83,-0.66,-6.514,0.75,-26.013,-43.785,-27.306,-0.572,-3.445,317.883,245.328,-67.663,5.234,-60.657,293.488,86.216
3.390713500091806,259.736,14.421,15.618,43.211,47.027,138.457,-97.767,2.993,0.888,-1.318,-1.649,-1.968,-0.975,-11.101,13.173,-3.434,4.848,-20.864,-37.594,-25.742,-5.695,-3.442,333.447,239.447,-57.349,19.061,-27.808,303.441,96.889
3.3908323000650853,272.796,12.87,25.336,11.405,59.276,128.072,-97.157,2.478,-3.724,3.294,-5.234,-1.454,4.149,-12.115,19.308,1.693,12.016,-18.793,-47.29,-24.18,-4.665,-9.586,335.163,253.552,-56.267,22.628,-50.322,331.315,75.275
3.391564199933782,286.868,12.857,23.261,26.251,46.409,122.821,-109.867,-1.111,-2.695,-1.832,-19.061,1.109,2.096,-16.713,19.289,1.179,17.127,-18.262,-54.415,-21.594,-2.098,-7.527,320.483,270.205,-59.797,-9.67,-60.006,319.2,79.298
3.391702099936083,281.458,17.455,14.529,59.012,24.845,114.501,-138.447,-1.11,0.894,-2.855,-9.308,3.157,2.606,-13.111,31.565,-3.433,22.233,1.736,-47.188,-19.523,-5.682,-0.347,321.699,242.27,-60.25,-1.975,-53.798,322.467,108.932
3.4062989000231028,299.62,19.487,40.13,44.608,39.165,115.924,-105.521,2.478,-4.23,8.931,-0.077,5.715,8.751,-11.561,27.435,-7.016,28.87,25.813,-49.19,-26.676,-8.238,-7.007,325.476,225.634,-66.849,30.814,-78.335,354.932,91.405
3.409229200100526,310.079,9.221,64.168,33.293,69.864,134.251,-72.627,-0.086,-4.226,7.897,-8.786,3.66,5.669,-14.111,5.89,-8.033,31.403,19.639,-55.801,-32.284,-1.57,-11.611,322.589,255.122,-76.004,12.853,-81.843,351.504,82.092
3.4357113000005484,277.493,4.089,41.562,50.166,62.11,123.871,-104.83,-5.722,6.537,-3.894,-10.314,2.12,-0.485,-11.535,10.495,-4.439,31.372,12.447,-44.987,-25.08,2.018,-3.915,329.951,271.261,-70.805,-19.436,-48.973,318.877,114.798
3.450825999956578,271.58,13.819,22.565,28.599,32.334,91.471,-119.07,-1.617,6.53,-0.304,-2.619,4.679,2.59,-7.425,21.243,0.688,35.439,45.222,-20.351,-16.858,-6.181,-5.448,333.72,272.014,-61.0,-6.608,-54.047,321.632,120.831
3.4509741000365466,304.096,14.317,40.986,-3.193,28.715,82.158,-102.557,6.069,-1.161,9.43,-5.178,4.675,6.173,-7.93,6.365,3.761,43.088,77.453,-1.888,-15.816,-11.298,-13.127,331.337,302.993,-69.649,26.186,-86.269,354.098,88.434
3.4510713000781834,301.231,3.032,38.896,27.036,26.637,110.765,-120.385,7.087,2.939,8.396,-9.271,5.695,7.704,-5.36,7.383,3.245,44.069,71.74,9.385,-11.19,-3.09,-2.867,360.719,324.719,-84.436,9.254,-96.428,355.281,103.203
3.4516932999249548,268.654,3.541,16.315,55.186,9.192,117.827,-118.216,3.494,9.083,7.363,-3.115,7.738,13.332,0.793,27.356,-0.344,35.316,72.18,26.282,-1.957,4.598,8.406,393.146,295.193,-81.278,-12.785,-63.544,323.675,135.887
3.4658057999331504,246.356,11.223,39.865,25.93,29.675,107.975,-85.31,-0.608,3.439,7.356,0.475,2.095,16.392,-1.257,15.033,-6.491,26.572,84.404,37.014,1.631,2.544,4.812,406.073,262.622,-75.561,-2.526,-81.924,317.203,105.013
3.465958399930969,278.898,9.674,70.564,8.998,62.433,119.138,-100.594,-0.095,-0.151,4.275,-4.136,1.068,12.277,-9.965,-4.45,-8.022,25.008,63.314,24.169,-4.006,4.078,5.319,385.687,263.897,-82.658,-6.622,-114.117,310.738,79.805
3.5101606000680476,285.791,10.177,42.828,20.259,40.854,115.945,-132.768,2.467,2.411,4.271,-5.669,6.703,9.191,-10.468,15.023,-3.915,22.934,30.976,13.899,-7.588,14.32,14.023,407.33,271.317,-83.6,-26.083,-81.728,284.3,102.267
3.510382500011474,253.23,14.778,17.17,6.919,8.538,83.554,-127.513,-1.122,4.97,3.754,-0.541,3.11,5.596,-5.846,27.303,-1.862,14.714,22.748,22.082,-2.457,18.405,16.571,439.711,257.726,-79.93,-21.446,-58.08,296.823,89.869
3.5105188000015914,266.809,12.714,38.67,-2.309,17.239,73.224,-105.868,-3.17,2.404,-0.861,-3.614,-0.48,0.98,-8.914,1.66,-3.91,7.527,18.627,12.838,-1.43,13.775,12.456,429.025,234.415,-92.145,-21.937,-88.248,324.703,57.504
3.5136567999143153,270.128,12.189,44.779,18.185,29.004,105.938,-120.619,-0.093,-1.185,-3.421,-15.906,2.082,-1.071,-10.442,-1.415,-6.467,-0.165,-5.983,-15.351,-7.064,9.663,7.32,396.32,201.905,-108.447,-50.092,-92.771,292.103,74.352
3.529641200089827,237.583,18.836,29.877,17.655,13.094,102.246,-146.626,-3.679,-0.159,-1.369,-16.402,-2.53,2.004,-9.407,20.615,-9.022,-11.436,-30.055,-24.558,-5.52,8.117,5.776,382.092,169.428,-113.462,-44.407,-95.239,261.585,107.066
3.5298329000361264,238.882,16.256,46.753,4.317,12.056,82.164,-123.938,-9.823,-2.208,0.17,-8.189,-7.651,7.125,-16.57,5.226,-14.136,-12.449,-34.124,-26.07,-2.953,7.084,7.819,368.39,181.041,-112.324,-11.574,-124.346,291.037,83.905
3.546671099960804,270.919,5.481,60.539,19.682,18.704,114.87,-91.027,-8.789,-9.891,-3.417,-9.205,-3.545,5.069,-19.628,-19.37,-16.171,-1.678,-32.553,-40.901,-14.221,9.126,6.275,335.746,213.648,-91.207,-21.297,-91.434,282.037,51.546
3.5469752999488264,238.372,8.037,28.203,10.953,14.075,127.05,-123.211,-6.218,-7.319,-9.561,-14.831,-4.566,-6.719,-10.386,-1.933,-6.934,-5.775,-47.889,-53.155,-18.305,5.531,-0.392,303.135,202.676,-59.865,-39.718,-58.554,249.48,68.4
3.5813933999743313,216.105,17.763,11.269,-21.333,19.184,94.648,-155.363,-4.163,-1.677,-8.014,-14.816,-7.635,-5.688,-8.839,4.729,1.782,-19.089,-62.186,-57.713,-5.479,-4.209,-6.027,293.61,170.198,-61.342,-15.088,-90.771,270.747,65.258
3.58167039998807,248.676,13.647,33.287,-15.677,25.824,94.553,-122.42,-3.134,-10.384,-4.42,-15.826,-0.455,9.175,-16.515,-22.428,-2.318,-11.898,-50.853,-59.192,-3.425,-3.18,-3.972,297.415,190.007,-77.162,-11.999,-122.956,288.919,32.917
3.586577800102532,249.964,3.387,27.106,17.127,18.114,127.246,-92.584,-6.205,-12.423,-5.44,-15.298,1.594,8.141,-16.498,-16.258,-8.463,0.41,-38.507,-52.985,-11.618,3.996,1.668,288.921,199.039,-53.006,-38.115,-90.045,256.355,41.081
3.5868400998879224,217.439,3.896,0.439,18.134,22.707,131.217,-107.86,-3.637,-2.164,-0.824,-6.574,-4.555,-0.064,-13.92,11.423,-5.893,-5.738,-38.468,-45.76,-10.07,1.43,1.154,279.923,166.565,-22.727,-15.535,-69.463,268.906,73.828
3.58749739988707,246.935,7.478,15.807,-14.159,43.689,98.811,-94.945,0.977,-2.675,4.812,-3.493,-1.989,8.133,-18.005,-9.08,-4.863,-6.757,-29.208,-44.69,-10.572,-1.133,-5.507,298.598,189.964,-30.901,16.756,-89.886,301.425,67.094
3.5876805998850614,279.476,7.471,37.309,-6.973,44.157,107.934,-81.53,-3.122,-5.233,-1.341,-10.662,3.649,10.686,-15.938,-34.687,-4.858,6.057,-20.47,-40.546,-19.27,3.479,-3.453,310.595,222.562,-25.747,-10.413,-59.57,270.385,39.875
3.6007250999100506,254.606,11.562,16.267,25.822,24.133,130.879,-113.724,-2.094,0.407,-3.901,-11.164,1.596,-2.132,-11.311,-1.864,0.27,6.051,-27.622,-39.994,-19.764,1.426,-0.888,289.28,199.798,7.066,-25.26,-26.722,257.307,62.376
3.6008323000278324,237.445,17.698,-0.143,17.087,25.646,110.769,-142.299,4.568,-0.106,2.251,-7.566,-1.992,-3.155,-13.349,30.925,1.807,-3.177,-29.131,-48.15,-14.108,-4.21,-9.084,283.355,177.056,2.96,7.553,-58.971,289.838,51.043
3.6202537999488413,269.483,17.68,13.689,31.414,45.6,103.998,-109.369,-1.072,-2.667,1.224,-10.633,-1.99,3.509,-13.335,22.697,-6.904,-1.124,-26.028,-50.664,-15.119,-4.206,-10.611,300.49,207.618,-29.318,2.935,-91.188,295.183,18.717
3.630781800020486,259.48,15.101,22.385,64.171,48.628,136.681,-87.743,-5.17,-0.103,-4.925,-10.11,-0.963,2.48,-9.736,8.33,-12.533,0.414,-26.514,-42.929,-15.616,-3.69,-1.379,300.702,203.824,-47.219,-29.343,-77.776,262.613,45.85
3.630882600089535,227.457,14.574,27.998,32.856,45.506,141.156,-108.66,-0.554,-2.664,-2.871,-7.026,1.599,1.966,-15.874,9.859,-8.422,-4.197,-19.315,-36.226,-14.064,-5.735,-2.915,301.426,175.956,-39.487,-4.723,-71.551,278.231,78.592
3.6309408999513835,248.234,14.559,43.339,0.547,47.51,115.399,-95.231,-4.652,-5.735,1.231,-14.191,2.11,4.525,-23.543,1.14,-5.339,-0.095,-16.735,-35.677,-17.123,-4.193,-8.035,312.907,208.567,-47.133,28.069,-85.824,309.204,68.267
3.64602359989658,270.015,15.569,36.123,32.822,30.556,127.067,-74.131,-3.622,-0.607,1.229,-15.714,0.571,1.447,-15.834,-5.009,-4.31,14.762,-32.087,-44.351,-25.303,-2.139,1.195,306.959,241.146,-47.598,19.332,-52.95,287.89,73.322
3.646126599982381,256.425,18.627,14.058,65.577,23.865,145.895,-101.21,7.652,0.419,2.253,-3.915,1.595,-3.165,-4.548,13.951,0.306,21.92,-30.518,-51.479,-28.864,-4.699,0.169,299.992,224.511,-30.644,7.529,-20.11,278.381,93.229
3.663636399898678,269.489,15.023,21.216,33.236,56.629,117.572,-104.694,2.009,-2.143,5.324,-4.423,3.642,-1.625,-5.056,23.671,-0.719,17.8,1.276,-47.329,-22.175,-6.231,-14.688,308.914,206.869,-38.81,13.157,-52.365,309.865,70.594
3.664015999995172,302.007,8.348,36.052,36.789,67.843,108.745,-71.802,-7.727,-0.604,2.757,-17.739,4.151,6.573,-8.124,12.377,-10.965,20.856,16.643,-44.207,-18.567,-3.151,-11.087,309.629,228.179,-68.998,-3.25,-84.588,311.605,55.667
3.7041195000056177,293.508,13.462,24.745,69.54,40.111,141.424,-70.193,-0.547,1.958,-1.856,-12.598,3.635,9.128,-6.579,16.463,-11.978,27.495,-7.964,-45.7,-24.184,-2.635,1.731,304.709,232.049,-68.416,-10.931,-55.814,297.461,85.325
3.7044398998841643,264.526,17.035,25.745,37.195,41.095,136.672,-102.399,2.528,-0.606,4.806,2.784,2.606,3.996,-9.647,19.52,-2.233,23.369,-19.739,-40.019,-24.672,-5.194,-1.857,311.577,213.886,-41.708,21.867,-59.345,329.951,103.17
3.704714999999851,268.359,6.26,46.211,4.883,51.813,104.26,-111.005,-1.573,-1.63,10.436,-0.805,4.141,3.48,-15.272,-5.09,0.843,27.956,13.068,-29.733,-22.598,-2.627,-8.515,316.9,242.361,-37.568,30.555,-91.561,350.114,102.555
3.7091481999959797,279.362,3.179,40.53,25.882,21.023,101.082,-86.304,4.064,5.032,3.766,-10.026,7.21,8.087,-7.06,-10.208,-0.182,50.982,45.843,-23.043,-24.112,-1.088,-8.506,309.924,274.907,-53.924,-1.751,-58.681,317.488,119.358
3.709618699969724,269.861,15.472,28.194,54.546,10.755,112.764,-93.902,5.596,7.589,2.738,-2.844,6.179,5.005,2.681,18.491,0.843,52.468,41.699,-11.749,-18.965,-8.771,-9.01,305.515,259.263,-55.407,-19.68,-39.155,300.264,119.751
3.7211182001046836,263.956,15.456,45.072,25.29,43.532,104.454,-93.296,-1.069,-0.104,10.419,2.795,3.611,3.463,-7.568,25.645,-1.72,34.485,43.194,2.095,-10.749,-10.812,-7.464,318.017,237.999,-60.987,7.492,-71.391,332.752,87.356
3.721301499987021,265.741,2.121,50.662,39.097,50.661,115.621,-65.538,-2.093,-3.177,5.286,-10.528,3.095,10.632,-15.245,9.226,-6.841,33.938,68.254,12.339,-9.714,-3.629,-4.895,336.655,256.204,-84.492,3.898,-103.595,329.345,73.437
3.7361516999080777,247.032,2.119,35.754,71.845,21.921,135.997,-68.546,-0.041,1.437,-1.379,-15.128,2.067,12.158,-1.91,8.192,-7.346,33.392,55.378,21.548,-6.118,-3.625,-1.304,346.564,242.115,-76.723,-18.647,-70.704,296.74,106.151
3.739212099928409,224.756,7.752,46.99,39.498,24.461,120.492,-94.605,0.471,-0.102,6.307,-1.281,4.114,11.122,-0.883,1.523,-2.216,19.526,23.047,31.773,-0.476,-4.134,8.943,375.931,209.598,-43.859,0.327,-37.846,301.055,138.832
3.7548593000974506,237.851,4.158,61.287,7.695,36.219,99.879,-98.097,0.983,-0.614,9.887,0.257,8.721,13.672,-15.739,-18.97,1.885,20.531,27.123,41.475,-2.013,9.19,14.57,408.343,224.757,-52.524,11.085,-70.083,313.561,107.955
3.754984400002286,250.421,5.178,38.172,40.475,22.351,106.439,-97.999,-0.043,6.559,3.729,-8.965,6.663,11.097,-11.625,-3.07,-2.728,25.634,32.731,38.872,-2.523,17.378,12.506,421.767,241.951,-83.722,-21.201,-83.333,280.972,80.695
3.7659052999224514,232.752,14.907,24.814,52.218,20.792,107.87,-99.438,-1.58,6.552,2.701,-3.32,-2.565,3.401,-0.343,29.721,-8.873,8.702,0.423,12.705,1.578,11.213,11.469,394.193,209.434,-86.2,-33.988,-51.999,280.691,70.368
3.766032800078392,237.642,14.892,44.769,33.723,34.091,93.93,-76.797,-3.115,0.398,3.21,-0.243,-5.124,2.373,-11.101,17.396,-10.913,-8.725,-25.705,-13.948,0.039,9.152,8.896,397.385,176.949,-90.725,-22.683,-80.124,313.198,38.022
3.7822469999082386,256.36,9.242,48.31,45.472,18.175,93.836,-76.208,-6.698,0.398,-2.428,-12.538,-1.02,2.883,-22.361,-7.212,-16.025,-6.667,-25.68,-18.544,-6.108,11.193,6.326,395.963,166.526,-104.466,-37.517,-102.585,298.028,34.91
3.7823614000808448,225.365,14.356,28.794,45.427,-7.458,95.791,-108.407,-6.691,-0.115,-4.475,-16.624,-2.044,1.343,-15.678,6.115,-15.497,-3.074,-36.925,-22.112,-7.639,6.058,6.319,363.292,156.625,-82.845,-30.82,-69.695,266.479,67.663
3.7959290000144392,200.037,16.903,26.204,13.106,-1.816,86.986,-112.909,-4.635,-7.8,-0.372,-7.898,-7.165,0.829,-15.15,-1.064,-4.211,-9.731,-59.429,-44.632,-7.119,2.978,0.165,330.653,154.42,-60.733,1.999,-69.625,281.07,62.985
3.797988299978897,222.378,3.566,35.399,11.556,16.629,100.731,-80.008,-8.729,-10.866,-3.446,-6.866,-6.646,1.853,-21.795,-33.338,-4.719,-14.332,-68.592,-60.981,-10.698,5.025,-3.421,343.13,168.098,-77.066,-14.91,-92.097,278.227,30.646
3.812099999981001,209.348,-2.585,29.216,22.815,20.199,121.635,-86.076,-8.721,-3.17,-11.127,-13.007,-4.077,-1.735,-14.089,-21.521,-10.862,-7.658,-65.449,-53.747,-13.761,5.02,2.73,341.25,169.979,-79.038,-47.17,-59.217,245.674,33.69
3.8122195000760257,186.085,10.737,16.379,4.349,26.326,101.021,-118.265,-2.564,0.419,-9.067,-12.481,-5.098,-4.295,-3.828,8.726,-4.703,-4.577,-62.31,-47.034,-8.112,-1.645,0.166,308.633,155.464,-50.782,-26.631,-45.838,249.526,52.099
3.8250569999217987,218.687,14.313,20.461,7.931,31.935,87.6,-101.241,-0.512,-9.827,-2.397,-12.469,-5.605,3.907,-9.46,-13.824,-1.625,-7.646,-53.538,-53.647,-5.03,-5.742,-7.007,306.276,157.87,-43.559,6.184,-78.068,282.064,19.771
3.8251761998981237,238.448,0.466,22.49,39.174,16.022,120.3,-68.352,-1.536,-13.404,-2.395,-17.579,-0.989,11.587,-15.086,-28.667,-8.283,3.633,-36.579,-44.371,-10.148,1.436,0.173,330.048,182.303,-38.392,-6.63,-68.256,281.27,27.949
3.8412424998823553,205.934,0.978,9.148,29.913,3.198,128.889,-83.141,1.027,-3.656,-0.343,-13.463,0.549,3.891,-8.411,-0.462,-2.127,11.826,-29.37,-27.421,-10.65,6.557,3.759,327.156,188.781,-5.566,-5.087,-35.4,271.767,60.708
3.8416140999179333,211.364,13.785,16.311,-2.392,22.663,96.485,-100.476,2.563,-4.165,6.829,-4.741,-3.038,0.301,-9.939,-6.096,6.072,-1.506,-42.148,-41.738,-9.103,-2.158,-7.004,309.411,174.76,20.567,22.071,-37.414,281.229,46.303
3.8561841000337154,243.94,11.209,42.935,1.708,44.157,101.512,-77.322,2.048,-10.821,5.285,-8.834,-3.035,6.449,-18.126,-33.755,-0.594,-6.115,-51.327,-59.115,-17.291,-5.23,-9.046,309.613,172.536,-2.507,14.876,-69.652,272.239,13.981
3.8637234999332577,236.011,9.149,35.719,34.494,46.674,134.198,-76.732,0.509,-1.589,-1.38,-11.387,-1.495,0.807,-14.522,-7.081,-7.254,5.674,-40.005,-44.711,-23.421,0.411,-4.426,318.013,177.998,-31.706,-11.266,-65.484,258.134,25.238
3.8858342999592423,207.599,19.898,12.117,45.731,51.239,122.793,-99.709,-3.078,6.098,-0.866,-6.765,-2.005,-5.854,-12.458,25.714,-6.222,0.545,-30.231,-33.908,-17.762,-3.176,-9.545,321.281,180.382,-42.946,-3.058,-69.004,285.029,35.971
3.8860396000090986,238.642,19.366,17.741,43.123,46.064,102.178,-87.826,-5.124,-1.593,-1.89,-12.394,-0.979,0.812,-20.131,4.683,-4.679,-4.066,-34.3,-42.071,-14.671,-5.734,-11.072,327.62,200.182,-48.026,11.802,-86.866,309.847,22.615
3.886166400043294,240.452,9.613,24.383,67.671,18.354,122.568,-80.566,-3.582,-5.178,-5.986,-16.992,1.071,1.836,-18.061,-8.641,-3.137,7.721,-36.827,-39.98,-17.218,-0.093,-3.376,327.805,211.252,-39.781,4.618,-54.504,285.458,55.38
3.9014302000869066,207.936,11.14,26.408,65.554,9.626,128.593,-109.175,-1.529,-1.074,-0.857,-8.778,0.046,-1.24,-11.383,15.958,-1.085,5.664,-39.864,-36.866,-15.151,-2.655,-3.885,314.669,189.012,-23.347,17.421,-34.469,275.439,88.113
3.9017217000946403,222.585,12.666,47.386,33.213,33.695,108.997,-103.43,-1.528,-6.708,4.779,-8.257,0.558,6.958,-13.421,15.43,-3.133,-1.002,-50.07,-48.612,-19.234,-5.726,-9.517,309.744,192.409,-27.422,49.679,-66.71,307.951,55.749
3.9154733000323176,249.003,6.506,49.388,39.84,44.932,120.671,-70.539,-2.551,-8.238,-1.374,-12.347,1.582,8.488,-11.871,-7.64,-7.228,18.467,-47.459,-52.662,-28.437,-0.085,-7.458,319.68,225.004,-50.449,36.309,-58.446,297.909,23.418
3.9156722999177873,216.478,9.573,22.699,72.588,41.301,141.555,-75.079,-1.011,2.528,-4.446,-7.212,-2.518,0.795,-6.223,6.713,-7.221,31.256,-29.993,-45.437,-25.334,-0.085,-3.865,324.996,217.607,-64.231,3.998,-25.6,265.336,41.325
3.9372181000653654,215.75,17.76,21.651,54.585,54.067,116.31,-88.324,1.039,3.55,2.218,-8.741,-3.028,2.331,-10.316,27.711,-2.091,12.782,-26.889,-39.756,-15.575,-7.769,-4.373,325.695,185.114,-66.216,16.289,-49.653,292.223,52.555
3.937371199950576,248.322,12.619,30.339,22.255,54.013,89.042,-76.453,1.038,-5.162,3.241,-17.442,5.685,10.013,-12.354,5.654,0.473,6.622,-30.96,-36.643,-15.047,-6.737,-4.369,329.468,208.495,-63.075,49.06,-67.022,324.719,46.867
3.9452591000590473,267.541,3.385,19.038,55.02,21.684,114.056,-85.598,2.061,-2.596,-2.91,-12.301,8.24,11.028,-6.194,-3.574,-1.577,31.206,-10.437,-36.094,-20.668,-1.607,-2.315,329.651,241.074,-48.668,46.45,-34.167,318.246,69.874
3.945399499963969,234.998,4.919,28.24,75.457,18.076,136.483,-103.956,4.621,4.579,1.703,0.006,2.084,6.406,-4.651,27.681,-0.551,46.031,22.361,-35.033,-21.672,-4.167,-6.411,322.149,222.902,-38.373,27.96,-38.232,296.411,97.469
3.960294699994847,220.418,8.5,55.877,43.106,50.845,112.268,-90.019,3.079,5.599,10.923,-0.506,1.57,5.887,-8.233,26.116,-0.038,39.325,33.609,-25.776,-18.576,-7.237,-14.602,318.241,221.142,-55.241,32.543,-70.469,320.705,86.1
3.9604358000215143,252.986,7.979,52.235,48.186,52.332,101.397,-77.122,-1.534,5.594,6.814,-8.702,5.155,12.029,-7.712,-4.648,-5.673,37.237,32.551,-12.943,-17.533,-4.668,-9.464,327.144,253.709,-78.239,5.358,-66.3,302.966,75.768
3.9753272999078035,233.265,11.045,30.153,80.926,21.028,124.862,-82.68,-2.558,6.1,-1.902,-9.206,1.051,9.456,-4.631,12.775,-5.667,37.712,46.351,-5.758,-14.442,-7.225,-1.77,334.501,250.894,-75.087,-26.923,-52.401,270.388,95.16
3.9903315000701696,200.756,14.108,27.049,55.742,20.495,123.2,-85.159,0.007,1.996,0.149,-5.611,-0.999,1.249,-5.138,44.525,0.998,25.891,53.477,-2.678,-8.792,-13.365,-9.453,334.167,218.367,-57.081,5.892,-84.624,302.905,99.163
3.9928892999887466,233.343,8.458,29.071,23.411,24.061,101.048,-92.758,3.08,-3.642,5.272,-7.654,5.149,5.346,-6.158,23.476,3.559,21.767,47.276,11.157,-5.709,-6.179,-7.906,363.034,236.08,-57.024,38.674,-95.81,335.39,82.158
3.9930082000792027,220.302,4.864,27.505,50.027,0.471,102.996,-106.498,5.127,-1.589,4.242,-9.184,9.243,12.001,-1.029,-2.675,1.506,33.016,57.475,41.884,-2.63,5.61,11.057,395.459,257.361,-69.775,6.36,-62.927,302.779,92.834
4.0098699000664055,187.807,11.007,45.921,51.514,9.179,110.065,-102.293,2.048,6.097,3.725,-3.027,4.623,10.964,-2.052,2.963,-1.569,33.495,62.028,55.675,3.008,4.58,13.095,421.191,224.828,-74.828,-25.922,-67.475,270.201,103.5
4.010002299910411,210.673,13.557,72.515,30.97,41.958,105.345,-82.21,-4.102,6.604,5.259,-3.024,-0.505,11.466,-13.833,2.447,-6.178,19.117,29.69,28.979,-0.068,5.6,4.373,404.376,196.426,-80.389,-13.601,-99.683,293.497,72.146
4.020408800104633,243.25,11.494,53.487,53.481,31.67,101.653,-72.394,-6.147,4.035,4.741,-9.681,-1.017,10.942,-10.746,3.982,-9.246,11.925,-1.59,2.822,-9.29,16.352,12.053,412.169,215.697,-93.116,-22.296,-88.824,298.327,55.68
4.020555499941111,212.268,14.557,21.158,60.6,-0.637,88.231,-89.74,-2.555,6.081,0.638,-6.597,-1.528,4.271,0.536,25.495,-6.675,9.352,1.998,2.307,-4.158,14.799,16.652,434.298,209.334,-88.925,-40.717,-60.559,279.585,77.141
4.036134399939328,181.83,14.542,30.871,28.264,3.974,69.7,-107.581,-1.016,0.952,-2.437,-3.004,-4.088,3.242,-7.149,21.883,-4.619,-0.903,-4.664,-4.355,5.58,3.514,6.389,407.736,177.362,-71.929,-15.061,-83.04,312.093,68.867
4.051689099986106,212.386,5.818,61.578,20.039,23.95,77.315,-99.277,-4.601,-8.783,-3.459,-13.76,-5.109,6.825,-17.901,-5.803,-9.226,-8.075,-33.349,-22.794,-0.06,7.609,4.333,375.053,171.549,-82.616,-5.824,-115.232,327.663,41.133
4.059299699962139,187.071,5.3,41.537,50.245,-0.665,97.218,-98.153,-8.182,-6.213,-4.48,-18.357,-5.616,4.257,-12.76,-3.748,-11.778,-8.579,-54.32,-28.919,-10.307,14.773,12.014,369.555,161.644,-107.636,-24.774,-83.866,295.06,60.048
4.095579999964684,154.608,11.443,29.2,49.17,-8.861,97.633,-107.276,-8.174,-0.571,-4.988,-3.994,-6.123,0.154,-9.161,2.916,-9.717,-9.083,-55.803,-30.939,-8.759,6.562,9.952,362.525,138.428,-98.82,-10.917,-55.605,270.686,68.697
4.095968300011009,187.241,5.796,60.421,19.407,23.936,93.949,-74.381,-7.141,-5.182,-3.958,-1.941,-4.579,-0.358,-13.25,-19.117,-11.756,-8.561,-47.55,-42.691,-6.189,0.92,-1.841,329.887,150.073,-75.155,-1.684,-87.313,303.203,36.353
4.101465800078586,212.67,-1.382,48.066,17.851,26.986,95.904,-52.79,-7.646,-3.127,-4.979,-17.82,-3.038,-0.87,-13.749,-22.684,-13.282,-8.041,-50.064,-50.333,-9.769,5.017,-5.937,303.43,172.464,-69.444,-27.298,-75.442,291.117,16.336
4.101772699970752,190.94,8.353,15.742,30.128,-5.317,83.001,-85.013,-3.54,2.511,-10.609,-18.315,-4.572,-2.406,-9.124,-0.119,-2.51,-9.057,-58.211,-46.697,-7.71,2.963,0.729,301.077,163.07,-57.592,-18.049,-42.579,270.333,49.108
4.1026224999222904,212.266,15.517,34.682,15.753,-0.188,75.745,-117.203,3.123,-10.299,-9.062,-6.513,-4.055,2.719,-6.041,-6.779,4.665,-8.024,-47.394,-43.576,-4.116,-1.139,1.24,298.727,154.71,-32.943,14.757,-74.812,302.851,41.886
4.102916500065476,227.935,3.718,59.75,9.59,29.013,105.896,-84.298,0.559,-19.51,-0.856,-11.63,1.072,7.839,-11.159,-24.703,-3.537,-3.917,-42.224,-49.168,-10.772,2.961,-3.884,281.01,156.605,-24.713,13.205,-107.013,320.479,11.618
4.111746399896219,195.432,-0.384,33.563,32.122,24.886,132.942,-51.426,-5.077,-5.146,-1.879,-20.327,2.096,4.758,-16.783,-9.822,-8.144,-2.376,-53.452,-50.656,-15.372,5.52,-1.831,268.433,143.64,-26.226,-19.084,-74.118,287.883,43.37
4.118924299953505,184.478,10.375,31.992,31.065,32.546,118.977,-83.65,-1.998,4.081,-5.464,-9.549,-4.566,1.679,-11.131,-0.59,-3.013,-2.374,-43.665,-42.408,-11.258,1.416,0.732,281.485,142.984,-19.027,-28.286,-43.305,264.029,61.257
4.145529400091618,217.081,11.389,62.699,16.177,58.641,107.075,-85.104,-0.46,-3.608,-0.847,0.195,-6.099,5.776,-10.095,-17.496,-3.522,2.239,-25.69,-39.804,-13.296,-1.147,-2.342,299.646,171.531,-23.619,-18.012,-75.537,296.552,28.921
4.145697399973869,230.184,7.279,44.193,35.629,41.676,120.8,-75.285,-1.996,-3.604,1.203,-7.49,0.055,2.696,-19.306,-5.183,-4.031,6.848,-32.325,-41.813,-21.992,0.391,-1.315,297.81,190.827,-33.329,-11.846,-64.191,307.527,42.212
4.148083300096914,206.9,16.494,11.873,49.938,9.359,118.63,-105.435,1.08,2.547,-0.848,-12.093,0.055,-4.479,-15.701,27.61,2.633,0.693,-38.44,-39.21,-20.433,-1.147,-3.363,291.877,188.074,-23.049,4.047,-31.339,328.224,74.957
4.148215899942443,227.698,22.112,32.866,39.129,17.034,107.753,-99.695,1.591,-2.579,1.202,-7.983,-4.044,1.161,-7.488,13.238,-0.443,-8.529,-34.816,-44.806,-13.24,-6.268,-11.044,291.073,184.813,-22.002,19.925,-63.583,360.683,45.681
4.156517999945208,243.864,11.332,65.621,58.558,32.386,128.65,-75.004,-3.534,-7.699,-0.336,-11.049,-0.453,6.795,-13.116,-19.051,-8.64,-3.91,-39.392,-49.372,-15.789,-6.774,-8.984,287.195,178.992,-40.935,7.61,-90.672,328.047,30.266
4.156677100108936,211.345,5.685,53.26,78.992,33.891,147.477,-89.274,-6.092,-2.568,-3.922,-14.111,1.084,-0.384,-14.64,0.948,-6.069,4.291,-40.889,-38.052,-21.921,-3.694,-3.852,289.982,171.129,-43.456,5.04,-57.794,295.444,63.023
