Timestamp,Cz,Fz,Fp1,F3,C1,C3,T7,C5,CP5,CP3,CP1,P1,P3,O1,CPz,Pz,Oz,O2,P4,P2,CP2,CP4,CP6,C6,T8,C4,C2,F4,Fp2
0.0,8.342,-31.208,-41.603,-46.43,-206.672,120.654,-4.823,-15.733,-5.022,12.037,-5.168,-9.335,0.382,3.49,125.182,4.306,-0.63,-49.857,-7.194,4.481,-85.775,-0.908,-1.487,3.02,-36.465,-6.963,266.81,-0.363,-36.602
0.015003799999703915,18.58,-25.029,-38.487,-38.186,-191.609,127.706,2.866,-4.959,-2.968,20.222,-2.602,-3.69,2.943,5.023,130.693,10.45,5.006,-48.782,-6.675,8.575,-85.177,0.63,2.613,-1.594,-40.527,-4.394,272.691,3.224,-30.93
0.01507469999978639,19.073,-30.127,-39.986,-37.636,-188.343,130.14,1.327,0.169,-0.916,23.276,5.085,1.437,2.428,5.53,133.123,13.001,7.05,-51.295,-2.057,9.591,-86.629,2.166,5.172,5.068,-50.22,3.295,274.98,1.171,-41.658
0.030048399999941466,15.981,-32.146,-47.63,-41.184,-185.593,130.522,-7.896,2.73,4.721,24.79,9.179,4.509,7.037,6.037,134.015,18.623,7.555,-48.17,4.093,16.242,-78.857,11.898,9.777,14.284,-44.022,9.952,275.729,0.658,-44.178
0.030114599999706115,19.038,-23.405,-52.193,-40.631,-176.699,128.855,-4.302,0.166,4.716,26.302,8.145,7.066,6.517,10.13,137.467,26.802,11.646,-44.536,9.212,19.812,-73.143,19.058,21.038,17.856,-32.195,11.479,277.503,6.805,-38.498
0.046110299999782,27.216,-20.307,-43.944,-38.029,-172.423,128.726,12.608,-3.42,5.736,30.886,12.235,13.207,5.998,14.218,140.403,30.361,16.245,-38.856,16.375,18.255,-72.045,22.625,26.653,22.449,-29.089,14.029,279.787,12.946,-35.386
0.04617740000003323,26.164,-26.435,-34.167,-38.503,-176.862,130.134,16.694,2.731,12.902,33.417,13.76,12.169,12.14,11.13,139.751,26.744,14.692,-38.305,13.797,20.798,-70.949,21.066,18.941,21.402,-33.671,12.99,283.093,10.371,-34.838
0.06002469999975801,15.892,-30.507,-41.305,-43.075,-182.32,129.492,5.407,9.388,13.914,31.846,7.086,2.423,8.029,4.971,137.562,19.033,7.505,-49.025,1.488,17.191,-79.587,8.237,11.75,9.597,-38.248,4.268,279.736,1.652,-41.463
0.06008769999971264,16.389,-26.89,-48.436,-41.495,-179.576,130.387,8.987,6.305,11.851,33.352,5.542,-0.653,1.874,4.454,135.375,14.403,4.424,-50.513,-1.075,8.977,-87.704,3.106,11.226,4.977,-35.648,4.776,273.821,0.625,-47.057
0.07508909999978641,22.52,-22.765,-37.629,-31.207,-168.126,131.793,18.712,6.299,12.864,34.343,9.635,3.958,10.581,4.962,135.752,17.975,7.493,-47.388,2.512,9.993,-81.981,8.738,8.653,8.046,-36.637,8.869,276.109,4.211,-39.838
0.07515179999973043,16.35,-27.353,-36.054,-30.152,-166.421,127.051,4.861,9.366,6.191,28.161,5.015,-0.144,8.009,-0.679,133.055,15.396,2.363,-58.099,-5.688,7.421,-85.486,2.069,1.985,3.427,-49.921,-0.361,270.71,-1.429,-38.773
0.09014200000001438,5.575,-36.547,-48.314,-46.515,-177.525,117.702,-5.902,-0.377,-5.598,20.448,-1.65,-6.804,-5.319,-2.727,124.212,5.646,-5.837,-62.652,-11.83,0.754,-98.72,-6.642,-0.066,-1.7,-47.822,-6.508,258.144,-8.6,-47.956
0.09020590000000084,8.643,-35.998,-45.704,-56.203,-175.299,112.461,4.35,-14.209,-6.105,19.403,0.401,-1.674,0.322,7.009,121.527,10.764,2.366,-48.245,-3.109,7.925,-93.498,4.636,8.131,4.45,-27.281,1.695,263.521,-1.931,-43.297
0.1051313999996637,17.344,-28.79,-40.023,-47.95,-160.266,115.423,-1.29,-13.17,-0.976,23.482,8.597,6.524,8.006,13.662,129.602,25.098,13.122,-38.463,6.116,17.651,-82.646,15.389,17.344,11.618,-25.205,8.353,272.991,4.219,-36.594
0.10519750000003114,20.4,-28.249,-50.229,-43.291,-159.594,119.918,-20.244,-9.058,-3.536,24.995,12.175,6.518,1.85,9.038,136.132,26.097,11.572,-38.937,8.159,17.121,-82.051,15.886,20.913,16.217,-36.45,9.882,268.62,-0.396,-43.73
0.12005999999973938,21.917,-26.171,-51.203,-44.784,-167.631,120.31,-15.613,-10.586,-5.582,21.384,11.138,7.024,3.385,4.93,138.045,24.534,10.536,-38.385,8.663,19.153,-77.871,21.506,24.478,22.348,-27.705,16.02,271.937,3.19,-42.661
0.12011619999975665,24.969,-19.485,-39.881,-38.592,-168.488,119.165,-3.814,-2.891,-0.966,20.851,9.078,6.504,5.431,4.413,136.883,25.534,8.989,-40.908,5.069,18.622,-77.281,20.46,23.941,22.838,-19.48,17.541,280.375,11.896,-35.959
0.13519429999996646,19.308,-24.076,-43.94,-36.504,-175.492,118.022,-4.323,3.772,0.06,22.367,3.433,-2.724,-0.722,1.847,129.061,15.775,0.27,-52.138,-3.133,7.845,-89.499,5.07,12.134,10.52,-32.781,7.789,273.434,2.15,-45.657
0.1352575999999317,5.457,-35.323,-55.679,-47.738,-189.149,111.244,-6.368,-7.503,-3.526,17.221,-5.28,-10.406,-2.77,-2.253,121.248,3.464,-4.341,-59.259,-10.303,2.714,-97.606,-3.132,-2.223,-4.86,-42.994,-4.001,267.013,-17.319,-58.931
0.15020219999996698,-1.721,-38.874,-57.672,-54.863,-194.083,106.009,-11.997,-15.692,-5.06,10.544,-9.885,-12.444,-4.817,-10.448,122.151,0.386,-7.41,-60.736,-15.928,2.711,-97.509,-4.154,-7.343,-7.929,-45.0,-7.584,266.746,-23.45,-57.847
0.15026609999995344,2.379,-39.347,-54.541,-52.759,-194.401,110.514,-18.132,-11.578,-6.592,8.484,-9.875,-13.969,-7.886,-12.487,124.59,-0.639,-10.989,-61.7,-16.424,1.172,-97.923,-6.199,-3.238,-1.773,-52.128,-2.453,262.893,-16.766,-54.203
0.16561249999995198,9.549,-35.21,-51.925,-51.169,-194.719,117.576,-12.479,-9.005,-6.585,12.062,-5.767,-5.758,-2.243,-1.203,126.515,6.022,-1.244,-56.003,-6.674,6.293,-87.067,-0.045,2.401,2.84,-50.026,3.185,268.778,-9.065,-50.563
0.16567559999975856,16.712,-23.904,-44.188,-44.97,-191.45,121.044,-5.806,-6.434,0.594,20.247,2.948,3.982,1.858,2.896,133.561,18.311,6.954,-46.213,-0.519,10.386,-75.197,6.103,3.423,1.812,-37.168,4.206,282.341,-4.957,-44.877
0.18031199999995806,18.232,-21.83,-39.021,-38.265,-189.722,120.923,-10.411,-8.99,2.13,22.788,4.482,-0.121,-2.755,-7.353,134.452,14.707,-1.25,-49.241,-6.154,2.691,-79.732,0.974,-0.679,-2.288,-35.594,1.641,279.498,-4.953,-42.271
0.18038069999965956,14.115,-29.493,-43.593,-42.326,-193.118,114.142,-24.745,-20.251,-6.581,13.544,-1.67,-5.756,-3.776,-7.345,127.145,5.983,-4.322,-53.802,-7.685,1.151,-81.702,1.997,-0.166,-2.286,-43.243,0.614,271.021,-5.46,-43.765
0.195284399999764,18.712,-24.341,-45.598,-42.283,-188.827,113.004,-33.942,-18.182,-7.087,15.067,4.992,2.959,-1.211,3.933,131.116,16.223,7.465,-40.941,2.569,13.445,-67.788,14.291,7.519,6.938,-46.274,6.761,280.484,-2.893,-41.16
0.1953550999996878,30.476,-10.996,-33.77,-34.044,-179.416,125.698,-16.49,-5.356,5.215,30.934,17.794,13.202,3.401,8.54,145.842,30.039,14.117,-30.141,10.763,19.579,-55.425,21.449,15.709,15.64,-43.154,15.464,291.474,0.696,-32.922
0.21036809999986872,27.884,-14.572,-28.613,-36.572,-181.798,130.696,1.457,-9.449,6.235,30.39,16.752,10.115,7.496,3.408,148.258,27.448,7.956,-40.87,6.654,14.949,-55.882,20.915,14.668,12.551,-39.525,14.936,290.158,-1.866,-33.914
0.21043509999981325,15.561,-26.34,-41.392,-44.732,-190.838,120.319,-15.962,-16.1,-5.554,17.552,9.563,2.933,2.365,-2.231,139.913,21.785,0.263,-50.563,-1.55,10.836,-60.436,15.771,8.506,5.366,-42.047,7.749,286.282,-10.061,-46.175
0.22531009999966045,16.57,-26.314,-48.523,-41.613,-189.623,117.637,-25.168,-9.423,-2.987,22.658,10.578,6.516,-1.735,-1.716,136.699,23.3,2.312,-44.364,-0.524,12.874,-58.327,12.682,7.473,8.947,-47.128,11.327,282.922,-13.637,-50.74
0.23925549999967188,22.701,-23.214,-40.79,-33.887,-181.236,124.179,-3.626,-2.242,10.848,33.394,16.715,15.219,5.439,2.896,140.661,27.887,9.482,-40.222,2.551,16.447,-51.096,16.255,11.564,17.135,-42.982,15.414,283.151,-10.55,-43.517
0.23931489999995392,16.019,-26.776,-38.7,-32.829,-174.395,120.981,-1.061,2.884,13.399,32.336,19.26,13.666,8.507,2.893,139.495,26.835,7.423,-44.792,-4.624,12.332,-51.557,14.702,8.478,15.068,-36.791,8.227,287.479,-11.564,-43.986
0.2542841999998018,5.756,-32.385,-49.932,-38.431,-173.708,113.176,-20.015,1.856,5.188,25.643,11.044,4.431,0.814,-1.72,131.159,14.513,-0.781,-50.895,-11.792,1.049,-60.727,3.416,-1.776,3.782,-43.927,2.583,279.507,-24.36,-55.212
0.25599019999981465,1.14,-37.988,-59.103,-46.077,-181.219,112.038,-21.532,-12.49,-1.477,19.47,-0.238,-2.746,-3.798,-7.354,126.417,2.715,-5.391,-53.918,-10.755,-2.026,-62.716,-1.198,-7.41,-0.32,-54.129,3.093,267.444,-35.606,-61.305
0.2693921000000046,3.7,-37.95,-52.384,-46.031,-183.599,114.488,-15.875,-15.039,2.111,17.914,2.836,-3.767,-1.745,-8.371,130.389,6.299,-3.336,-48.229,-8.695,4.637,-55.481,4.439,-2.792,6.34,-51.513,4.114,275.886,-30.96,-54.583
0.269461500000034,13.43,-27.154,-37.987,-35.739,-173.682,119.496,-18.933,0.345,12.867,25.58,13.592,4.946,3.38,-1.191,137.431,19.612,1.79,-37.934,-3.564,10.267,-47.228,10.582,7.457,14.531,-45.827,10.258,288.418,-19.658,-40.697
0.28446119999989605,19.565,-22.516,-35.9,-30.58,-168.898,124.5,-20.963,2.394,15.928,29.141,17.164,15.187,6.963,2.909,139.855,26.765,4.862,-33.798,3.612,15.38,-40.009,15.182,9.499,17.59,-45.781,15.371,284.031,-19.126,-37.582
0.2845280999999886,16.984,-30.178,-39.45,-34.136,-170.266,124.888,-14.282,-3.756,11.301,26.55,17.659,13.635,6.444,-0.68,140.74,27.763,4.857,-34.789,2.584,18.951,-35.87,15.167,3.342,11.425,-39.587,9.72,282.722,-23.206,-40.618
0.2998168999997688,16.454,-29.123,-32.239,-35.126,-168.046,121.176,-7.608,-0.166,12.315,25.499,16.105,10.547,4.9,4.444,143.161,27.223,6.902,-35.779,-1.005,16.37,-36.347,9.004,3.851,1.68,-33.912,4.587,289.099,-25.232,-36.479
0.2998811999996178,12.852,-25.508,-31.182,-36.628,-173.513,116.957,-16.822,-5.802,8.716,20.35,6.867,11.049,2.334,8.025,139.431,21.56,4.845,-37.28,-5.614,10.719,-38.872,1.823,5.896,-0.883,-45.149,5.607,284.712,-29.305,-37.467
0.3144011999997929,4.13,-33.679,-41.909,-42.739,-179.488,114.791,-30.638,-19.628,-3.588,14.182,1.737,4.378,-2.279,-2.741,131.607,12.829,-2.844,-40.829,-12.269,6.097,-41.907,-1.765,-1.794,-0.37,-55.862,2.015,279.816,-35.423,-49.213
0.31617359999972905,7.199,-37.232,-44.429,-43.721,-168.55,116.213,-24.459,-18.072,-2.56,18.779,7.371,-0.75,-2.789,-5.812,132.5,9.23,-5.403,-42.325,-11.744,6.091,-43.914,-2.276,-6.403,-2.931,-50.171,-3.11,280.049,-35.388,-50.701
0.3294968999998673,16.414,-32.584,-39.773,-38.554,-157.11,119.17,-15.726,-8.832,8.201,26.445,13.511,6.936,3.873,3.415,135.954,17.418,-0.786,-38.696,-4.56,11.208,-40.797,2.337,1.288,-0.879,-45.51,-1.057,275.158,-32.791,-42.453
0.3295632999997906,16.397,-32.039,-39.221,-34.417,-154.904,120.076,-20.833,-3.188,12.292,31.029,18.621,14.614,12.067,3.924,136.33,26.622,2.288,-31.998,1.08,15.295,-32.047,10.532,8.971,6.806,-47.514,6.116,277.444,-31.221,-42.411
0.34450669999978345,15.868,-32.007,-36.621,-33.87,-152.188,121.493,-19.275,2.451,14.841,34.584,20.651,12.037,13.079,0.334,140.293,25.059,3.31,-31.453,4.665,16.305,-26.379,16.157,12.548,10.386,-40.806,11.745,289.975,-31.702,-42.881
0.34457149999980174,19.439,-30.95,-31.973,-32.812,-159.208,122.908,-12.596,0.911,13.801,29.939,14.483,9.464,6.406,3.408,143.226,19.398,1.77,-34.496,6.197,17.313,-24.816,18.19,16.122,11.4,-36.667,12.758,296.345,-31.671,-38.739
0.3595050999997511,20.444,-27.845,-27.33,-25.607,-168.782,123.81,-9.509,-2.163,10.714,27.86,13.956,13.553,6.912,5.966,142.571,22.453,2.281,-29.85,7.216,21.394,-18.643,21.246,20.204,20.098,-39.704,16.332,300.659,-28.053,-36.139
0.3595651999999063,27.596,-15.522,-17.057,-13.286,-155.294,128.809,1.259,4.499,16.851,37.053,25.725,22.248,16.639,8.009,149.088,32.164,9.963,-22.136,14.381,28.033,-9.915,30.446,26.844,32.373,-29.419,25.537,310.092,-20.34,-27.394
0.37444949999962773,34.741,-5.26,-13.966,-7.637,-138.232,133.291,2.794,8.08,19.908,35.992,31.335,28.374,17.135,8.513,153.037,37.767,12.002,-22.626,16.928,31.078,-7.344,35.026,27.329,30.291,-20.68,25.511,309.27,-14.684,-19.682
0.37628759999961403,27.533,-11.915,-22.661,-12.24,-140.143,125.985,-12.066,0.388,12.716,26.734,26.693,23.222,11.994,3.894,145.2,35.168,4.818,-27.214,9.226,24.387,-10.411,26.282,16.544,17.453,-33.467,16.776,301.276,-18.256,-23.76
0.3895693999998002,20.334,-20.1,-28.786,-20.425,-144.614,117.663,-12.053,-2.686,11.166,28.244,21.543,15.515,14.032,2.865,141.468,26.936,1.227,-29.236,4.606,17.191,-17.06,17.034,10.892,16.411,-43.68,15.735,300.975,-25.41,-28.86
0.40460499999971944,18.776,-19.568,-32.856,-27.065,-141.908,121.131,-7.943,-1.147,12.179,30.265,19.472,13.45,11.968,1.326,142.352,18.2,2.25,-30.232,3.577,16.661,-20.629,15.992,14.467,18.444,-41.074,15.207,300.674,-26.409,-28.318
0.4046696000000338,14.147,-21.085,-43.582,-33.185,-138.692,122.547,-22.28,-5.244,6.532,24.087,16.891,10.363,5.296,-4.823,137.598,13.571,-2.363,-31.738,-0.013,14.595,-19.584,13.927,9.842,10.741,-47.181,10.581,296.787,-26.383,-34.95
0.41993379999985336,14.133,-25.162,-48.149,-38.275,-139.065,114.74,-27.893,-9.85,4.988,22.526,13.288,7.791,4.266,-4.819,137.461,13.557,-5.946,-28.633,-0.525,11.507,-20.589,11.352,4.196,11.755,-51.745,14.157,296.49,-29.43,-42.087
0.41999459999988176,23.34,-20.527,-41.953,-33.114,-139.439,112.576,-22.229,-8.303,7.545,23.016,15.324,10.857,5.799,2.871,140.91,17.642,1.232,-21.432,6.648,18.155,-18.007,19.025,15.975,25.063,-40.422,20.802,300.292,-24.278,-33.848
0.4345766999999796,26.903,-9.748,-33.714,-18.224,-133.152,120.66,-24.256,-3.172,6.513,22.481,22.993,14.432,5.281,3.893,138.207,22.235,4.817,-17.824,13.813,25.822,-8.255,27.715,28.767,32.21,-29.623,25.392,306.14,-12.47,-18.445
0.4346328999999969,22.265,-9.738,-26.508,-11.546,-137.117,124.638,-22.695,-5.73,2.92,20.409,20.921,10.319,2.714,-5.333,138.581,18.114,-7.996,-27.54,10.726,20.673,-8.247,23.077,22.078,29.617,-32.155,25.879,311.469,-13.482,-17.402
0.4496454999998605,16.095,-17.925,-25.969,-19.731,-157.472,123.489,-22.673,-12.897,1.893,15.266,10.142,4.673,-2.924,-14.037,142.541,10.924,-17.209,-38.783,4.055,14.505,-17.46,14.344,11.81,26.001,-40.832,18.169,312.182,-25.252,-27.119
0.44970999999986816,15.567,-14.833,-24.919,-20.736,-157.315,122.853,-30.335,-8.273,7.014,16.787,11.156,8.767,0.665,-9.412,141.886,15.524,-6.946,-30.548,7.125,19.101,-14.369,17.916,16.409,29.049,-38.23,18.663,315.456,-25.227,-24.53
0.4646623999997246,17.601,-7.646,-14.648,-10.981,-136.665,122.218,-20.058,1.982,12.642,22.406,15.756,14.394,7.837,-0.181,138.158,18.07,-1.304,-18.734,10.192,19.594,-12.817,18.411,19.466,33.118,-23.847,25.817,320.264,-17.005,-13.747
0.46474289999969187,7.849,-16.348,-12.584,-11.995,-140.114,117.485,-3.644,-5.705,5.969,15.723,4.469,4.646,-1.393,-7.353,132.385,2.17,-13.085,-29.474,-5.7,5.23,-29.711,-0.563,4.078,17.716,-28.946,12.471,317.382,-23.648,-19.369
0.4797606999995878,-3.942,-28.627,-21.28,-19.155,-150.221,112.244,-10.813,-12.359,-2.233,7.511,-5.269,-7.654,-8.564,-18.104,123.031,-11.152,-19.732,-42.764,-20.551,-5.534,-39.415,-15.42,-9.759,1.817,-48.385,-3.423,316.04,-36.432,-27.546
0.47982639999963794,1.185,-25.012,-15.624,-14.525,-130.09,112.644,-11.314,0.973,4.941,12.626,2.933,-3.036,2.203,-11.426,121.883,-4.481,-15.102,-34.525,-12.846,0.107,-31.179,-8.232,-4.114,13.598,-44.238,6.826,321.871,-32.809,-15.223
0.4946663999999146,5.282,-21.401,-8.436,-9.9,-118.689,115.093,0.48,5.071,11.084,15.175,5.492,0.553,5.275,-8.341,125.347,-2.939,-15.599,-25.781,-5.661,4.205,-30.123,-6.174,0.501,17.683,-38.046,10.918,317.963,-29.702,-12.134
0.49474019999979646,-5.481,-29.064,-21.235,-22.698,-133.94,111.904,-8.742,-8.767,3.388,7.988,-5.272,-8.669,-4.976,-17.554,121.636,-13.183,-20.706,-34.464,-14.877,-2.459,-40.339,-19.488,-10.258,-4.364,-55.939,-1.901,308.936,-44.017,-31.59
0.5097040999999081,-7.525,-33.133,-30.948,-32.921,-136.368,109.743,-23.59,-11.32,-0.714,3.881,-5.779,-10.709,-4.459,-18.561,121.002,-12.657,-21.198,-36.479,-15.374,-1.944,-39.786,-19.981,-11.272,-6.921,-63.055,-1.386,311.701,-51.146,-36.681
0.5097720999997364,4.266,-27.465,-24.769,-24.179,-127.01,113.219,-17.419,-6.185,0.824,5.927,3.448,-4.551,0.156,-11.883,127.029,-4.448,-15.541,-24.66,-2.039,7.279,-28.476,-5.616,1.547,8.967,-50.184,6.3,309.34,-41.873,-24.862
0.5247390999998061,5.286,-25.388,-23.72,-19.032,-133.03,112.082,-13.303,-13.351,-0.714,6.433,0.883,-6.596,-2.918,-12.895,127.926,-6.492,-13.477,-23.61,0.525,8.297,-24.349,-1.0,6.156,8.958,-46.548,4.244,289.563,-42.343,-25.349
0.52480259999993,-3.429,-30.486,-26.77,-31.308,-144.68,108.896,-19.95,-24.096,-4.299,4.377,-5.778,-12.737,-3.939,-15.956,124.212,-15.195,-20.635,-33.833,-7.161,1.628,-28.935,-7.147,-0.51,6.9,-50.6,3.728,274.929,-51.01,-28.91
0.5407628999996632,-7.524,-33.017,-25.718,-36.912,-149.146,112.885,-25.053,-25.609,-6.857,1.812,-5.772,-15.798,-3.936,-17.989,123.063,-16.204,-25.226,-35.848,-10.227,0.602,-31.468,-11.75,-6.145,8.942,-54.136,1.162,276.703,-50.959,-25.807
0.540818599999966,-6.492,-31.447,-24.668,-29.703,-145.923,114.822,-26.565,-23.534,-7.362,0.785,-5.766,-13.733,-6.493,-19.508,124.989,-15.164,-21.614,-34.788,-11.242,1.626,-32.461,-13.788,-7.163,2.273,-58.692,-2.425,281.037,-49.884,-29.367
0.5556146999997509,-2.387,-27.317,-21.57,-25.575,-133.994,114.194,-19.878,-21.462,-2.232,2.834,-5.248,-6.547,-4.95,-15.903,129.475,-15.148,-20.056,-35.265,-10.206,1.112,-31.404,-11.725,-1.008,6.37,-55.047,4.75,281.269,-51.371,-31.387
0.5556764999996631,1.714,-22.167,-20.011,-22.475,-123.614,119.716,-8.587,-16.317,2.381,8.466,1.417,-2.442,-2.383,-12.301,130.883,-12.572,-20.548,-33.181,-5.072,2.136,-27.274,-9.152,3.603,18.146,-46.283,10.38,284.573,-48.245,-26.233
0.5697995999998966,-2.898,-25.218,-24.089,-22.453,-127.077,119.596,-7.042,-10.153,0.842,9.995,0.903,-6.538,-5.455,-14.85,123.579,-15.121,-20.015,-33.148,-7.629,1.621,-29.296,-17.339,-4.085,8.394,-44.188,2.685,288.9,-52.296,-29.793
0.584885199999917,-10.068,-37.489,-29.701,-33.701,-135.147,109.23,-8.572,-12.192,0.841,3.325,-8.319,-12.167,-9.035,-17.397,116.796,-26.376,-23.069,-33.114,-15.306,-6.065,-37.976,-27.568,-11.765,-5.446,-47.217,-3.465,289.123,-57.366,-38.472
0.5849527000000307,-11.082,-41.549,-32.745,-38.278,-136.548,109.633,-3.952,-18.328,2.377,-0.777,-11.897,-14.204,-6.465,-15.33,116.167,-33.01,-26.12,-28.983,-15.291,-9.133,-36.913,-28.053,-10.729,-0.83,-53.318,-5.511,288.322,-46.551,-40.483
0.5998187000000144,-11.071,-33.823,-31.175,-30.043,-134.363,118.745,0.662,-16.772,3.912,4.347,-9.836,-15.214,-4.409,-17.364,118.1,-31.44,-24.044,-29.979,-14.251,-4.0,-32.266,-25.976,-10.718,2.757,-56.338,-7.555,291.107,-35.233,-40.442
0.5998822999999902,-10.035,-29.691,-29.095,-30.013,-137.302,123.237,4.76,-11.12,10.056,8.441,-10.85,-14.687,-3.38,-16.834,120.031,-31.921,-19.922,-25.85,-13.212,-1.947,-36.332,-26.462,-13.781,-1.344,-51.159,-3.961,296.451,-32.124,-39.89
0.6148285999997825,-3.878,-31.711,-35.726,-35.618,-138.19,126.7,10.391,-13.158,14.144,7.408,-9.815,-13.135,0.722,-10.67,121.448,-31.377,-15.803,-7.893,-7.563,-1.945,-34.758,-24.386,-13.255,-0.831,-49.571,-2.42,300.766,-21.334,-41.387
0.6148879999996097,-4.898,-30.654,-41.838,-31.484,-131.391,127.598,8.331,-18.268,6.958,6.888,-9.805,-15.171,0.721,-11.171,120.302,-27.759,-15.275,-5.324,-6.531,0.618,-28.064,-22.313,-12.73,0.195,-54.644,-9.59,300.977,-12.603,-46.468
0.6297821999996813,-9.504,-25.501,-39.747,-28.379,-127.674,121.323,1.663,-20.812,-0.222,6.369,-13.894,-15.156,-3.89,-18.332,119.157,-28.756,-18.846,-17.614,-7.549,-0.407,-30.085,-22.29,-13.229,-1.855,-58.176,-9.58,297.602,-12.078,-45.397
0.6314395999997942,-0.786,-19.327,-40.219,-31.424,-126.009,122.738,0.124,-22.328,-0.734,5.85,-11.318,-10.53,-2.862,-18.314,120.062,-28.215,-18.827,-12.986,-0.882,1.643,-25.956,-18.17,-9.63,1.733,-56.581,0.676,297.817,0.229,-37.667
0.6449685999996291,11.511,-9.574,-40.691,-26.27,-110.002,134.399,-0.388,-20.256,1.316,10.455,-1.061,-4.884,1.752,-14.197,124.041,-19.99,-16.247,-4.776,6.292,11.375,-12.098,-13.541,-2.96,13.515,-51.913,5.798,305.716,18.16,-33.531
0.6450359999998909,14.573,-1.88,-36.552,-16.51,-89.399,140.924,-2.949,-14.601,5.413,19.154,6.625,-0.781,5.336,-11.622,130.064,-13.822,-12.645,-2.722,8.847,14.437,-9.012,-9.429,1.653,19.649,-45.714,8.866,314.632,22.24,-31.961
0.6598914999999579,15.583,-5.464,-40.614,-19.567,-89.31,139.759,-5.508,-14.586,7.97,18.622,7.643,0.245,7.38,-7.512,131.471,-14.833,-6.484,9.064,11.4,9.3,-13.102,-7.882,-1.934,9.383,-43.106,9.882,312.781,14.021,-36.027
0.6599601999996594,11.981,-17.242,-51.332,-30.818,-107.664,136.545,-7.552,-19.182,1.814,8.358,-1.074,-3.342,4.299,-8.529,126.729,-19.429,-10.064,7.518,6.777,7.754,-12.576,-15.559,-12.691,-1.897,-50.748,-1.399,304.271,2.736,-48.799
0.6752246999999443,5.309,-24.397,-50.768,-30.275,-123.95,136.921,-1.396,-20.7,-3.311,5.788,-7.221,-8.462,-2.878,-17.229,126.09,-25.557,-21.837,-9.908,-1.939,7.234,-11.539,-24.253,-17.289,0.154,-60.431,-10.619,301.917,0.172,-52.849
0.6752903999999944,12.989,-19.762,-43.033,-23.585,-127.412,139.858,8.851,-24.265,-0.234,10.393,-3.115,-8.965,-3.9,-19.774,130.062,-27.581,-20.79,-6.824,2.674,5.689,-7.429,-19.105,-10.612,5.277,-56.272,-2.924,310.325,7.856,-41.525
0.6898102999998628,22.709,-13.082,-41.453,-26.123,-121.649,137.669,10.891,-30.389,0.791,8.333,-1.063,-8.956,-0.822,-15.655,131.981,-25.504,-16.159,4.453,10.868,6.196,0.775,-10.377,-5.478,7.321,-47.507,2.202,323.334,8.873,-36.873
0.6915804999998727,19.613,-11.532,-43.461,-28.146,-121.015,134.457,10.368,-27.284,-0.234,4.226,-5.16,-8.435,-1.333,-16.152,132.874,-23.942,-21.266,-0.674,9.321,8.751,1.799,-10.367,-6.497,12.437,-48.996,-0.362,338.38,4.766,-45.545
0.7048531000000366,14.983,-14.082,-43.93,-21.97,-120.382,140.47,12.407,-15.986,4.889,9.857,-3.618,-6.89,-2.357,-19.722,131.717,-25.967,-24.318,-3.747,5.725,7.206,-1.276,-13.43,-8.54,11.399,-55.095,0.663,345.214,7.835,-48.573
0.7049158999998326,10.869,-21.24,-44.91,-26.559,-113.089,138.281,10.858,-13.921,6.421,12.409,-7.713,-14.568,-5.428,-26.875,123.388,-38.236,-31.466,-7.33,-1.453,-1.511,-4.861,-21.101,-15.191,-0.395,-59.138,-5.485,331.549,4.753,-48.012
0.7199362999999721,4.711,-29.416,-49.476,-35.754,-110.927,124.822,8.285,-19.03,2.828,5.224,-16.414,-26.336,-10.033,-34.532,116.092,-50.493,-45.267,-21.155,-13.235,-10.219,-7.418,-31.326,-26.447,-9.616,-69.325,-13.676,320.459,-7.035,-53.088
0.7199981999997362,8.804,-25.8,-50.964,-30.083,-111.841,127.771,15.449,-15.937,8.461,7.781,-10.25,-20.162,-5.413,-30.912,118.025,-44.295,-43.173,-21.134,-11.172,-5.598,-0.238,-26.684,-27.445,-4.996,-75.916,-8.027,332.434,-6.515,-53.034
0.7349185999996735,21.091,-18.602,-45.277,-24.93,-107.118,138.402,20.557,-12.848,14.6,18.531,2.055,-7.846,2.79,-23.708,122.518,-34.005,-33.396,-7.792,-0.915,4.654,10.52,-16.924,-18.708,0.645,-70.205,-1.872,344.909,1.688,-45.809
0.7498877999996694,22.607,-17.559,-46.769,-33.102,-105.474,133.141,6.192,-21.032,8.438,14.414,0.004,-12.449,0.225,-27.783,125.47,-37.557,-36.436,-6.76,-0.914,1.576,12.559,-19.981,-17.153,-4.479,-68.085,-4.431,346.101,1.686,-49.349
0.7499444999998559,20.023,-15.492,-59.017,-34.093,-108.442,128.909,-15.331,-29.208,-0.792,5.691,-5.119,-17.048,-5.41,-31.342,127.393,-39.569,-39.474,-10.339,-2.962,-3.549,14.084,-22.01,-20.722,-8.061,-70.579,-1.865,350.366,0.66,-56.472
0.7517162999997709,22.052,-10.866,-60.495,-29.961,-106.285,132.366,-11.217,-28.154,-1.304,9.783,-2.552,-9.346,-4.38,-27.212,126.241,-31.844,-34.823,-6.743,1.652,3.115,21.754,-14.816,-15.066,1.169,-67.434,3.26,352.577,4.758,-51.805
0.7650885999996717,22.03,-10.343,-54.287,-34.029,-103.105,128.135,11.335,-25.564,1.772,11.823,2.061,-5.238,-1.814,-24.111,127.14,-27.202,-30.69,-4.687,3.187,8.235,28.392,-13.776,-7.878,5.266,-65.83,1.207,350.175,7.315,-47.655
0.7800296000000344,23.545,-9.308,-54.745,-31.946,-104.026,127.495,13.373,-24.002,6.381,9.25,4.62,-4.208,0.749,-22.55,130.599,-25.125,-28.61,-4.17,2.671,8.226,33.999,-12.738,-7.358,1.162,-65.252,1.718,358.534,10.894,-46.07
0.7800917999998092,26.595,-8.274,-53.666,-23.205,-109.045,134.54,1.577,-20.392,12.01,15.9,5.64,0.407,2.285,-17.916,129.956,-24.076,-28.582,-0.58,3.693,9.755,39.601,-7.602,-6.326,7.309,-60.063,6.327,364.323,12.932,-41.926
0.7954587999997784,22.982,-13.389,-53.1,-26.255,-117.645,132.868,6.186,-19.859,12.51,18.958,3.073,-4.717,-0.791,-19.435,127.777,-29.175,-32.139,-1.091,0.103,7.696,39.561,-11.18,-5.295,10.888,-59.491,3.247,353.713,3.185,-49.056
0.7955296999998609,21.935,-15.937,-58.17,-26.741,-115.991,129.662,12.84,-21.888,10.448,15.353,3.583,-11.372,-2.839,-25.564,128.161,-32.219,-37.23,-8.775,-2.971,5.127,41.058,-15.268,-7.339,1.655,-64.042,0.17,349.773,-5.527,-59.253
0.8100215999998,26.011,-11.31,-54.526,-18.005,-102.042,136.704,9.241,-17.256,13.512,18.412,8.702,-5.213,-0.275,-28.1,131.107,-26.552,-40.267,-10.815,-1.431,9.22,50.751,-8.08,-7.332,0.117,-58.855,6.83,356.596,-0.911,-53.046
0.8100806999996166,24.96,-10.274,-44.225,-20.549,-100.916,139.129,9.232,-13.14,13.498,19.93,8.181,0.427,-1.299,-26.535,135.074,-23.451,-37.665,-6.706,0.62,9.211,57.36,-5.511,-5.788,7.289,-52.649,13.483,353.677,2.676,-46.846
0.8251044999997248,24.423,-16.412,-45.205,-24.627,-106.963,131.305,6.661,-18.25,7.337,14.787,3.562,-2.134,-3.86,-24.971,133.402,-25.477,-32.504,-2.601,5.23,8.689,59.352,-7.042,-4.245,7.794,-57.207,12.957,347.688,0.624,-50.385
0.825173199999881,24.911,-19.981,-48.746,-18.455,-105.319,126.563,-1.543,-22.842,2.206,12.211,6.632,0.429,-2.831,-23.922,128.146,-23.915,-35.033,0.988,7.786,13.804,63.904,-2.936,-3.728,4.2,-61.248,9.358,347.341,-0.913,-49.822
0.8401381999997284,16.177,-25.597,-54.845,-29.195,-113.923,126.437,-3.591,-28.455,-3.431,8.1,6.113,-1.108,-5.39,-23.898,128.018,-25.94,-39.097,-1.575,0.606,9.692,61.278,-9.081,-12.434,-3.489,-65.797,1.152,341.358,-10.134,-54.895
0.8402056999998422,6.427,-35.305,-69.135,-53.756,-131.739,124.261,-4.612,-41.234,-10.088,-1.13,-6.188,-10.329,-10.508,-25.923,126.865,-33.086,-36.496,-6.696,-4.517,0.46,56.094,-18.806,-21.643,-13.219,-77.515,-6.534,335.381,-21.907,-69.697
0.8550840999996581,7.445,-39.368,-72.652,-53.702,-133.145,119.526,-6.144,-45.291,-10.59,-4.715,-9.768,-11.343,-11.009,-26.922,124.176,-34.078,-34.923,-1.054,-0.414,2.509,59.624,-14.176,-18.035,-12.181,-78.974,-4.478,340.169,-19.836,-70.14
0.8551492999999937,7.95,-38.304,-62.845,-43.915,-131.475,119.407,-5.113,-41.66,-8.53,-2.661,-4.635,-9.282,-10.998,-26.382,124.565,-33.019,-38.986,2.021,-4.512,3.531,59.052,-14.162,-18.017,-10.12,-74.797,-3.449,339.829,-17.254,-62.385
0.8700590999997075,2.819,-41.852,-61.246,-51.043,-142.614,121.336,-9.206,-44.692,-10.059,-3.683,-10.778,-15.421,-15.598,-28.918,122.391,-38.622,-47.144,-11.301,-16.803,-3.132,54.382,-27.468,-30.294,-16.257,-85.993,-11.643,331.292,-24.922,-66.934
0.8701156999995874,1.791,-44.884,-66.307,-55.091,-146.057,118.653,-12.271,-46.184,-11.073,-4.191,-14.354,-16.942,-16.095,-32.475,118.17,-40.12,-51.195,-15.901,-15.762,-1.08,60.988,-25.904,-31.801,-18.29,-102.301,-13.68,332.498,-27.458,-69.941
0.8852485999996134,4.864,-42.278,-64.704,-46.839,-143.35,117.51,-3.55,-38.966,-7.988,-0.601,-6.142,-9.753,-10.956,-29.881,121.126,-35.469,-47.046,-7.688,-5.5,3.532,66.562,-16.656,-22.035,-15.711,-105.784,-7.519,339.337,-18.722,-62.698
0.8853211999999075,3.322,-39.674,-60.029,-45.255,-141.157,119.442,2.089,-38.414,-4.394,2.474,-6.136,-11.28,-7.871,-24.728,121.517,-39.02,-44.949,-8.192,-9.081,-2.107,60.86,-20.226,-22.526,-15.695,-107.728,-5.462,338.486,-13.068,-52.902
0.9002203999998528,-1.292,-39.634,-59.969,-46.234,-131.795,117.786,-2.524,-41.45,-2.34,0.422,-13.302,-15.88,-10.937,-27.777,116.272,-44.616,-47.978,-7.16,-14.195,-5.691,60.287,-23.279,-27.626,-14.142,-111.719,-6.481,332.0,-17.153,-51.312
0.9002857999998923,0.246,-42.156,-69.643,-44.651,-126.027,114.594,-8.156,-36.798,0.223,-1.115,-10.215,-11.765,-10.414,-28.262,118.205,-39.961,-44.856,0.02,-8.033,-1.587,64.325,-19.158,-25.549,-16.69,-112.119,-8.012,327.057,-23.284,-64.068
0.9156370999999126,4.344,-44.163,-77.258,-48.705,-135.123,117.553,-11.222,-34.712,1.76,2.472,-4.057,-6.63,-3.743,-21.573,120.649,-31.724,-38.152,-2.542,-3.926,3.025,64.773,-19.138,-23.987,-22.821,-114.056,-10.053,328.779,-23.773,-73.738
0.9156951999998455,4.852,-36.434,-61.299,-43.021,-140.623,121.022,-7.625,-36.214,3.808,6.056,-3.541,-5.599,-1.178,-22.576,118.479,-29.643,-38.113,-5.101,-8.533,4.047,66.758,-17.582,-25.5,-18.699,-115.479,-9.018,331.524,-17.089,-60.857
0.9302364000000125,7.409,-26.664,-42.794,-26.072,-134.335,121.925,1.604,-35.665,2.779,4.0,-2.513,-6.106,-4.763,-26.14,119.897,-30.638,-38.588,-1.509,-10.061,3.018,67.716,-14.491,-22.913,-13.558,-111.778,-6.96,331.705,-12.973,-47.476
0.9302990999999565,11.5,-27.662,-43.776,-26.046,-131.639,123.34,2.115,-38.191,-2.859,0.41,-0.973,-8.149,-7.832,-23.552,122.851,-32.656,-39.574,-6.631,-10.051,0.966,65.599,-15.501,-21.865,-17.13,-110.641,-5.928,336.496,-12.96,-47.941
0.945238899999822,15.587,-27.634,-42.708,-37.803,-130.483,124.754,-9.67,-42.251,-4.393,0.922,2.101,-8.653,-7.824,-26.09,123.753,-32.111,-43.633,-10.723,-10.554,1.99,68.095,-13.949,-25.942,-15.576,-113.604,-1.824,340.258,-9.361,-42.77
0.9453136999995877,20.694,-23.508,-41.128,-36.74,-130.865,126.678,-17.857,-40.16,-2.339,4.507,5.173,-5.571,-6.792,-32.212,127.215,-28.493,-43.077,-7.638,-9.006,1.475,71.1,-13.422,-25.916,-12.999,-114.003,-1.822,334.283,-8.84,-40.165
0.9602358999995886,14.014,-33.219,-57.481,-38.753,-136.881,125.015,-17.327,-39.608,-6.436,3.478,-0.467,-9.151,-10.883,-30.13,128.625,-32.051,-42.009,-8.655,-10.022,-2.112,64.882,-16.995,-21.792,-21.183,-113.377,-9.505,328.825,-19.589,-53.445
0.9602960999995958,1.192,-47.018,-66.645,-47.935,-141.868,117.718,-14.748,-43.666,-9.503,-2.673,-7.127,-18.364,-14.971,-26.002,122.349,-38.679,-43.504,-8.134,-11.036,-3.135,60.206,-16.466,-22.794,-26.797,-110.702,-12.569,326.447,-30.84,-59.027
0.9752439999997478,2.728,-46.971,-57.357,-44.301,-138.14,111.964,-11.147,-42.598,-4.883,-3.695,-4.558,-14.759,-8.808,-26.488,119.665,-34.029,-40.387,-3.515,-8.464,-1.595,60.658,-14.4,-21.235,-19.598,-105.98,-9.995,320.485,-31.834,-54.87
0.9903253999996195,2.213,-49.485,-58.324,-40.671,-134.928,112.365,-6.013,-41.019,-4.878,-2.154,-4.554,-8.597,-4.701,-26.974,120.057,-29.897,-38.809,-5.049,-8.455,-4.155,53.937,-18.997,-17.627,-15.992,-110.485,-14.596,312.48,-32.827,-60.962
0.9903902999999445,-13.159,-59.17,-66.975,-49.852,-140.428,109.691,-6.519,-47.638,-9.996,-6.763,-13.771,-16.273,-12.381,-26.947,113.277,-39.601,-41.844,-7.093,-14.082,-6.712,44.15,-24.101,-23.245,-22.636,-116.522,-20.729,303.458,-39.966,-65.512
1.0043736999996327,-12.633,-57.573,-61.273,-54.925,-145.923,109.581,-14.71,-49.127,-7.937,-9.83,-16.318,-20.355,-13.393,-24.358,109.578,-43.147,-38.729,-4.524,-17.654,-5.681,43.593,-24.076,-28.857,-26.2,-110.258,-16.61,297.007,-40.951,-61.861
1.0062092999996821,-2.887,-52.393,-54.551,-53.845,-147.314,115.619,-17.769,-41.905,-5.367,-5.722,-11.179,-13.162,-8.257,-21.26,114.079,-35.42,-34.591,-6.057,-16.1,-4.65,46.111,-22.515,-26.267,-21.563,-104.0,-11.982,300.809,-36.812,-61.286
1.0193552999999156,-10.569,-56.951,-60.132,-55.841,-151.265,110.893,-14.165,-44.425,-9.46,-6.741,-13.217,-16.223,-11.322,-23.8,111.916,-37.433,-37.631,-8.1,-17.108,-6.183,42.991,-22.493,-27.265,-21.541,-110.556,-16.069,302.045,-40.361,-61.737
1.0194222000000082,-16.706,-57.919,-60.584,-53.736,-157.774,100.024,-19.274,-50.528,-13.037,-14.419,-18.839,-23.379,-15.409,-29.924,105.144,-43.544,-43.228,-11.166,-22.727,-7.713,38.337,-26.569,-32.873,-30.741,-114.544,-20.151,296.62,-44.931,-58.09
1.0344147999999223,-9.517,-51.201,-51.815,-45.485,-159.665,102.485,-26.939,-44.33,-13.536,-13.38,-17.284,-20.794,-15.394,-32.456,108.625,-39.914,-46.771,-18.327,-25.265,-8.218,33.688,-32.69,-35.402,-34.809,-115.966,-20.643,299.397,-41.3,-57.007
1.0344746999999188,-10.532,-49.101,-52.275,-44.927,-163.092,106.481,-19.74,-44.286,-15.06,-9.78,-17.266,-21.798,-17.94,-34.985,112.102,-40.386,-49.286,-24.969,-26.265,-9.747,29.556,-37.78,-41.514,-34.774,-125.584,-24.209,302.171,-43.308,-61.048
1.050444299999981,-15.132,-52.638,-60.932,-49.493,-171.638,100.739,-16.134,-55.0,-16.582,-11.307,-20.323,-26.387,-15.873,-36.487,108.404,-47.006,-51.286,-27.505,-26.751,-11.786,29.527,-38.255,-44.034,-37.301,-129.045,-26.746,297.771,-51.974,-66.623
1.0505103999998937,-7.945,-52.073,-54.723,-45.345,-171.466,105.249,-23.29,-52.383,-15.028,-8.734,-16.716,-19.7,-10.734,-34.914,112.394,-41.836,-51.747,-24.916,-20.576,-7.676,32.059,-32.069,-33.744,-33.165,-112.522,-19.547,300.035,-48.336,-61.433
1.064455899999757,0.26,-44.848,-42.886,-35.566,-160.536,112.829,-18.656,-44.646,-11.939,-5.139,-10.552,-13.533,-11.236,-32.829,119.454,-32.06,-48.621,-19.256,-13.896,-0.496,31.514,-25.889,-26.538,-21.861,-100.114,-12.355,302.808,-37.529,-52.662
1.066264499999761,-4.351,-43.266,-47.453,-35.018,-159.351,104.007,-14.539,-49.213,-13.464,-9.745,-13.103,-18.13,-13.274,-31.26,112.675,-35.614,-46.011,-20.261,-18.493,-2.032,25.847,-29.962,-32.147,-23.376,-106.162,-18.491,291.235,-42.615,-58.757
1.0794074999998884,-11.519,-50.908,-53.041,-40.619,-167.389,100.316,-25.283,-48.651,-14.988,-14.346,-18.725,-20.161,-13.26,-30.204,104.877,-41.214,-46.478,-25.364,-22.573,-8.69,21.723,-35.567,-37.75,-32.062,-112.203,-26.669,282.747,-51.794,-66.383
1.0794725999999173,-12.532,-52.906,-45.816,-40.066,-169.271,109.95,-25.77,-39.893,-10.362,-12.795,-19.731,-18.604,-13.247,-28.637,110.408,-37.587,-43.87,-22.777,-18.964,-7.657,22.214,-32.97,-35.151,-28.444,-106.456,-21.007,289.124,-48.156,-60.681
1.0944793999997273,-13.544,-51.316,-47.307,-42.587,-173.712,106.766,-17.547,-43.952,-10.864,-16.368,-23.81,-24.733,-13.746,-28.096,110.81,-42.16,-45.875,-24.803,-22.531,-8.162,17.068,-35.499,-36.653,-26.366,-103.788,-17.4,289.859,-50.157,-61.133
1.0945577999996203,-20.703,-58.95,-57.506,-51.766,-185.321,94.876,-26.239,-55.179,-22.636,-23.524,-33.52,-33.418,-20.905,-36.265,100.453,-55.438,-56.587,-40.148,-32.755,-17.375,4.756,-47.246,-47.374,-36.074,-110.344,-27.116,279.836,-63.427,-71.318
1.1095086999998784,-22.219,-59.403,-54.887,-45.054,-180.525,98.368,-27.75,-51.025,-22.101,-17.865,-30.925,-32.872,-24.47,-40.327,98.303,-54.358,-57.043,-44.719,-33.746,-17.358,8.337,-46.687,-48.864,-36.55,-109.721,-27.602,277.507,-60.802,-67.148
1.109568699999727,-11.951,-48.073,-42.537,-27.078,-158.828,106.978,-8.254,-35.605,-7.734,-6.064,-16.549,-22.081,-12.662,-27.991,106.914,-40.471,-43.154,-31.866,-26.028,-7.606,19.6,-35.369,-34.983,-22.681,-97.316,-17.328,282.352,-47.933,-52.224
1.1244313999995939,-5.279,-45.976,-38.396,-27.564,-153.546,105.334,-5.172,-30.446,-6.19,-5.546,-13.459,-14.886,-5.99,-22.328,107.832,-36.332,-40.549,-29.273,-24.977,-7.087,14.457,-37.383,-30.337,-20.097,-96.194,-18.335,279.508,-47.373,-49.098
1.1395296999999118,-10.396,-56.176,-43.993,-37.27,-170.811,101.643,-17.975,-41.686,-14.893,-12.2,-20.105,-20.507,-15.205,-31.015,103.113,-40.394,-48.193,-38.465,-27.514,-10.153,7.783,-44.006,-40.04,-29.298,-107.369,-21.391,275.13,-52.449,-53.66
1.139594699999634,-19.608,-59.193,-49.584,-38.257,-179.862,97.955,-18.469,-52.403,-20.513,-19.36,-24.696,-28.171,-21.85,-30.984,102.498,-40.354,-48.145,-38.939,-23.9,-7.069,12.386,-40.376,-42.05,-33.368,-107.261,-18.808,276.904,-55.47,-55.655
1.1545576999997138,-23.174,-60.159,-47.485,-40.781,-175.071,93.246,-22.037,-55.424,-24.079,-24.976,-28.77,-26.606,-22.34,-27.366,101.883,-40.826,-47.072,-32.752,-22.34,-10.136,8.787,-41.872,-38.934,-35.896,-99.469,-22.375,272.529,-61.05,-55.087
1.1546188999996048,-17.003,-61.636,-40.778,-40.227,-168.236,94.178,-35.847,-52.295,-23.03,-22.39,-26.18,-22.993,-20.781,-28.876,101.269,-37.711,-45.488,-31.182,-24.366,-11.151,6.217,-43.88,-38.383,-34.835,-99.37,-22.353,267.133,-58.94,-50.422
1.1699469999998655,-7.252,-53.377,-34.077,-27.38,-158.846,99.207,-30.176,-41.997,-15.835,-11.097,-14.883,-16.31,-12.051,-22.187,108.852,-22.816,-33.66,-25.004,-16.145,1.156,17.994,-30.516,-28.098,-17.382,-92.611,-11.572,275.576,-44.024,-41.662
1.1700065999998515,-6.733,-48.201,-32.506,-26.328,-153.564,95.521,-12.727,-37.344,-14.794,-8.524,-12.306,-10.659,-9.99,-19.603,113.354,-18.695,-28.503,-20.368,-10.494,2.179,16.439,-26.387,-21.41,-8.655,-81.247,-9.511,276.325,-39.369,-39.059
1.1845409999996264,-16.972,-60.448,-39.646,-40.134,-165.706,86.204,-19.374,-48.577,-20.927,-17.225,-25.102,-20.382,-20.738,-32.904,104.531,-34.558,-41.282,-33.667,-23.291,-11.143,1.053,-41.217,-32.147,-21.454,-85.264,-16.674,258.118,-51.625,-48.241
1.1845964999997705,-25.665,-67.56,-44.217,-44.704,-178.86,85.606,-33.7,-50.578,-20.906,-21.818,-31.224,-33.169,-23.279,-36.457,99.304,-43.745,-49.95,-45.417,-31.464,-11.644,1.052,-46.811,-36.726,-26.044,-90.302,-20.243,250.687,-58.233,-52.291
1.1996831999999813,-26.663,-60.32,-40.074,-37.999,-177.657,92.18,-26.494,-40.281,-14.738,-19.235,-26.582,-31.087,-19.157,-31.298,104.328,-41.14,-45.802,-43.835,-28.359,-5.485,1.563,-46.252,-33.103,-21.919,-85.601,-22.785,255.047,-55.614,-49.165
1.199756399999842,-25.612,-59.235,-40.034,-36.937,-172.868,92.6,-16.733,-42.29,-13.698,-19.216,-26.043,-28.494,-22.212,-34.852,102.174,-46.222,-44.219,-45.84,-31.917,-9.578,-9.709,-52.866,-37.68,-29.582,-87.053,-24.299,248.644,-60.169,-52.19
1.2146606999999676,-22.513,-62.762,-42.043,-38.437,-170.646,90.971,-19.278,-45.322,-14.709,-19.197,-26.53,-27.953,-22.19,-33.281,98.486,-44.126,-45.712,-45.282,-31.373,-9.056,-4.576,-49.227,-36.106,-28.528,-88.502,-22.738,246.859,-62.67,-52.138
1.214727899999616,-13.781,-55.014,-36.878,-34.3,-168.427,96.003,-13.111,-35.543,-10.596,-16.616,-18.818,-17.679,-15.508,-23.513,106.584,-26.664,-39.518,-35.503,-16.997,3.249,6.699,-38.419,-26.336,-16.204,-79.705,-20.153,256.346,-50.824,-42.864
1.2297190999997838,-10.693,-49.836,-39.915,-35.29,-175.43,95.907,-3.876,-40.63,-11.61,-19.161,-17.263,-14.588,-15.492,-24.515,112.625,-21.514,-30.77,-34.443,-14.418,6.319,2.594,-40.942,-28.359,-22.335,-80.137,-19.109,255.065,-47.7,-46.92
1.2297797999999602,-16.318,-54.909,-51.658,-44.989,-182.94,89.663,-14.119,-54.934,-19.283,-22.215,-25.955,-21.233,-18.551,-25.515,107.389,-29.177,-30.226,-40.556,-21.064,1.19,1.054,-43.975,-32.429,-31.022,-90.303,-20.626,248.15,-59.435,-57.631
1.2447173999998995,-12.716,-51.268,-49.557,-43.919,-175.072,92.647,-27.937,-50.268,-16.702,-18.607,-24.904,-18.138,-16.483,-18.829,108.307,-23.512,-30.196,-35.392,-14.895,4.775,6.689,-35.734,-24.712,-18.696,-83.041,-15.995,251.488,-55.79,-49.889
1.244778199999928,-2.457,-39.946,-38.749,-35.166,-164.138,98.703,-26.884,-45.095,-13.1,-17.052,-14.633,-12.484,-16.466,-18.81,114.858,-14.78,-25.555,-27.672,-9.245,9.381,5.657,-30.576,-20.589,-13.554,-67.076,-6.757,256.872,-44.463,-40.105
1.259741099999701,-2.967,-40.419,-39.735,-36.156,-161.925,93.993,-24.808,-50.173,-19.234,-19.596,-14.106,-14.521,-17.987,-19.304,111.157,-20.4,-23.993,-28.669,-15.383,5.785,6.164,-31.057,-22.105,-20.713,-65.472,-8.288,254.566,-51.591,-44.676
1.2598015999997187,-6.55,-42.94,-45.331,-35.095,-158.177,93.387,-25.296,-43.463,-16.141,-14.453,-15.629,-13.994,-14.895,-14.674,105.923,-21.917,-23.969,-31.714,-16.905,1.681,7.695,-33.076,-20.034,-18.643,-70.53,-12.89,249.7,-52.564,-46.168
1.2747405000000072,-1.932,-38.798,-43.749,-27.375,-153.92,100.978,-22.709,-34.71,-4.854,-8.804,-9.466,-12.443,-13.855,-16.708,107.866,-18.309,-24.969,-35.269,-14.839,0.655,3.589,-34.067,-21.55,-14.526,-67.385,-8.266,253.037,-40.216,-40.487
1.2748024999996233,-1.418,-39.272,-41.656,-27.86,-154.279,100.877,-22.174,-36.725,-5.362,-11.356,-9.968,-16.529,-14.866,-23.864,109.296,-22.389,-31.604,-36.77,-17.898,-1.907,1.536,-35.058,-24.09,-15.536,-60.146,-7.746,265.079,-43.25,-38.397
1.2901025999999547,-8.589,-43.843,-42.126,-34.492,-156.174,98.215,-20.103,-36.176,-5.869,-11.857,-16.106,-18.562,-15.364,-24.352,106.625,-26.465,-34.134,-36.734,-19.417,-4.467,0.51,-38.609,-22.529,-15.52,-54.45,-12.349,265.326,-50.891,-39.895
1.290172199999688,-14.216,-46.361,-46.695,-37.531,-161.653,99.653,-14.447,-35.627,-3.301,-9.284,-17.115,-19.056,-17.91,-22.279,104.469,-27.463,-31.539,-42.332,-20.934,-3.95,-5.639,-41.132,-25.068,-18.066,-53.371,-11.824,255.327,-48.791,-44.466
1.3047351000000162,-14.714,-47.339,-50.747,-38.519,-168.151,94.943,-12.383,-40.202,-9.958,-12.348,-19.659,-20.574,-17.892,-23.281,103.852,-29.997,-32.532,-44.339,-20.401,-1.385,-1.535,-34.943,-27.093,-18.56,-51.781,-10.275,256.609,-49.254,-46.983
1.3047931999999491,-10.601,-43.194,-46.085,-31.82,-169.52,91.774,-9.809,-38.625,-11.485,-13.361,-21.689,-17.479,-12.751,-20.696,105.797,-22.795,-27.376,-36.098,-10.134,3.227,10.762,-25.686,-16.307,-7.271,-41.995,-7.704,263.524,-48.693,-40.789
1.3198903999996219,-7.516,-38.027,-37.33,-26.665,-167.814,96.805,-11.337,-33.464,-3.789,-8.224,-13.47,-11.826,-12.226,-13.503,108.253,-11.501,-18.64,-31.963,-2.44,6.81,14.338,-21.562,-6.557,0.933,-33.244,-0.524,260.187,-39.935,-36.137
1.334830299999794,-7.509,-37.989,-40.879,-29.2,-167.134,101.319,-23.621,-30.356,-5.322,-3.605,-5.26,-7.716,-11.701,-12.465,110.194,-9.953,-23.744,-37.054,-5.511,7.828,14.836,-20.004,-13.21,-3.166,-36.797,1.526,258.902,-37.333,-37.638
1.3348905999996532,-4.94,-37.439,-50.572,-27.634,-166.454,103.78,-29.232,-30.326,-8.903,-2.577,-6.279,-5.147,-5.542,-18.088,112.646,-9.943,-28.331,-39.067,-7.042,8.333,19.432,-21.008,-20.369,-5.725,-41.883,-2.062,261.205,-40.37,-39.65
1.3498897999998007,-2.373,-36.889,-51.033,-25.557,-165.775,102.139,-22.543,-40.542,-7.357,-5.648,-9.859,-8.216,-6.561,-16.021,112.021,-6.859,-22.667,-38.003,-8.06,5.25,18.9,-28.672,-17.275,-5.207,-40.817,-4.109,252.747,-41.866,-43.196
1.3499525999995967,-3.396,-39.926,-43.298,-28.605,-156.9,97.938,-20.984,-43.575,-7.349,-7.18,-8.824,-10.257,-11.165,-10.882,107.298,-8.389,-21.62,-37.965,-12.15,1.659,14.783,-31.205,-16.746,-6.738,-37.19,-4.617,244.297,-42.337,-42.128
1.3648831999998947,-3.392,-36.3,-37.107,-22.429,-145.985,98.353,-21.987,-29.187,-3.756,-3.586,-6.766,-9.222,-9.105,-14.457,105.141,-9.918,-27.234,-38.439,-11.114,1.145,18.354,-26.05,-19.29,-7.756,-30.492,-4.612,243.028,-39.733,-36.963
1.3649445999999443,-3.901,-32.165,-34.508,-16.771,-151.987,96.717,-17.867,-27.621,-2.215,-4.095,-10.346,-12.799,-11.145,-19.053,104.524,-10.932,-34.379,-43.012,-12.639,-1.93,24.483,-26.024,-19.783,-9.798,-26.876,-3.071,238.174,-38.669,-39.488
1.3798655999999028,-5.434,-34.695,-30.888,-19.828,-160.544,95.084,-19.898,-34.765,-6.824,-5.628,-13.921,-16.372,-15.745,-20.059,100.321,-18.094,-37.931,-47.067,-19.799,-8.076,27.533,-30.097,-22.325,-10.3,-32.997,-1.018,235.375,-41.191,-37.911
1.3816686999998637,-4.916,-29.025,-23.684,-14.173,-157.822,101.649,-24.489,-24.485,-5.792,-3.061,-10.834,-14.306,-12.143,-22.088,101.245,-17.563,-32.257,-44.458,-17.218,-4.481,28.017,-25.968,-25.889,-9.265,-36.55,-2.042,237.701,-38.076,-26.09
1.3949443999999858,-9.522,-27.971,-23.148,-13.134,-163.812,98.985,-27.538,-23.435,-8.348,-8.693,-15.946,-16.854,-10.081,-21.554,105.755,-13.96,-30.688,-42.365,-14.639,-0.891,24.916,-23.893,-26.375,-15.404,-33.952,-7.163,233.365,-41.112,-29.138
1.3950075999996443,-15.66,-40.238,-29.273,-25.929,-173.382,85.054,-29.048,-40.83,-16.537,-14.32,-24.127,-21.448,-15.194,-18.458,101.55,-18.557,-36.293,-46.421,-19.747,-7.038,26.94,-29.505,-25.324,-20.511,-32.893,-10.742,226.984,-54.391,-41.916
1.4103826999999,-10.009,-37.637,-25.657,-22.829,-161.425,88.043,-19.797,-33.617,-7.811,-3.035,-11.295,-12.717,-10.568,-16.903,98.887,-14.439,-30.109,-46.374,-15.629,-4.469,40.233,-23.84,-21.201,-11.269,-29.274,-4.584,230.343,-50.238,-37.264
1.4104467999995904,-1.29,-23.767,-13.849,-4.875,-147.944,97.689,-2.359,-10.018,5.517,3.116,1.524,-3.995,-1.336,-10.738,106.473,-0.08,-18.808,-37.619,-7.417,5.269,48.902,-14.082,-16.056,-4.598,-18.999,1.569,235.236,-32.257,-25.443
1.4249322999999094,-0.777,-26.817,-13.835,-5.383,-154.968,96.054,3.791,-8.983,2.437,-2.01,-7.187,-8.602,-4.409,-7.141,106.879,-2.13,-20.326,-31.946,-12.532,1.678,45.779,-19.703,-20.651,-8.18,-14.881,0.542,237.562,-30.688,-23.881
1.4249915999998848,-4.362,-32.938,-19.456,-15.624,-161.986,98.007,5.324,-19.732,-1.151,-1.496,-11.79,-14.741,-9.015,-13.282,99.087,-11.861,-23.892,-33.451,-15.594,-7.033,47.27,-25.831,-28.315,-8.684,-19.989,-2.02,237.837,-35.268,-28.468
1.4399665999999343,-5.382,-26.757,-19.437,-14.583,-163.873,102.008,7.88,-22.786,0.899,-2.006,-9.217,-16.775,-6.957,-15.318,100.525,-13.386,-24.38,-37.004,-15.578,-5.489,50.809,-24.269,-29.311,-9.7,-23.043,-4.579,236.062,-28.573,-33.563
1.4416636999999355,-2.303,-20.583,-14.807,-6.884,-165.246,99.857,1.725,-22.764,-1.663,-6.103,-12.794,-17.271,-4.901,-10.692,104.011,-13.885,-24.356,-35.43,-18.636,-1.385,51.271,-24.757,-28.77,-15.325,-16.872,-5.599,236.338,-15.737,-29.431
1.4550909999998112,5.896,-9.804,-5.058,3.369,-154.834,107.441,-3.912,-17.618,1.412,2.1,-5.097,-8.544,-0.285,-8.632,105.444,-4.65,-17.672,-23.611,-6.322,5.276,60.441,-17.047,-22.081,-8.138,-3.023,2.091,241.737,4.259,-12.495
1.455157699999745,13.575,-1.085,3.144,9.513,-148.532,115.018,5.313,-8.379,11.145,9.783,6.692,4.784,7.912,-5.037,115.584,12.261,-11.506,-11.292,11.102,15.005,75.237,-1.661,-9.251,4.678,5.689,7.724,248.155,22.186,-5.31
1.4702027999996972,12.025,-7.743,-5.056,2.844,-161.191,109.78,12.48,-6.321,14.72,7.211,2.074,5.292,9.441,-3.495,118.03,11.736,-16.106,-12.818,6.993,15.502,77.724,0.39,-8.73,2.112,-0.464,3.618,250.469,21.139,-12.477
1.4702751999998327,6.889,-11.322,-12.223,-2.282,-162.054,111.208,1.709,-7.852,17.779,10.278,-0.49,3.75,7.895,-5.028,108.179,6.089,-16.602,-14.342,5.449,11.901,76.621,-0.123,-11.282,-0.964,-2.001,6.688,247.657,19.581,-14.002
1.4851867999996102,14.055,3.034,-0.94,8.991,-144.474,123.904,-2.391,3.427,26.983,22.051,11.806,11.943,13.522,2.661,112.169,15.817,-4.29,1.554,21.837,19.573,85.766,13.197,2.049,11.845,13.37,18.465,249.971,36.98,-3.741
1.485251199999766,30.947,17.376,10.331,23.839,-134.596,134.026,18.104,20.33,37.202,34.324,21.528,19.615,21.193,11.88,125.889,20.924,0.325,13.336,28.988,28.263,95.414,22.406,13.318,24.64,25.14,23.569,264.065,52.824,7.533
1.5000817999998617,39.113,22.481,10.833,26.376,-132.924,140.552,36.016,24.92,41.775,41.974,26.118,22.157,25.783,9.819,126.788,20.391,-4.286,7.175,24.348,24.136,99.93,21.871,8.693,23.079,23.066,24.058,274.047,56.358,10.087
1.501815699999952,36.512,18.873,6.724,22.764,-130.742,140.412,29.32,16.186,38.66,37.834,28.653,23.16,26.782,7.248,122.562,23.444,-4.281,2.044,23.299,19.501,100.854,21.337,3.562,14.859,19.456,21.985,267.113,55.277,1.88
1.5151482999999644,35.451,11.682,5.18,25.303,-131.636,136.685,19.045,13.608,35.035,31.648,24.014,21.087,23.169,8.777,122.952,21.372,-3.253,4.604,19.69,19.482,97.167,14.655,2.021,10.745,13.802,15.303,260.699,53.684,-2.733
1.5152140999998664,36.953,18.842,10.81,32.45,-130.992,139.622,22.612,20.255,36.537,33.666,19.379,21.066,22.633,8.768,122.317,17.764,-7.86,4.599,13.01,14.339,93.484,10.03,-2.079,9.71,7.64,12.726,263.512,56.705,3.418
1.5302071999999498,37.428,28.557,15.923,32.93,-128.299,137.946,27.713,16.136,31.377,30.558,15.773,17.459,20.049,6.198,122.707,15.697,-11.951,1.008,8.899,7.665,89.292,7.458,-8.225,4.577,4.559,11.176,264.273,60.234,5.464
1.5462209999996048,35.854,19.819,7.71,27.774,-134.831,129.099,23.074,2.287,20.587,21.306,8.585,5.659,10.295,0.044,120.023,4.411,-16.037,-2.066,0.693,6.12,81.006,-5.357,-16.926,-4.649,-4.155,5.53,261.959,54.026,-0.69
1.546283599999697,35.818,14.164,2.067,25.184,-144.43,129.482,16.903,0.748,20.055,21.797,8.064,1.042,5.674,-3.542,115.292,-2.766,-19.095,0.497,-4.943,5.602,78.363,-10.987,-22.544,-10.792,-9.274,3.475,263.234,48.337,-3.25
1.5601655999998911,39.88,21.322,8.725,26.696,-145.31,133.963,13.3,8.944,25.158,25.874,15.229,6.676,10.792,1.072,119.787,5.946,-18.051,5.107,1.209,7.645,83.408,-0.217,-19.448,-10.269,-0.556,4.496,268.094,52.899,-0.173
1.560222199999771,42.402,18.227,8.716,23.595,-139.53,130.243,7.652,9.96,21.546,24.824,15.726,10.256,12.318,1.071,123.254,12.088,-16.496,5.102,6.843,12.249,86.399,4.394,-12.769,-5.135,1.494,5.516,269.363,51.822,-0.685
1.5752036999997472,43.384,14.623,4.097,18.449,-131.193,130.113,5.082,9.95,18.963,29.409,17.759,14.856,12.306,-0.467,119.544,16.687,-16.992,6.634,9.91,16.847,88.361,6.951,-5.583,4.604,-3.118,12.683,265.507,46.134,-4.271
1.5752725999996073,51.538,27.416,8.703,23.041,-124.914,136.643,10.713,13.526,24.067,37.065,27.988,23.038,16.904,8.243,127.622,26.404,-13.901,14.824,18.097,24.003,93.908,21.801,2.107,11.259,6.107,21.892,258.07,52.748,0.344
1.5902304999999615,54.048,30.975,11.768,29.166,-126.326,135.994,12.751,8.39,22.506,33.441,26.935,23.015,16.375,9.259,135.179,25.353,-10.814,17.883,20.641,26.54,94.839,25.365,3.129,12.272,16.347,22.895,241.93,60.892,7.516
1.5902900999999474,41.186,23.259,8.17,24.526,-131.835,130.735,7.103,-1.865,12.75,23.674,13.588,13.771,8.674,0.029,125.31,15.081,-14.901,13.255,14.473,18.317,90.134,15.606,1.589,12.772,12.232,20.823,222.733,58.782,5.459
1.6052068999997573,37.046,26.822,13.285,21.94,-135.29,128.555,4.022,-4.425,8.639,21.601,8.964,6.585,4.054,0.541,117.5,10.968,-21.546,11.192,11.897,14.2,84.92,14.053,2.612,15.833,16.318,21.314,222.51,59.748,8.015
1.6052649999996902,45.206,30.381,21.469,30.115,-140.79,126.889,-1.105,-1.346,12.216,23.117,13.053,6.578,6.612,1.053,122.505,9.932,-25.623,9.644,13.422,16.235,85.348,15.576,5.683,21.453,30.646,23.854,235.607,67.885,21.84
1.6202320999996118,48.235,28.814,20.935,31.621,-147.821,127.275,-7.764,-2.37,16.815,24.118,15.089,13.232,10.191,-2.022,125.457,15.045,-24.061,10.659,15.457,15.706,86.287,15.048,9.776,26.555,33.69,24.855,236.396,70.891,27.453
1.620288299999629,45.113,31.347,17.328,26.467,-148.186,130.733,-3.658,-4.929,17.31,26.655,17.636,16.805,8.132,2.591,124.819,23.227,-21.987,13.722,14.93,14.666,81.59,15.546,8.23,25.503,24.434,22.781,232.574,66.722,18.204
1.6353140999999596,40.969,24.655,10.138,22.342,-144.451,131.115,-1.093,-6.461,13.194,26.117,17.618,11.152,2.488,1.563,122.645,15.519,-28.113,8.586,3.644,13.114,73.824,4.772,-6.123,12.67,12.627,16.098,235.415,55.897,6.915
1.6353930999998738,37.854,13.36,-0.63,16.172,-143.282,127.398,-5.702,-4.405,11.132,22.504,15.551,7.555,2.486,-6.123,121.498,5.77,-35.257,0.38,-5.581,6.954,69.651,-8.041,-16.363,-1.175,3.905,8.397,231.081,44.57,1.785
1.650278299999627,41.403,17.957,-0.117,16.668,-142.114,127.783,4.037,0.723,18.293,27.093,18.61,13.695,6.582,-0.994,123.938,13.449,-30.611,5.503,1.597,8.996,71.119,-3.422,-8.662,-0.661,6.975,8.901,228.289,46.575,4.857
1.6646655999998075,40.337,17.939,3.469,23.824,-140.948,129.192,14.792,3.283,22.373,33.725,20.128,16.243,6.063,5.155,121.252,13.948,-24.945,11.133,4.157,13.085,72.072,2.729,-5.068,5.999,7.993,12.991,235.745,51.139,5.365
1.6647290999999313,27.489,1.528,-5.756,18.677,-149.004,124.452,3.506,0.206,14.666,28.056,11.399,8.03,2.471,-3.559,113.446,0.614,-33.63,1.9,-4.045,5.388,65.34,-4.958,-14.284,1.383,-2.262,7.343,232.948,35.719,-10.01
1.664772599999651,23.363,-1.036,-7.799,11.998,-159.101,120.229,-1.108,-2.868,12.603,21.368,5.752,3.923,1.956,-7.142,112.821,-1.949,-40.768,-1.688,-1.991,2.821,61.176,-5.466,-13.757,-3.229,-3.284,2.212,223.493,22.363,-19.734
1.679349099999854,26.413,4.601,2.967,17.109,-154.843,122.67,15.287,-1.328,20.787,27.495,10.357,8.018,4.516,-2.012,115.782,4.713,-32.531,10.097,7.232,12.039,66.238,4.786,1.113,7.02,7.99,10.407,227.88,28.488,-11.517
1.6794082999999773,24.338,-1.551,-5.745,12.481,-144.955,126.646,20.395,-0.302,22.303,30.541,13.42,10.059,6.56,-2.01,116.178,8.295,-25.838,16.234,8.762,14.589,67.197,9.392,6.235,12.648,10.544,15.007,233.288,29.997,-17.141
1.6944163999996817,26.875,-5.136,-27.769,0.173,-145.322,123.958,13.714,-2.351,18.695,24.363,11.358,13.123,6.554,-2.008,118.623,12.385,-28.886,14.169,8.241,12.013,64.056,6.821,2.131,7.0,3.873,8.844,233.567,21.77,-33.518
1.6944816000000174,34.02,0.505,-27.741,4.272,-143.127,120.248,15.75,-1.324,25.336,27.412,16.469,21.307,9.109,3.63,120.042,18.52,-26.296,21.327,13.356,17.636,72.188,9.376,8.788,12.116,4.894,12.934,240.506,26.359,-27.336
1.7094663999996556,37.06,5.115,-11.319,16.05,-127.615,127.812,24.956,10.46,35.044,40.705,28.748,30.507,19.858,9.774,121.459,28.236,-17.56,31.039,22.564,24.279,81.85,19.613,20.563,26.449,14.111,23.68,246.413,38.628,-14.501
1.7260757999997622,45.22,12.794,-5.673,22.694,-115.704,140.492,34.152,24.794,39.62,49.886,36.916,37.649,27.523,11.301,130.559,40.503,-16.518,32.033,27.664,25.791,81.256,27.278,21.054,30.521,18.707,27.242,247.191,43.712,-17.561
1.7261387999997169,51.322,15.855,-11.302,20.622,-117.126,139.839,33.093,26.819,41.63,49.836,39.441,38.636,24.422,8.216,135.039,40.462,-22.649,26.878,23.026,26.79,81.175,24.689,15.91,26.904,15.615,25.678,251.555,44.693,-19.592
1.7394858999996359,45.123,9.18,-16.927,13.942,-123.156,134.064,20.765,16.034,34.928,45.175,38.889,32.449,19.786,5.134,130.293,33.25,-28.262,19.166,18.392,26.251,80.069,16.467,14.357,23.803,12.013,25.14,255.402,43.111,-21.11
1.7395502999997916,46.103,11.22,-13.323,18.026,-127.644,137.004,19.72,9.358,27.209,43.081,36.289,32.417,21.816,5.641,131.7,34.241,-29.77,17.098,22.985,25.2,77.94,16.451,14.343,23.267,14.05,26.139,257.195,45.118,-22.113
1.754417199999807,55.278,20.942,0.01,32.865,-127.516,137.891,32.508,11.91,33.329,45.087,37.277,38.02,23.843,10.758,136.179,39.842,-23.081,27.839,27.572,29.273,86.059,23.607,18.94,29.392,20.184,30.724,263.598,56.343,-5.697
1.7562276999997266,52.149,21.434,12.818,31.808,-126.876,130.581,28.377,12.41,35.857,44.017,37.752,35.933,23.307,16.383,131.944,39.802,-15.885,33.959,29.082,31.806,88.534,25.632,26.605,36.535,20.676,34.279,265.384,63.971,9.678
1.7695193999998082,45.949,18.338,22.026,24.091,-129.311,126.352,13.491,5.738,24.551,34.752,29.518,30.261,19.185,15.854,124.128,34.639,-16.894,29.315,30.077,28.188,76.662,18.947,23.505,35.473,16.557,32.708,261.532,64.42,10.693
1.7695874999999432,51.539,23.443,40.447,32.264,-129.182,128.275,15.527,1.121,24.526,31.643,26.414,33.305,16.092,15.326,124.003,35.629,-15.853,31.847,26.461,27.135,77.098,17.391,19.383,33.901,18.589,32.163,268.443,69.478,23.49
1.7845086999996056,54.049,27.006,59.875,40.941,-127.003,131.221,23.196,5.219,34.748,38.271,35.097,37.882,18.125,19.409,133.613,43.791,-10.201,39.5,25.41,31.718,86.755,22.496,24.999,37.453,22.157,34.693,280.47,73.507,40.372
1.7845680999998876,47.335,23.393,62.889,35.777,-128.413,131.602,16.513,8.8,29.59,38.233,34.037,35.283,20.156,14.779,137.066,39.648,-15.314,33.825,25.385,29.125,78.471,15.814,19.851,33.317,14.45,32.609,274.554,67.799,37.258
1.7999023999996098,41.652,17.734,70.51,29.081,-129.309,127.884,8.812,8.791,22.9,30.51,24.782,30.125,13.476,4.518,122.072,23.727,-25.545,23.545,15.113,20.387,68.659,1.453,4.462,22.526,9.313,22.33,260.447,60.558,41.319
1.7999691999998504,39.049,13.618,90.932,32.638,-125.594,123.145,15.463,10.831,29.537,32.017,26.294,30.607,13.463,7.587,117.851,25.753,-23.983,23.521,10.487,19.854,73.201,-2.134,5.482,19.942,15.451,16.672,258.138,59.473,56.647
1.8145230999998603,37.985,11.555,86.743,33.63,-122.394,120.461,26.206,10.308,30.02,38.132,29.854,34.162,23.183,12.703,127.467,35.461,-21.397,25.547,18.674,23.933,72.103,-0.083,11.624,22.995,13.899,17.68,261.466,57.877,46.857
1.8162266999997883,39.996,10.006,62.577,22.838,-125.346,119.315,28.741,-0.461,23.842,32.459,25.725,32.079,20.598,6.543,122.217,27.741,-28.036,20.911,16.606,21.86,67.42,-3.669,5.977,21.948,7.225,18.175,261.204,52.696,31.441
1.82958009999993,42.518,7.947,58.929,14.106,-130.344,122.27,22.053,-5.071,24.843,29.353,27.237,27.436,10.844,5.511,116.971,23.102,-28.52,19.353,8.392,20.301,71.964,-5.202,5.971,20.901,11.828,18.669,262.992,51.106,37.045
1.8296465999997054,37.352,5.378,60.407,16.654,-136.873,122.148,11.784,-0.968,22.257,32.397,25.16,26.384,12.37,13.703,125.564,28.714,-23.368,25.481,13.507,21.817,71.892,-3.66,10.576,23.442,13.353,19.675,264.266,49.518,35.983
1.8446184999997968,29.118,2.298,43.952,16.125,-142.372,112.292,5.625,-6.602,13.013,22.631,14.889,22.772,12.358,13.177,119.29,24.075,-21.808,30.579,18.104,21.796,68.234,-5.706,6.467,21.369,5.143,16.069,258.367,44.858,20.578
1.8446837999999843,35.237,5.37,36.736,15.596,-132.496,110.13,7.156,-10.181,16.586,17.997,19.485,25.823,10.296,11.114,111.999,27.637,-19.225,32.085,19.111,26.897,77.899,-2.114,9.022,18.786,7.699,17.59,259.645,46.862,19.02
1.8595747999997911,49.546,15.098,40.286,24.29,-109.822,118.729,9.198,-0.95,25.791,29.762,33.81,40.141,17.97,16.739,125.207,44.516,-16.132,34.614,27.288,33.53,86.531,8.135,17.722,25.428,16.401,26.794,271.681,55.012,24.637
1.8596321999998509,49.497,15.083,28.975,22.729,-107.662,116.049,11.238,-2.998,23.204,29.22,30.19,41.638,20.002,15.697,128.668,42.422,-19.702,34.58,26.749,30.423,85.932,6.59,16.68,30.525,14.335,26.767,276.02,52.908,16.927
1.8746845999999096,43.812,7.384,21.261,13.997,-122.412,109.273,16.862,-10.68,19.082,20.482,26.061,31.35,14.859,10.558,120.855,32.133,-20.707,31.984,16.988,27.318,86.87,-2.639,13.589,26.909,14.833,23.154,273.182,47.22,9.226
1.8896780000000035,46.842,11.475,27.9,20.13,-116.654,116.848,19.919,-3.497,24.186,28.146,33.72,35.93,19.967,14.646,128.418,39.273,-16.587,34.001,19.533,31.902,88.833,-3.661,16.137,27.394,17.38,26.205,273.421,50.246,11.266
1.8897462999998424,47.307,16.586,19.163,24.721,-106.291,121.342,13.752,-2.469,25.699,33.753,31.124,43.066,24.045,17.706,130.851,41.796,-15.034,34.479,22.075,31.87,86.695,-0.583,13.559,30.44,9.678,25.666,270.074,50.196,9.205
1.9047221999999238,44.698,13.496,6.848,17.524,-116.431,114.561,7.59,-11.175,23.624,29.109,26.483,35.851,20.435,15.639,120.987,34.582,-16.556,29.322,14.368,30.301,88.657,-1.607,9.96,24.262,4.033,24.104,266.73,47.072,4.585
1.9047863999999208,46.191,13.995,15.038,17.507,-125.536,114.446,12.706,-6.553,24.113,28.055,31.579,31.716,20.415,16.648,121.378,34.547,-18.076,28.78,13.841,32.32,91.13,-4.679,11.999,20.652,7.103,23.567,269.025,47.537,6.118
1.920070499999838,42.558,10.907,18.609,16.464,-124.386,112.283,20.378,-2.961,19.478,22.904,24.375,31.172,16.808,15.606,122.281,31.439,-18.058,30.801,14.34,29.214,87.965,-9.285,7.889,21.143,2.485,18.421,261.584,44.416,5.599
1.92013309999993,36.368,3.211,8.344,9.788,-131.434,104.486,18.308,-11.667,10.237,15.196,16.154,24.994,10.131,10.98,114.987,21.673,-18.04,26.671,6.129,24.062,83.266,-13.887,-0.316,12.925,-8.788,14.816,246.978,38.224,-0.554
1.9347147999997105,35.819,5.257,6.799,17.975,-138.987,106.943,11.118,-10.631,10.226,18.767,21.773,21.895,12.683,11.994,117.946,18.065,-20.071,23.058,4.073,24.55,79.085,-17.459,-2.877,6.253,-13.39,14.801,243.657,36.136,-2.09
1.9347781999999825,30.66,2.69,6.28,19.494,-143.971,108.885,8.545,-8.571,14.315,17.724,18.165,22.897,12.67,11.982,118.852,14.974,-20.563,25.085,3.557,22.988,73.883,-25.126,-6.461,3.685,-10.815,8.126,241.364,29.953,-3.625
1.9498585999999705,20.896,-12.169,-0.898,1.031,-156.123,99.042,5.975,-19.321,11.739,8.997,6.876,18.776,5.997,7.359,106.95,10.348,-20.543,24.547,-4.644,20.404,72.272,-30.224,-11.065,-1.954,-6.194,2.483,229.339,21.726,-9.257
1.9499243000000206,20.875,-12.157,0.639,-0.506,-159.553,97.406,2.895,-20.326,10.702,11.55,11.48,20.294,9.578,9.401,106.843,16.485,-21.035,24.523,0.484,25.507,74.761,-22.509,-1.832,4.708,-1.577,8.116,227.061,24.778,-6.686
1.9647977999998147,28.026,-2.923,3.713,14.351,-149.659,106.018,8.015,-9.035,16.839,18.71,18.641,31.032,18.277,16.564,116.983,27.739,-17.94,31.67,14.316,30.604,77.248,-14.802,9.952,18.023,3.036,13.743,234.006,31.413,1.005
1.9648644999997487,26.461,-8.043,1.147,13.824,-144.386,104.888,15.179,-10.05,18.36,16.642,18.622,31.514,17.234,18.596,113.28,27.712,-16.897,32.663,11.228,29.549,74.609,-18.374,5.332,10.833,3.033,9.631,227.112,27.796,-1.045
1.9798345999997764,17.213,-15.72,-1.928,6.638,-148.853,94.537,13.115,-16.188,9.632,9.966,15.53,19.699,9.532,12.942,104.457,19.487,-25.59,24.434,3.02,26.445,67.874,-25.528,-2.358,0.576,-3.118,5.011,214.59,17.009,-9.241
1.979892099999688,10.024,-17.754,-7.561,2.533,-152.802,87.782,6.954,-16.172,5.524,3.808,7.318,16.093,4.912,7.806,104.353,14.857,-31.199,19.286,5.066,22.321,62.683,-27.551,-1.844,6.723,-3.627,4.493,208.74,10.845,-14.355
1.994771899999705,11.551,-20.81,-11.14,-0.031,-148.039,85.645,2.336,-19.23,9.104,1.755,5.261,21.713,5.932,7.286,105.273,17.404,-27.07,19.779,5.061,21.786,61.084,-23.938,-0.305,7.741,2.012,6.538,204.945,12.883,-14.853
1.9948270999998385,16.15,-17.203,-4.469,4.58,-137.132,89.146,-4.326,-19.21,10.12,7.389,14.477,20.154,5.926,6.254,105.168,21.997,-28.579,19.247,3.006,24.838,62.56,-19.303,1.745,2.097,-2.089,8.068,204.227,14.919,-10.739
2.0098720999999387,18.183,-11.55,-1.903,4.575,-135.458,93.155,-3.297,-12.531,9.085,8.918,13.438,16.035,3.358,-0.412,106.599,20.95,-34.186,18.203,7.102,25.325,63.009,-20.308,3.28,4.657,-9.259,8.573,208.634,12.855,-11.241
2.0099318999996285,18.677,-16.149,-7.536,-4.139,-140.446,89.988,9.002,-15.592,10.613,5.835,9.326,19.093,2.843,-2.973,107.517,18.368,-33.64,16.136,9.144,23.763,58.848,-20.288,1.227,9.775,-4.639,11.638,212.012,13.867,-18.402
2.0249034999997093,18.146,-14.084,-8.553,0.476,-136.719,86.824,9.505,-21.725,11.627,6.342,16.489,21.636,5.402,0.104,108.947,19.886,-33.606,11.509,6.061,25.276,55.203,-16.169,2.251,10.278,0.489,14.188,211.8,18.464,-17.871
2.0249705999999605,19.665,-2.287,-9.569,8.16,-129.41,91.348,-0.751,-16.58,9.566,9.409,20.571,21.614,7.445,1.128,107.813,23.453,-35.109,13.034,7.592,28.837,55.66,-14.616,6.347,10.78,-3.098,15.71,209.026,17.421,-13.243
2.0409583999999086,26.305,1.814,-10.072,5.078,-124.67,95.355,-3.311,-14.002,9.557,15.035,22.088,28.765,9.999,5.226,106.681,27.528,-27.902,20.706,13.22,34.956,57.654,-15.114,4.804,9.744,-2.07,16.719,209.842,16.891,-13.742
2.0410211999997045,30.378,-0.237,-4.939,8.66,-118.91,94.235,-4.333,-18.598,11.596,22.193,26.676,33.347,12.551,11.368,109.648,31.599,-21.214,20.173,8.083,35.433,54.01,-15.099,1.725,8.71,1.006,15.166,211.169,19.436,-12.703
2.0548848999997062,23.175,-1.774,-3.397,12.237,-125.451,88.505,-8.427,-19.604,9.536,18.584,19.99,25.116,9.465,7.771,106.977,27.468,-26.828,11.444,-2.683,26.689,42.685,-22.256,-0.838,6.14,-5.143,10.028,206.347,17.367,-8.592
2.0549502999997458,16.492,-7.407,-5.443,4.54,-141.72,80.732,-3.808,-20.609,3.378,7.807,10.748,18.431,6.381,1.615,98.673,22.318,-33.462,9.383,-1.144,22.564,35.982,-27.357,-4.936,0.498,-9.749,10.53,202.554,12.227,-10.633
2.069953599999735,18.012,-8.937,-7.999,3.511,-144.139,78.602,-5.853,-25.712,4.4,6.775,14.836,19.437,7.4,3.15,101.136,25.882,-29.842,14.497,6.542,27.664,38.508,-22.206,-3.906,-1.551,-4.616,12.568,205.426,9.141,-15.233
2.0849295999996684,18.506,-3.805,-15.163,7.094,-134.774,83.135,-19.679,-23.125,9.518,12.403,16.358,19.93,7.904,5.196,106.67,28.417,-24.177,17.556,5.511,27.124,36.932,-19.11,-2.365,4.598,-3.074,9.482,204.196,8.619,-17.267
2.084987799999908,15.414,-2.264,-16.173,2.988,-131.565,83.051,-11.463,-17.466,8.484,12.903,11.731,17.861,5.847,4.679,101.953,22.754,-26.202,14.465,2.944,21.974,28.699,-21.653,-3.9,7.667,-4.096,8.448,197.844,10.66,-16.738
2.100221799999872,11.3,-5.336,-8.984,-0.089,-138.093,73.235,13.652,-20.523,3.865,7.767,8.645,13.745,3.792,2.113,96.215,19.657,-32.836,8.302,1.916,20.415,24.059,-21.631,-2.359,5.61,3.081,9.464,194.06,11.674,-11.598
2.100286999999753,6.166,-7.892,-6.926,1.448,-147.689,66.501,7.49,-28.699,-0.75,2.637,1.464,7.583,1.227,-4.549,90.484,14.002,-35.877,5.22,-2.184,17.833,18.4,-23.146,0.205,5.605,8.201,5.356,191.304,10.125,-9.025
2.114955999999893,3.086,-8.396,-6.919,1.447,-144.98,68.484,-18.133,-28.67,-3.311,1.097,-3.148,5.014,0.713,-10.693,82.196,8.865,-35.841,3.166,-4.231,15.254,12.746,-25.172,-2.357,6.624,5.631,4.326,185.99,8.578,-13.114
2.1150179999999636,4.62,-6.851,-5.375,2.47,-137.15,68.928,-18.627,-27.105,-0.746,0.584,1.466,5.522,-0.312,-8.633,85.188,9.881,-38.879,-1.448,-4.739,14.726,10.684,-27.196,-7.478,4.568,1.527,4.834,181.193,7.545,-13.101
2.1299599999997554,3.59,-11.967,-9.981,-1.631,-145.21,65.273,-5.8,-34.762,0.28,-1.466,-1.609,0.393,-3.386,-7.599,88.689,6.797,-43.963,-6.057,-9.857,11.638,5.55,-34.341,-15.155,-1.584,-6.672,-0.806,181.524,2.926,-14.625
2.131644299999607,1.538,-16.054,-13.557,-4.191,-147.114,65.72,-11.942,-35.24,-0.745,0.072,-4.169,-0.632,-2.87,-9.641,81.94,4.229,-40.845,-5.539,-10.36,10.089,0.934,-37.381,-18.214,-4.144,-10.764,-0.805,185.441,0.362,-19.733
2.1450368999999228,5.122,-9.378,-10.469,6.059,-126.987,69.753,-24.226,-21.884,3.866,4.683,5.569,8.59,3.281,-6.045,84.932,15.495,-32.095,-2.972,-5.739,15.714,6.056,-28.634,-9.998,-0.042,-1.019,6.368,187.305,4.46,-14.59
2.145107299999836,8.703,-8.344,-14.045,6.566,-127.885,65.072,-13.443,-21.35,1.813,1.092,3.514,8.582,2.765,-2.453,89.97,16.504,-33.6,-2.457,-6.245,15.699,6.562,-25.02,-7.939,-2.091,2.568,4.825,187.118,4.456,-14.063
2.1603849999996783,3.571,-20.118,-24.789,-7.785,-148.761,51.687,7.575,-36.698,-10.484,-6.081,-8.785,-2.698,-3.385,-8.598,78.609,3.168,-39.202,-3.991,-8.288,10.56,0.408,-26.532,-13.567,-6.187,-8.705,1.746,183.344,-3.746,-28.394
2.1604542999998557,3.568,-16.512,-27.326,-3.679,-141.44,52.148,3.469,-34.612,-7.4,-1.465,-0.579,0.379,0.717,-9.102,76.994,8.8,-32.502,2.161,-1.62,14.648,2.969,-16.259,-1.77,5.602,-3.573,8.917,182.136,-1.18,-25.804
2.174936799999614,12.786,-0.102,-18.077,10.669,-125.417,65.415,-13.441,-22.282,5.928,7.246,12.229,9.6,10.962,0.641,88.188,21.599,-24.273,10.868,4.529,20.269,8.602,-5.996,13.601,18.916,20.509,19.666,189.127,15.215,-4.261
2.175000899999759,8.162,-5.225,-18.059,-1.637,-137.587,62.276,-10.866,-30.457,3.873,4.677,0.946,-0.144,9.926,-1.921,85.026,11.843,-31.933,2.66,-1.623,14.613,2.958,-13.163,5.39,11.213,20.488,18.622,188.937,15.199,-6.819
2.189938699999857,-6.191,-20.076,-39.046,-23.152,-149.745,47.869,-9.318,-46.82,-4.328,-0.963,-10.838,-9.877,1.72,-15.239,74.182,1.073,-43.172,-13.224,-11.867,3.84,-6.779,-23.908,-10.496,-3.143,-3.611,4.771,174.404,-4.796,-31.915
2.1915162999998756,-6.697,-21.593,-55.401,-22.104,-148.059,49.358,-28.264,-44.724,-3.299,0.063,-7.753,-4.232,3.767,-16.249,73.596,5.683,-38.006,-12.699,-11.856,3.324,-11.896,-25.933,-12.535,-7.751,-10.267,-4.968,172.693,-14.525,-45.715
2.205023600000004,-2.591,-20.547,-52.784,-16.447,-156.62,56.481,-35.408,-34.946,-5.858,0.575,-6.721,-3.203,11.96,-6.499,77.108,8.239,-28.234,-5.002,-8.77,8.443,-12.396,-26.932,-12.01,-7.231,-0.523,-1.889,182.254,-13.998,-43.62
2.2050846999995883,-7.2,-23.6,-50.169,-24.627,-166.197,52.839,-21.028,-35.423,-13.536,-0.962,-7.739,-4.225,12.973,-4.955,79.593,7.206,-30.767,-9.095,-14.396,8.435,-12.896,-28.442,-17.121,-8.76,-6.158,-1.887,180.022,-16.546,-41.015
2.2201043999998546,-5.143,-21.015,-53.705,-28.701,-154.248,53.298,-12.298,-45.121,-12.498,3.649,-3.12,3.464,10.911,-7.512,80.025,11.809,-35.86,-17.283,-15.919,6.377,-12.883,-26.877,-19.154,-9.264,-13.324,-3.422,177.793,-16.017,-43.023
2.220173799999884,7.67,-12.797,-51.09,-14.84,-136.675,62.466,-17.921,-48.15,-2.24,13.38,4.567,11.145,16.535,-2.381,81.995,19.994,-29.164,-12.142,-6.682,10.982,-5.698,-22.239,-12.474,-4.132,-3.065,6.827,185.812,-8.316,-42.468
2.235037099999772,14.834,-5.612,-42.33,-3.042,-128.341,69.576,-19.44,-37.344,1.861,20.026,13.784,15.745,25.228,6.331,90.109,28.684,-18.888,0.677,2.034,18.655,5.066,-12.483,-4.265,5.094,4.111,12.968,191.774,0.401,-34.229
2.2350954999997157,13.795,-6.631,-38.189,-8.162,-129.75,67.457,-4.051,-30.134,-4.288,17.957,13.77,18.291,25.203,5.812,92.581,31.217,-17.333,4.775,2.545,19.149,4.037,-7.347,-3.236,3.04,-2.041,6.808,192.607,2.45,-31.633
2.250027599999612,9.683,-14.309,-45.835,-16.351,-139.354,60.218,10.81,-34.202,-4.796,13.328,6.072,15.199,19.542,1.708,84.291,26.062,-17.828,1.184,-1.556,15.031,-4.677,-14.0,-7.844,-6.697,-10.748,2.702,191.902,-2.163,-39.798
2.251929199999722,10.185,-10.196,-50.4,-5.576,-136.653,64.256,6.701,-26.996,5.967,20.487,11.701,15.696,23.109,6.829,86.256,28.085,-10.637,6.306,0.494,16.553,1.476,-12.961,-6.811,-4.641,-11.762,5.774,190.685,4.499,-38.734
2.2651091999996424,19.397,5.183,-36.518,11.335,-116.536,82.635,4.645,-11.599,14.67,35.836,23.985,23.877,31.795,12.97,96.416,34.205,-2.942,18.595,10.74,24.734,13.77,0.884,1.905,9.196,1.57,12.428,197.667,29.085,-26.912
2.2651694999999563,21.939,6.715,-23.161,9.275,-115.908,86.65,15.911,-15.686,11.582,33.751,18.838,22.316,29.714,11.42,95.808,31.097,-2.427,21.138,12.779,26.758,12.731,3.445,7.026,11.748,13.864,17.538,200.543,42.376,-23.299
2.28017090000003,13.207,-0.977,-29.286,-2.518,-134.235,75.805,17.944,-30.015,6.959,20.909,8.573,13.585,23.536,9.872,90.076,27.992,-4.474,18.555,8.155,21.608,7.595,-1.682,7.019,6.613,8.727,14.447,193.17,39.772,-24.813
2.2954891999997926,12.682,2.611,-34.379,-2.003,-132.051,78.803,12.803,-30.498,7.465,26.524,13.175,17.67,26.587,12.423,92.035,33.087,-1.908,23.66,13.27,23.124,11.686,2.418,8.037,12.242,6.156,11.871,194.514,47.93,-19.665
2.295547799999895,18.305,8.243,-27.685,3.122,-120.649,85.897,10.229,-22.27,9.506,37.768,18.285,27.386,31.683,14.46,95.017,37.153,1.168,31.833,21.966,29.248,16.798,7.027,9.053,18.89,15.372,15.445,199.955,61.202,-15.034
2.3101457999996455,16.749,7.723,-24.071,3.119,-126.676,80.688,6.12,-20.711,10.009,35.681,17.242,25.309,30.115,16.495,92.873,37.628,2.191,35.388,24.506,27.682,17.806,8.044,11.606,14.772,18.43,17.991,197.706,62.677,-15.019
2.3102265999996234,17.757,8.227,-24.047,5.165,-130.135,79.583,9.7,-25.301,13.585,36.67,21.836,24.772,32.134,20.577,91.756,41.176,5.263,37.401,29.604,27.142,22.911,12.647,15.18,15.27,16.875,17.461,201.606,61.078,-14.492
2.32520009999962,21.838,9.756,-23.511,4.136,-128.468,87.7,16.35,-29.374,23.306,44.318,24.375,31.407,36.712,20.044,92.688,42.672,3.721,35.315,31.624,30.701,30.06,13.146,11.067,18.329,16.858,17.444,207.553,61.529,-13.453
2.325263199999881,21.816,9.234,-28.098,0.545,-141.147,91.711,10.699,-26.271,26.356,43.761,20.253,30.351,36.163,17.462,96.182,36.994,-4.48,27.595,23.907,25.547,31.567,6.986,3.371,10.626,10.693,13.84,202.734,59.418,-17.025
2.3402759999999034,23.331,9.737,-29.607,7.205,-148.178,93.156,12.225,-17.535,20.182,41.668,20.232,24.685,36.639,16.933,98.647,30.809,-4.988,23.469,21.834,20.911,29.999,4.929,1.831,3.443,2.998,11.777,202.019,61.408,-21.107
2.3403392000000167,25.357,6.653,-30.09,7.71,-143.932,91.526,21.946,-17.518,16.063,43.676,20.724,24.148,37.115,15.379,95.475,30.266,-0.372,23.445,22.325,23.964,28.944,3.9,-1.245,4.976,-2.128,10.741,203.866,59.297,-23.647
2.355212799999663,23.283,2.036,-39.281,-8.179,-149.935,87.336,8.605,-24.673,15.023,40.558,16.605,22.587,30.418,10.24,92.305,30.236,-6.519,18.299,13.593,21.378,27.89,1.334,-5.855,2.41,-8.274,3.045,197.515,48.48,-27.722
2.3552732999996806,27.358,5.62,-41.803,-9.196,-155.933,91.347,-5.749,-22.086,13.471,41.03,22.224,24.101,30.388,11.255,95.799,30.206,-10.611,15.207,12.555,20.332,32.473,4.919,0.299,4.969,-2.63,6.628,202.44,52.53,-26.67
2.3702205999998114,38.089,16.885,-32.028,9.256,-145.531,97.403,4.503,-17.454,17.556,49.698,31.423,32.274,39.579,16.366,103.9,38.885,-2.404,21.851,24.326,29.534,42.175,14.136,7.983,17.772,9.668,22.503,218.12,66.309,-18.446
2.37027659999967,42.662,20.455,-31.483,7.198,-134.627,96.281,9.109,-22.047,21.637,50.673,29.343,32.754,36.978,15.325,106.358,44.481,0.16,24.903,29.424,34.627,47.256,19.757,7.463,21.852,8.122,26.067,216.877,65.219,-15.866
2.3854212999999618,44.156,16.848,-37.6,-4.592,-133.98,95.673,1.928,-21.0,19.054,47.036,29.313,30.672,31.305,10.187,106.252,40.85,-4.451,19.243,28.883,33.568,49.77,23.324,11.554,18.757,6.577,24.504,212.049,61.567,-18.924
2.385487600000033,46.673,20.417,-32.951,5.146,-133.846,96.089,7.049,-11.758,20.571,52.113,35.944,38.326,38.446,10.689,108.195,45.42,-3.934,19.224,34.489,36.096,52.282,26.374,20.764,26.422,16.816,32.676,220.034,69.703,-14.294
2.3993037999998705,48.163,28.594,-25.234,14.362,-129.614,94.456,15.239,-11.746,25.162,54.622,35.396,41.362,43.019,15.802,108.086,53.572,-2.393,26.377,36.504,37.597,53.254,27.372,20.231,34.081,19.873,34.693,220.839,73.219,-7.108
2.399363799999719,49.652,28.565,-21.622,10.762,-122.824,96.923,10.101,-14.296,26.673,53.543,32.287,37.222,37.852,16.81,103.88,48.395,-1.366,28.912,33.906,35.51,55.25,27.345,18.674,31.997,16.267,29.023,214.47,70.584,-6.588
2.414709700000003,44.992,22.389,-24.162,8.19,-123.214,93.753,1.894,-12.232,23.061,51.952,32.254,36.16,35.253,12.183,101.727,40.662,-1.365,21.199,28.749,31.888,55.707,21.682,16.094,25.305,18.812,27.457,212.719,66.927,-9.143
2.4147727999998096,32.651,13.145,-36.946,-2.577,-135.898,79.314,2.916,-20.417,10.742,41.142,21.464,28.951,28.558,7.56,97.014,34.986,-8.023,9.907,17.449,23.659,46.942,8.853,2.245,14.009,14.695,20.257,204.309,56.102,-16.307
2.429332499999873,29.033,5.96,-42.032,-11.796,-144.984,75.649,9.574,-32.18,0.485,31.367,10.171,19.701,22.894,4.991,91.794,25.73,-12.626,7.335,11.796,18.513,39.211,1.159,-3.392,8.36,5.459,13.065,201.031,49.386,-22.95
2.4293923000000177,36.688,9.54,-31.744,-0.001,-143.814,82.746,8.027,-27.024,7.657,36.459,16.821,22.243,27.482,3.961,93.752,24.679,-9.539,14.5,18.957,22.593,41.221,5.257,6.345,17.061,10.064,18.175,212.613,56.509,-17.292
2.4444048999998813,34.602,12.092,-27.101,7.171,-141.109,79.077,0.847,-19.313,16.359,38.471,22.952,24.782,29.503,3.957,95.195,29.265,-10.042,13.461,18.938,23.595,44.253,8.325,6.338,19.605,15.177,21.743,211.376,59.014,-10.102
2.4444688999997197,28.42,3.37,-25.025,-1.033,-136.357,72.85,1.358,-21.855,8.145,32.797,17.806,23.22,23.839,3.441,89.464,28.212,-14.131,6.788,15.333,22.034,46.258,6.78,0.184,13.95,6.453,20.184,203.48,53.32,-11.629
2.459540399999696,35.052,6.441,-12.192,5.116,-130.073,80.974,6.48,-20.808,5.063,35.839,20.862,27.296,24.839,7.024,92.961,31.769,-7.969,12.928,24.027,28.672,52.872,13.433,10.943,23.67,8.496,25.287,217.109,59.414,-9.056
2.474430399999619,41.677,20.267,-4.495,15.869,-131.48,90.627,9.035,-11.566,14.28,42.463,30.575,31.367,30.962,12.652,104.651,37.885,-0.789,25.211,31.175,35.303,59.479,23.154,21.178,33.893,23.344,29.872,232.773,67.039,-0.338
2.4744958999999653,35.487,17.173,-13.712,8.681,-138.008,92.073,10.051,-10.018,15.802,40.371,27.983,29.799,29.394,12.127,103.522,34.261,-2.837,24.161,24.484,31.17,54.809,18.007,10.911,21.563,17.173,25.232,228.442,59.287,-2.899
2.4894274999996924,30.329,6.397,-23.432,3.549,-141.969,89.932,3.893,-20.766,14.762,37.257,20.783,25.67,25.266,9.041,95.221,27.567,-5.908,17.989,19.849,23.966,48.094,7.231,-0.371,10.271,-1.8,20.596,220.529,50.519,-14.167
2.489486499999657,32.347,8.44,-22.384,8.157,-145.413,86.768,-4.308,-22.282,22.944,39.269,20.25,24.108,25.241,10.057,96.663,25.49,-8.464,15.922,22.903,23.942,50.607,8.761,5.777,14.359,1.788,19.55,219.796,50.468,-16.202
2.504399199999625,27.192,5.87,-20.825,4.562,-149.366,83.095,-3.279,-13.551,18.823,37.18,19.205,24.084,24.704,7.485,96.566,22.903,-12.041,12.32,22.367,26.48,53.118,12.338,8.845,13.832,7.934,18.506,219.064,46.832,-16.186
2.5061108999998396,17.943,-5.919,-27.977,-5.176,-149.217,76.352,0.823,-20.197,-2.713,27.409,14.062,20.473,16.994,1.842,86.736,17.757,-12.542,10.258,18.247,23.892,46.918,7.203,0.639,5.622,-5.906,14.902,213.209,36.539,-24.879
2.5194486999998844,21.512,-3.352,-29.485,-6.708,-147.018,73.714,5.433,-36.571,-4.76,25.845,14.561,18.404,16.977,5.427,85.625,19.276,-7.918,16.396,20.79,23.868,46.358,5.658,3.2,9.202,-9.486,15.399,213.508,34.965,-25.878
2.519508599999881,32.248,10.484,-18.698,1.496,-145.847,85.423,10.55,-29.362,12.664,36.065,22.743,29.656,30.28,13.106,97.834,29.503,-3.812,22.015,26.405,31.016,57.07,12.825,13.443,17.902,7.942,24.605,225.078,46.713,-12.533
2.534515299999839,35.29,15.084,-16.117,11.74,-144.164,91.998,4.392,-11.402,14.188,38.591,27.331,36.799,32.299,10.019,99.786,34.085,-4.833,17.382,25.866,33.547,63.161,15.886,11.893,16.347,12.545,28.167,227.414,56.401,-4.323
2.534573999999793,33.718,14.045,-23.786,10.704,-142.483,79.098,-3.809,-16.001,4.952,28.306,24.23,27.54,17.41,3.349,91.489,27.903,-6.877,11.217,22.766,29.415,62.586,12.796,8.295,12.233,2.286,21.991,218.99,56.857,-7.393
2.5506209000000126,33.172,11.981,-23.25,3.521,-141.828,70.31,0.805,-30.33,3.923,23.667,20.107,22.39,13.294,4.37,91.398,24.801,-6.87,13.255,22.743,27.336,62.011,8.685,6.237,11.708,-0.79,18.383,219.796,54.238,-11.484
2.5506821999997555,30.577,7.359,-25.788,6.591,-142.198,75.363,-4.831,-28.763,2.894,24.668,16.501,23.904,15.33,4.366,90.794,23.752,-10.45,13.242,20.671,24.747,60.412,4.066,-2.478,8.11,-1.302,17.34,219.064,49.573,-18.644
2.564601799999764,31.571,5.814,-31.398,10.683,-138.982,76.824,-16.097,-18.488,2.891,24.131,17.509,23.88,13.266,1.287,88.654,22.703,-15.562,8.618,18.601,23.698,63.425,4.574,-6.574,5.028,-1.813,15.273,211.16,49.524,-22.212
2.566441699999814,38.2,8.882,-26.243,4.012,-136.282,77.26,-6.347,-15.908,11.598,29.23,26.201,30.516,17.863,5.897,97.274,29.341,-10.936,9.634,22.681,29.31,71.046,7.131,0.605,7.585,1.263,18.844,218.121,54.597,-15.53
2.5795734999996967,35.6,6.312,-25.192,-4.188,-142.806,79.744,3.393,-24.089,11.586,32.787,29.248,33.56,21.431,8.965,99.739,30.848,-8.363,10.136,20.609,29.28,69.438,-0.049,0.092,5.528,-1.812,19.85,226.612,49.932,-13.977
2.579647499999737,26.343,-0.354,-32.339,-4.697,-153.421,77.615,-6.344,-24.577,2.865,27.119,17.948,22.255,14.238,2.296,88.88,18.01,-13.99,7.052,12.904,20.542,63.734,-6.196,-8.105,-0.113,-5.909,10.096,218.189,43.734,-19.599
2.594641799999863,27.341,1.183,-25.647,0.431,-157.879,80.099,-15.559,-12.769,6.448,25.042,13.32,19.672,11.15,1.781,88.279,12.869,-12.952,10.119,13.404,19.497,66.744,-3.116,-4.511,2.449,1.269,9.061,215.409,49.326,-13.944
2.594704499999807,29.363,3.231,-20.498,1.968,-166.43,85.654,-14.007,-15.83,10.54,27.579,17.405,23.238,13.188,4.853,91.777,13.368,-12.426,7.548,13.39,21.526,69.751,-6.187,1.129,5.52,5.366,14.688,222.366,47.227,-12.393
2.6095636000000013,22.674,-3.432,-26.625,-3.67,-179.071,80.446,-2.722,-31.184,0.796,21.403,11.752,15.018,7.539,-2.836,87.587,4.645,-22.66,-1.682,5.18,15.357,65.07,-13.865,-4.508,-0.633,-0.787,9.038,218.557,33.348,-24.676
2.60962359999985,23.675,-1.38,-19.427,0.432,-175.306,78.316,9.576,-25.517,1.308,19.333,8.154,12.954,7.019,-6.419,90.573,3.104,-21.101,3.443,6.712,13.805,65.005,-10.265,-3.991,-0.12,-1.298,8.516,216.29,35.364,-23.627
2.624569899999642,31.336,8.356,-11.723,11.19,-162.835,89.508,-2.729,-10.122,19.237,29.047,16.855,22.162,14.697,2.809,95.093,13.347,-9.296,12.661,13.877,20.451,72.625,-5.132,4.722,8.077,2.289,18.754,223.246,44.55,-14.381
2.63965109999981,28.231,2.712,-22.469,1.958,-168.82,86.857,-16.558,-15.748,18.193,27.994,16.326,18.554,14.17,4.343,89.875,10.772,-12.361,8.038,11.302,19.406,75.114,-7.176,4.205,4.995,0.75,15.661,222.51,35.796,-20.002
2.6397195999998075,18.469,-11.635,-28.594,-17.0,-184.533,70.377,-1.173,-27.003,-4.367,12.084,7.088,11.363,3.397,-3.346,84.662,2.052,-21.57,3.419,8.729,13.751,70.94,-8.706,-0.922,-5.256,-0.788,7.449,218.189,26.539,-25.106
2.6547035999997206,19.475,-13.161,-27.541,-16.983,-185.373,70.819,1.39,-25.439,-9.485,11.047,7.593,13.913,1.857,-3.855,84.578,4.099,-23.086,3.928,9.745,13.737,69.332,-9.722,1.128,-6.788,-1.811,9.49,221.045,28.049,-24.568
2.6547660999999607,27.653,-7.512,-32.124,-7.744,-175.966,82.019,-18.591,-19.266,9.48,28.455,15.783,18.51,11.589,1.784,87.567,10.755,-19.476,4.949,7.174,17.822,75.411,-9.2,1.639,-0.121,-2.322,11.018,224.41,29.558,-26.593
2.6700581999998576,32.748,-3.406,-26.457,-5.175,-170.155,84.498,-12.425,-17.197,16.642,35.086,22.939,22.59,16.188,6.905,93.115,15.355,-13.309,9.554,8.703,21.391,81.483,-3.043,2.662,6.539,-0.27,15.105,228.796,34.139,-19.906
2.670133699999951,33.228,-1.354,-18.746,-4.657,-170.497,83.389,-3.191,-21.278,8.941,25.317,20.355,23.592,11.561,6.898,94.046,14.315,-13.296,10.57,13.305,23.931,81.401,-0.478,8.295,9.094,2.292,23.799,230.617,39.228,-12.714
2.6846613999996407,31.658,-0.328,-30.51,-4.14,-174.937,83.818,-27.779,-28.429,4.834,21.194,11.625,16.396,7.451,1.768,92.928,8.153,-19.943,6.461,8.681,21.857,78.758,-6.113,6.238,6.011,0.24,18.14,223.214,32.529,-22.947
2.6847192999998697,28.552,-1.352,-38.677,-9.259,-181.422,79.123,-36.972,-30.962,1.755,21.685,11.101,15.355,5.907,-1.82,91.81,7.12,-20.435,7.479,5.086,18.762,75.606,-7.644,0.596,2.419,-4.371,10.438,218.892,28.91,-29.584
2.699745499999608,25.962,-1.351,-32.49,-12.324,-180.216,73.921,-16.443,-26.321,-1.32,19.614,16.213,20.463,5.901,-0.281,89.157,12.749,-16.316,8.496,13.278,21.817,78.092,-1.489,6.743,4.978,0.756,16.575,225.845,34.517,-22.895
2.6998070999998163,29.01,2.749,-28.872,-5.139,-174.401,77.433,-11.304,-19.122,6.365,23.18,17.734,23.004,9.481,2.793,94.703,16.834,-15.787,8.487,17.876,25.381,84.161,2.099,13.909,12.145,12.026,20.144,232.792,35.507,-19.798
2.7148879999999735,31.03,7.357,-24.232,5.624,-177.812,84.016,-8.218,-11.418,11.994,27.768,20.278,23.493,9.984,3.303,102.805,16.305,-15.772,8.991,10.686,23.819,79.466,-3.026,7.747,12.133,9.965,15.001,235.633,31.373,-20.803
2.714951299999939,22.29,4.788,-16.523,9.205,-185.831,83.42,8.184,-10.895,3.786,22.617,17.184,17.834,5.363,-1.311,92.968,8.092,-20.879,2.322,1.966,17.647,70.165,-12.757,-1.482,-0.174,-3.877,11.4,232.323,25.706,-20.27
2.72972609999988,15.095,-1.876,-17.019,2.023,-185.133,77.701,8.175,-20.105,0.196,17.471,4.871,7.57,1.259,-3.359,82.629,-2.162,-25.981,-2.803,-1.11,11.482,69.583,-17.355,-4.042,-6.834,-4.386,8.315,224.406,18.508,-19.737
2.7297867999996015,16.617,-6.998,-22.125,-9.762,-176.751,70.963,-2.079,-26.233,4.806,17.454,4.354,9.1,-0.279,0.23,86.133,-1.136,-22.881,2.835,-1.109,11.471,69.513,-14.264,-3.014,-0.167,2.279,6.257,221.621,14.391,-23.304
2.744740399999955,15.576,-11.089,-28.251,-12.826,-175.55,67.306,-5.151,-26.207,1.728,16.924,11.009,12.677,-2.328,-1.819,85.534,1.427,-22.858,1.807,-2.133,14.533,63.809,-15.274,-4.548,1.37,-4.896,8.3,220.887,11.303,-28.403
2.7447972999998456,11.462,-12.615,-29.247,-3.591,-181.01,69.288,-14.879,-28.742,-1.86,16.907,5.875,8.053,-2.326,-5.916,80.838,-2.16,-26.422,-3.317,-5.717,14.006,62.208,-18.845,-8.642,-4.779,-9.502,8.292,216.567,9.242,-26.838
2.7598363999995854,14.524,-9.528,-22.558,-0.002,-178.267,70.755,-17.426,-32.812,1.215,15.866,4.333,7.021,-0.786,-1.299,84.343,-1.646,-21.784,2.321,-4.174,12.455,64.195,-15.752,-9.145,-5.287,0.754,7.771,218.912,14.356,-20.664
2.7599019999997836,17.071,-10.031,-22.535,-9.736,-176.04,66.074,-5.625,-31.242,-6.47,10.727,6.377,4.452,-4.884,-0.785,84.771,-2.669,-22.787,3.344,-2.121,12.443,64.131,-12.663,-5.55,-3.232,5.364,8.788,221.255,14.342,-24.229
2.7748741999998856,9.369,-14.632,-30.71,-13.312,-191.745,61.909,-13.817,-30.186,-16.198,6.618,-5.412,-8.872,-15.638,-9.494,77.514,-13.937,-34.548,-6.394,-8.778,9.869,58.431,-18.285,-9.131,-5.791,-3.863,4.169,211.812,0.495,-31.889
2.774938899999597,4.749,-16.154,-33.24,-7.663,-199.238,62.36,-32.758,-31.181,-6.96,7.636,-10.017,-8.863,-17.671,-12.558,73.851,-17.509,-32.976,-8.949,-14.917,7.297,50.688,-24.415,-16.806,-11.42,-11.031,-1.983,207.502,-6.165,-31.345
2.7902385999996113,10.892,-12.552,-30.133,-6.631,-180.596,64.859,-27.09,-27.051,4.318,14.288,6.387,6.515,-7.407,-5.886,79.412,-4.684,-20.135,-2.792,-6.705,12.413,52.174,-20.804,-11.666,-9.36,-6.409,1.605,216.004,1.013,-27.728
2.790295099999639,18.054,-7.929,-27.029,-3.038,-176.829,68.38,-11.182,-21.388,3.801,17.86,14.065,14.705,-3.301,1.805,88.554,6.591,-17.554,3.358,2.523,19.061,61.344,-13.611,-0.896,1.408,-0.255,9.288,221.935,6.135,-25.651
2.8049268999998276,17.011,-6.896,-27.002,1.576,-199.194,69.849,-9.121,-27.002,1.748,13.231,5.341,13.153,-9.958,3.852,87.441,5.56,-19.073,4.38,-2.091,17.505,62.819,-14.622,-3.457,0.895,-2.304,9.791,219.152,3.055,-27.674
2.804990799999814,11.359,-10.475,-31.586,-6.111,-203.605,66.193,-13.21,-36.709,-4.401,6.558,1.238,8.017,-13.022,0.262,78.132,-0.593,-21.103,-1.26,-9.261,12.364,57.121,-22.292,-11.138,-10.889,-6.401,6.195,212.273,-1.559,-32.257
2.820148899999822,9.81,-8.928,-28.993,-8.666,-189.057,64.077,-14.222,-30.013,-13.106,7.576,3.286,3.911,-13.009,-2.812,80.103,-0.592,-24.668,-2.283,-8.227,12.864,57.576,-18.684,-10.102,-6.268,-6.906,8.238,206.937,3.054,-29.151
2.820215299999745,15.436,-1.234,-22.816,-1.485,-187.843,64.526,-12.671,-20.761,-9.507,11.667,6.869,7.493,-16.07,-2.297,86.171,2.994,-23.619,1.305,-7.194,17.462,61.105,-10.98,-9.58,0.911,-8.436,12.841,209.804,9.198,-23.487
2.834985299999971,15.933,-0.721,-28.941,-8.144,-194.828,63.436,-13.17,-29.962,-4.887,11.143,7.886,7.998,-17.078,-3.319,82.498,0.942,-22.571,-1.77,-8.724,17.445,57.458,-16.605,-14.693,-10.873,-10.99,11.803,212.156,3.554,-28.074
2.850007999999889,8.232,-11.479,-36.597,-18.894,-200.781,59.787,-15.206,-40.178,-11.542,4.472,2.755,0.818,-18.598,-3.316,78.318,-4.182,-25.11,-4.33,-8.715,13.329,53.814,-22.736,-18.265,-15.473,-13.028,6.156,207.333,-2.085,-34.706
2.850069099999928,4.126,-17.615,-37.585,-16.313,-207.24,57.166,-19.29,-41.162,-13.067,-0.656,-2.371,0.817,-23.703,-1.776,78.752,-4.69,-23.548,0.797,-9.219,12.291,53.248,-21.176,-18.759,-9.31,-16.089,5.125,204.052,-2.083,-34.159
2.864989499999865,7.195,-12.474,-42.67,-18.859,-209.594,59.158,-29.004,-47.781,-8.443,0.37,-0.831,4.914,-21.117,-3.823,79.697,-1.099,-23.012,1.821,-11.259,14.328,53.195,-23.204,-18.228,-12.374,-14.536,7.169,208.971,-5.667,-34.637
2.8650526999999784,9.237,-11.949,-42.628,-25.5,-209.897,66.783,-37.172,-47.221,-6.898,4.468,3.268,3.372,-16.486,-3.819,84.741,-0.074,-22.989,0.795,-9.71,16.875,55.191,-20.62,-16.16,-15.436,-8.373,5.625,215.422,-5.662,-34.603
2.8800044999998136,9.74,-15.524,-32.339,-15.228,-210.712,68.253,-26.377,-30.268,-7.916,3.951,3.265,2.345,-20.568,-2.278,84.656,-5.197,-20.404,1.819,-11.238,16.346,56.672,-15.988,-17.169,-12.347,-10.414,3.058,211.108,-3.094,-33.543
2.881697599999825,7.681,-13.459,-35.893,-3.43,-205.378,57.939,-15.592,-26.651,-14.056,-0.664,-2.886,-0.732,-25.158,-5.862,75.862,-11.851,-24.995,-2.794,-16.862,9.669,49.956,-25.194,-19.201,-13.871,-14.502,1.006,199.114,-9.239,-35.047
2.895082000000002,6.649,-10.884,-42.004,-4.451,-198.0,55.832,-27.871,-34.822,-15.578,-0.663,-4.42,-4.829,-24.108,-9.443,73.225,-10.303,-30.605,-3.303,-14.796,7.61,47.344,-24.656,-12.521,-10.783,-10.389,3.566,196.865,-8.205,-34.499
2.8951466999997137,10.741,-16.508,-35.302,-12.643,-202.925,62.948,-36.041,-35.811,-7.878,4.973,2.757,1.323,-21.01,-6.872,79.812,-1.583,-22.89,3.872,-7.096,15.8,56.518,-10.799,-7.386,-4.113,-8.33,9.71,205.89,-3.074,-32.416
2.9104789999996683,9.193,-25.713,-37.829,-29.537,-213.481,56.225,-16.537,-44.997,-15.555,-0.155,1.729,4.908,-20.477,-6.865,80.756,2.005,-23.379,-0.742,-7.601,16.809,55.437,-15.912,-14.551,-12.305,-13.444,6.627,202.098,-15.878,-41.092
2.910547399999814,0.987,-28.761,-48.549,-37.192,-214.292,45.923,-7.299,-55.198,-28.859,-7.84,-4.42,-0.732,-24.555,-10.956,78.114,-0.047,-34.114,-6.377,-11.18,12.181,48.209,-25.629,-18.635,-19.978,-11.894,-0.04,190.113,-26.621,-51.81
2.9250742999997783,4.572,-23.61,-42.865,-19.736,-205.881,54.586,-31.882,-40.286,-17.56,1.902,2.244,4.904,-21.969,-10.433,81.622,3.54,-33.056,0.802,-8.095,16.267,54.821,-16.895,-10.419,-12.786,-6.759,6.108,193.509,-18.398,-45.61
2.9251406999997016,5.592,-22.561,-38.212,-14.081,-207.212,59.142,-44.146,-34.611,-9.858,9.585,2.242,9.51,-18.36,-7.349,80.516,5.073,-30.461,1.825,-8.599,18.3,55.279,-15.853,-10.921,-11.748,-13.412,7.639,197.414,-18.379,-36.343
2.9400455999998485,-10.807,-30.223,-44.321,-30.461,-223.398,42.177,-27.708,-55.581,-26.242,-6.306,-14.666,-5.357,-27.051,-8.366,70.189,-6.203,-36.066,-7.398,-17.812,7.523,40.879,-27.62,-22.693,-19.933,-20.059,-5.689,186.97,-26.558,-40.918
2.941839499999787,-12.845,-27.632,-37.617,-26.332,-229.835,39.061,-25.631,-55.525,-29.289,-10.399,-17.213,-11.499,-32.66,-8.87,65.508,-12.857,-29.882,-3.804,-18.819,5.979,42.887,-26.056,-21.646,-15.815,-12.354,-5.171,185.246,-19.359,-37.803
2.955132799999774,7.66,-12.747,-23.747,-8.375,-215.261,56.44,-37.901,-39.588,-13.891,7.543,-1.315,1.32,-22.893,-3.226,76.201,-2.085,-19.606,8.495,-7.529,17.244,55.652,-13.222,-9.841,-2.479,-5.17,9.691,199.406,-4.483,-19.322
2.955200799999602,14.824,-4.537,-21.162,-6.83,-205.311,63.044,-30.178,-42.622,-10.291,11.634,3.297,3.88,-19.284,1.901,84.834,5.601,-21.124,9.511,-3.936,20.3,53.035,-10.135,-9.319,-0.94,-7.726,12.755,205.866,-0.38,-13.667
2.970151900000019,9.174,-3.508,-25.239,-6.823,-207.155,60.932,-22.976,-42.067,-13.866,5.474,0.22,-1.247,-25.925,-2.2,82.188,-1.064,-25.201,2.841,-11.616,15.669,48.371,-16.785,-14.433,-7.086,-9.255,7.619,201.05,-5.502,-23.9
2.9702174999997624,7.628,-8.628,-29.312,-7.841,-207.973,59.334,-31.662,-37.414,-17.439,5.981,-2.341,-3.807,-28.46,-8.345,76.47,-5.674,-28.25,-0.748,-16.728,12.58,45.761,-22.403,-15.443,-9.129,-12.32,6.075,194.189,-11.644,-28.487
2.9851549999998497,0.96,-21.939,-36.967,-28.325,-208.789,46.979,-28.556,-50.697,-26.643,-0.685,-12.073,-10.463,-30.994,-9.362,72.295,-5.156,-32.832,-1.772,-19.273,7.444,36.494,-25.455,-19.014,-11.681,-19.48,-0.079,182.724,-16.756,-31.532
2.9852178999999524,-8.262,-32.163,-46.664,-42.641,-211.654,38.735,-25.454,-55.257,-28.665,-7.344,-16.159,-10.965,-33.012,-8.328,67.1,-8.225,-34.848,-4.844,-22.327,4.875,33.896,-29.528,-26.679,-19.866,-24.583,-7.251,175.369,-28.01,-42.259
3.000136499999826,-9.278,-32.644,-53.278,-38.5,-216.566,44.844,-34.65,-43.419,-21.465,-4.263,-11.02,-7.368,-29.905,-11.393,66.008,-12.827,-39.937,-13.036,-24.354,5.383,35.911,-33.084,-32.288,-25.994,-30.706,-8.268,176.218,-40.79,-51.95
3.001883099999759,-12.855,-35.685,-56.298,-42.56,-224.546,44.799,-31.029,-49.523,-22.98,-9.382,-19.718,-19.144,-32.437,-18.042,64.405,-19.987,-50.143,-22.756,-32.014,-2.82,24.604,-39.199,-40.453,-29.042,-37.848,-12.871,172.968,-45.36,-57.534
3.0152594999999565,-22.064,-43.334,-58.804,-49.178,-229.445,37.582,-25.875,-59.72,-32.691,-18.082,-35.58,-32.444,-42.65,-21.098,55.632,-33.287,-55.728,-25.808,-43.765,-11.526,12.284,-49.406,-47.072,-36.185,-41.396,-19.006,165.11,-50.437,-65.161
3.0153349999995953,-26.14,-47.389,-58.232,-41.956,-234.851,37.032,-32.509,-53.0,-35.732,-17.039,-32.983,-30.875,-45.681,-21.589,53.527,-37.864,-55.16,-23.22,-42.697,-9.465,12.272,-50.894,-46.0,-37.686,-41.355,-20.011,167.507,-55.51,-66.12
3.030261899999914,-22.528,-46.829,-49.977,-41.402,-243.325,39.045,-25.304,-52.947,-34.159,-14.46,-24.753,-27.77,-42.05,-24.641,61.158,-31.166,-51.519,-19.611,-33.945,-5.87,13.797,-39.06,-42.881,-29.964,-35.678,-17.942,173.999,-46.233,-54.784
3.0463135999998485,-19.432,-44.733,-45.317,-45.459,-242.057,38.493,-28.353,-58.529,-32.588,-12.397,-26.778,-27.743,-40.471,-24.616,62.121,-27.549,-50.955,-19.591,-33.399,-6.889,17.881,-35.947,-39.252,-27.884,-28.983,-16.9,168.19,-35.941,-46.02
3.046374300000025,-21.974,-44.688,-51.931,-39.778,-236.692,37.942,-59.063,-58.471,-38.191,-12.384,-29.312,-28.227,-44.016,-23.055,56.936,-30.083,-55.515,-23.158,-34.902,-7.906,19.401,-41.546,-39.212,-29.393,-34.589,-16.37,159.312,-42.052,-49.047
3.0602642999997443,-21.952,-46.181,-53.416,-37.689,-239.529,40.978,-63.102,-65.072,-44.301,-16.983,-26.721,-28.711,-46.022,-23.544,58.928,-29.541,-53.922,-21.598,-30.769,-5.337,13.233,-37.918,-38.661,-24.241,-38.653,-12.256,161.202,-43.035,-46.949
3.060321699999804,-13.733,-38.962,-42.092,-39.701,-239.29,51.183,-35.887,-61.933,-33.498,-10.306,-20.547,-20.486,-38.803,-18.397,66.042,-22.339,-44.135,-14.404,-24.591,2.353,15.782,-29.684,-30.425,-17.557,-28.88,-4.559,172.312,-31.721,-36.144
3.0753336999996463,-8.084,-31.239,-33.341,-31.464,-234.952,56.255,-31.24,-42.916,-16.046,6.098,-10.793,-10.219,-28.518,-11.719,72.636,-13.607,-42.554,-13.365,-20.98,7.986,24.475,-27.605,-24.247,-18.564,-26.29,-3.017,178.8,-28.615,-32.009
3.075397499999781,-7.051,-30.695,-34.332,-21.187,-236.254,52.101,-39.406,-39.799,-17.567,7.629,-6.683,-9.696,-26.953,-12.732,74.612,-8.47,-45.072,-15.913,-17.885,7.978,24.451,-25.528,-26.272,-17.521,-32.924,-8.65,177.084,-33.198,-36.076
3.0893474999998034,-3.458,-28.103,-34.81,-21.165,-233.456,54.61,-32.707,-44.37,-19.598,4.035,-7.189,-6.613,-26.926,-9.645,73.513,-2.827,-36.83,-10.262,-13.769,10.532,28.012,-20.892,-21.635,-10.843,-27.768,-4.542,175.882,-29.578,-32.966
3.0894140000000334,-2.43,-25.513,-32.726,-27.292,-224.513,56.092,-27.551,-36.129,-11.894,7.618,-6.157,0.054,-22.288,-3.488,73.44,3.324,-32.183,-5.128,-11.193,16.669,32.083,-18.309,-14.441,-7.758,-21.08,2.122,179.805,-22.889,-27.297
3.1045515999999225,-3.452,-26.0,-33.718,-28.289,-221.727,51.425,-33.159,-38.654,-15.468,6.073,-6.151,-2.508,-21.754,-6.046,73.878,0.759,-35.737,-7.685,-12.719,14.603,24.878,-20.34,-19.55,-12.874,-21.059,-4.028,186.797,-20.304,-28.807
3.1046182000000044,7.31,-15.215,-30.61,-16.478,-216.383,59.571,-29.027,-45.788,-17.502,7.604,-1.534,-0.456,-20.707,-6.552,77.391,-0.779,-29.553,-0.505,-11.169,11.515,25.878,-19.295,-21.067,-12.861,-13.353,-4.024,196.857,-9.525,-25.704
3.11940979999963,19.598,4.267,-19.821,-0.067,-205.92,73.344,-3.895,-33.959,-6.214,15.793,9.738,8.766,-13.514,0.627,87.56,10.493,-20.302,12.303,-3.986,18.163,36.098,-6.468,-9.263,-0.04,-5.143,9.3,203.832,12.001,-12.871
3.119488199999978,17.529,7.337,-12.629,3.006,-199.566,72.246,10.966,-25.728,-9.282,15.265,8.704,5.683,-16.062,-1.423,90.033,12.019,-25.917,11.267,-4.494,20.706,30.427,-1.851,-6.692,6.107,-8.211,10.316,200.554,24.284,-8.759
3.1344105999996827,10.339,-3.429,-15.69,-4.681,-200.391,71.661,-7.488,-27.752,-14.908,13.201,-1.551,-4.056,-25.268,-10.131,79.697,-5.411,-34.601,3.571,-11.662,11.977,22.712,-14.144,-15.395,-4.145,-11.277,-0.965,192.669,22.723,-18.485
3.1344725999997536,11.866,-3.425,-17.724,-6.213,-206.851,78.762,-18.751,-19.015,-4.647,18.823,-1.55,-5.077,-21.144,-9.609,76.031,-12.066,-32.517,7.666,-9.601,10.94,26.275,-18.229,-16.404,-8.239,-9.729,-1.989,192.989,27.824,-20.003
3.149460899999667,20.051,7.337,-7.46,6.6,-208.693,79.708,3.297,-10.287,1.506,21.878,5.112,-2.51,-13.951,-3.964,83.64,-1.807,-28.898,14.318,0.142,20.663,29.323,-5.915,-9.215,2.528,-7.158,3.648,197.919,41.116,-7.175
3.1495326999997815,27.203,11.428,1.257,18.889,-197.726,83.214,14.052,-10.789,4.578,23.393,9.205,3.128,-17.523,-0.374,86.118,3.317,-27.845,15.328,2.191,23.716,33.392,-0.786,-5.108,7.136,-5.101,8.255,197.209,46.71,-2.557
3.1648725000000013,28.713,9.367,-6.941,9.649,-189.332,92.352,1.742,-16.413,11.234,29.517,11.758,6.711,-15.968,-1.398,85.007,4.339,-29.866,17.874,0.652,18.057,38.482,-0.273,-6.639,5.592,-7.658,12.858,195.987,44.614,-10.752
3.1649373999998716,26.123,7.821,-17.181,-1.632,-194.778,90.211,-1.846,-21.52,3.025,28.975,9.184,3.63,-10.829,-4.47,85.947,5.359,-34.959,18.881,3.213,15.99,34.345,2.801,-8.17,7.635,-8.675,11.82,198.865,44.569,-14.839
3.1795036999997137,26.096,5.764,-13.577,6.055,-198.169,81.411,2.767,-14.838,-6.199,21.774,6.101,6.188,-14.917,-3.954,84.836,5.866,-35.437,16.813,7.308,21.097,32.774,3.311,-5.6,8.652,-3.031,8.222,197.129,49.648,-9.189
3.1795686999998907,25.046,0.635,-6.904,6.561,-194.897,80.818,3.789,-10.213,1.492,21.752,8.657,11.305,-16.951,0.149,84.751,9.959,-27.717,22.944,9.863,25.174,38.888,3.307,0.553,12.23,0.046,9.239,187.198,50.623,-4.569
3.1946069999999054,18.361,-0.39,-5.36,-3.692,-197.776,82.786,1.736,-20.449,5.076,26.341,6.599,6.171,-15.397,-1.388,88.765,11.998,-23.078,30.606,8.828,21.563,34.239,3.304,1.065,17.853,-2.003,8.717,181.375,44.425,-3.54
3.209556099999645,16.293,6.27,-2.793,6.046,-201.677,85.777,-5.951,-20.941,1.485,26.827,0.957,-0.496,-18.968,-4.461,84.578,2.252,-26.641,28.013,5.233,18.98,27.032,0.739,-1.497,13.224,-1.489,6.659,182.219,43.356,-3.024
3.209625199999664,21.4,11.899,0.284,16.286,-199.426,88.253,-6.457,-13.747,1.484,22.702,-2.118,-6.643,-23.048,-6.505,78.346,-5.947,-30.201,22.862,2.154,17.936,29.567,1.251,-2.521,7.576,2.099,9.727,182.549,54.071,-1.997
3.2245904999999766,25.989,14.449,4.382,9.097,-196.153,83.554,0.722,-18.857,-0.567,20.63,-4.165,-11.759,-25.074,-11.622,81.853,-3.892,-29.658,24.889,4.713,15.357,30.05,4.836,-2.518,13.204,6.708,14.84,184.415,60.677,4.665
3.224649999999656,31.086,21.094,10.525,15.748,-192.37,83.47,-3.377,-11.153,0.97,26.757,1.475,-4.575,-23.512,-10.073,88.432,3.284,-26.555,31.012,11.369,19.952,31.044,8.417,1.583,19.85,9.262,17.387,190.379,62.665,15.932
3.239615599999979,35.154,24.659,11.539,29.565,-189.104,92.608,-3.886,-0.384,6.092,33.903,11.719,6.188,-16.316,-2.379,87.831,11.99,-24.479,33.03,15.968,29.154,36.136,10.97,9.778,19.831,6.692,18.394,192.238,65.676,15.403
3.2396826999997757,32.045,16.438,-0.768,21.851,-193.013,91.491,2.265,-18.826,-1.598,31.307,9.658,4.132,-15.787,-5.963,86.718,12.49,-28.041,25.824,9.292,21.952,33.026,5.836,0.547,15.2,2.074,12.74,184.361,56.389,1.556
3.2545885999998063,25.865,8.224,-13.062,11.07,-199.993,85.764,-13.618,-27.004,-6.207,28.714,5.55,3.104,-18.845,-12.104,86.119,4.793,-34.16,17.089,-3.525,11.684,24.796,-5.441,-18.921,3.914,-5.613,1.457,171.369,38.914,-11.766
3.2564744999999675,22.253,5.655,-16.123,4.399,-202.354,90.289,-31.536,-8.022,1.483,34.321,8.106,6.687,-10.63,-5.432,84.496,3.764,-33.614,16.048,-6.595,17.82,21.698,-9.534,-20.439,-7.873,-15.853,-3.156,158.902,29.141,-19.439
3.2696679999999105,16.083,-5.109,-18.156,-13.536,-206.25,86.101,-15.623,-13.649,-1.08,29.676,1.438,1.557,-10.107,-3.89,80.826,2.736,-32.043,19.105,-2.49,17.802,16.04,-10.036,-14.783,-12.988,-21.473,-2.128,149.009,21.94,-25.567
3.269746699999814,6.333,-17.4,-25.31,-23.256,-213.729,68.596,3.861,-36.177,-15.423,14.789,-9.834,-7.154,-23.929,-11.571,74.085,-8.538,-35.597,17.037,-6.586,4.977,9.364,-14.125,-20.916,-15.024,-22.476,-4.687,148.348,16.795,-31.177
3.2846717999996144,2.228,-15.333,-29.896,-14.524,-211.978,59.818,-5.365,-32.043,-17.969,12.725,-11.874,-10.221,-24.93,-11.559,69.912,-12.628,-41.197,13.946,-12.727,4.459,5.769,-14.111,-23.969,-12.96,-26.039,-7.756,151.273,16.778,-32.683
3.2847413999998025,8.374,-5.584,-25.255,-8.874,-202.032,65.906,-21.753,-16.641,-6.681,19.885,-8.788,-9.186,-18.757,-10.523,73.429,-5.955,-40.131,17.006,-8.616,10.603,4.739,-8.461,-17.285,-6.8,-22.94,-3.65,151.122,19.323,-23.941
3.300052399999913,21.173,2.619,-9.861,-4.767,-195.682,77.623,-13.534,-6.379,3.572,26.013,-0.07,-1.492,-18.226,-8.975,83.601,3.785,-29.333,29.797,3.176,14.691,12.931,1.281,-7.534,3.453,-7.547,6.087,161.729,33.136,-7.523
3.3001196000000164,29.861,11.837,5.006,6.509,-193.438,89.841,10.558,1.825,6.13,33.671,8.64,7.731,-11.035,1.28,94.788,15.564,-21.619,38.989,12.394,27.484,23.164,11.014,3.232,11.647,4.243,12.741,180.523,47.96,2.218
3.314699799999744,24.708,7.727,-2.171,5.478,-195.806,91.288,13.109,-0.739,1.001,34.662,5.557,6.699,-7.95,1.279,92.644,15.548,-28.769,30.753,9.308,28.993,14.944,7.417,0.155,5.488,-3.446,7.605,176.756,35.616,-3.932
3.316410199999609,14.95,-7.65,-20.1,-8.36,-203.807,82.488,-3.298,-8.935,-2.074,27.968,-0.084,1.057,-17.164,-11.53,80.256,3.237,-35.913,19.963,-3.509,15.132,0.584,-4.886,-15.215,-5.276,-17.274,-3.161,160.698,18.675,-15.198
3.3297029999998813,17.496,-7.13,-18.03,-5.278,-208.214,83.942,-4.832,-7.901,0.49,31.013,2.99,0.543,-16.122,-9.47,81.713,5.796,-33.316,20.456,-4.53,17.678,2.633,-6.418,-15.199,-0.148,-16.745,-3.67,167.197,25.316,-13.646
3.3297677999998996,23.114,3.123,-7.766,5.998,-205.956,89.493,-4.315,-6.869,5.1,37.642,6.061,4.641,-5.86,0.274,90.853,13.987,-32.258,21.46,1.622,24.32,5.704,-2.313,-9.037,2.414,-6.994,0.432,177.276,29.901,-4.923
3.3448200999996516,18.993,-0.466,-11.345,-0.668,-202.164,85.306,-16.094,-14.034,9.706,34.019,6.055,9.76,-7.903,-3.825,86.664,6.8,-33.25,20.414,-1.454,16.099,-0.962,-4.36,-14.151,-6.81,-8.012,-1.617,170.439,26.285,-6.968
3.344883099999606,19.486,-2.515,-13.383,-9.889,-200.937,83.171,-5.831,-19.655,6.11,31.423,8.098,11.287,-10.457,-3.309,85.552,9.355,-27.069,29.615,1.622,18.645,0.576,-0.258,-10.55,-1.168,-11.078,0.433,170.269,32.407,-11.059
3.359736899999916,27.663,5.685,-9.271,-4.243,-203.298,85.649,13.642,-12.464,-6.704,29.342,10.651,9.739,-6.86,3.867,93.151,20.617,-23.456,38.295,12.379,28.872,4.162,6.915,-2.855,10.616,-4.407,6.581,176.246,35.448,-6.95
3.3598048999997445,22.0,2.605,-16.434,-3.214,-205.144,76.854,-0.716,-4.766,-13.357,19.067,6.03,3.069,-14.538,-6.383,86.911,9.325,-32.142,30.572,3.657,17.572,-9.162,-0.776,-11.049,2.409,-5.427,1.963,164.287,27.216,-8.992
3.3748045999996066,5.584,-8.156,-25.127,-13.457,-204.939,67.556,-19.159,-17.569,-10.27,8.802,-6.271,-11.279,-26.307,-19.185,74.016,-12.201,-42.868,17.221,-14.79,3.723,-25.547,-17.17,-21.284,-10.914,-19.766,-9.309,147.729,21.553,-19.229
3.3899438999997074,4.042,-7.635,-21.003,-13.956,-208.32,67.489,-7.356,-31.896,-11.797,7.256,-15.999,-22.026,-28.33,-16.092,71.38,-17.312,-43.337,14.13,-15.8,2.694,-25.521,-21.763,-20.751,-8.854,-24.357,-10.325,145.019,21.532,-19.722
3.390016999999716,18.382,3.643,-7.662,1.427,-200.939,75.106,9.557,-11.372,-7.174,15.958,-9.323,-13.807,-24.203,-7.879,75.92,-9.098,-33.048,24.362,-4.513,9.864,-11.664,-8.934,-10.484,8.061,-13.574,-1.093,156.657,35.342,-3.821
3.404963299999963,36.295,20.546,12.838,20.381,-173.586,93.986,19.282,19.89,14.35,32.336,11.691,3.113,-14.445,1.351,90.188,7.305,-23.793,36.121,6.762,23.174,0.643,10.543,6.945,27.521,-0.753,13.765,176.993,58.361,15.651
3.405030799999622,44.455,25.648,20.51,24.971,-160.605,104.65,14.651,18.333,18.434,37.939,21.925,5.671,-9.307,3.911,98.807,13.958,-26.843,33.523,8.805,27.249,-0.382,13.606,5.401,23.395,4.883,18.875,182.964,56.766,14.61
3.420187299999725,35.702,12.815,0.509,11.626,-176.326,92.763,-6.88,9.093,-0.027,28.679,13.194,-0.482,-14.933,-9.925,90.512,7.796,-38.087,21.194,0.087,19.025,-10.115,-0.24,-14.072,1.855,-0.757,7.073,169.461,36.729,-4.36
3.4202549999999974,37.715,11.777,-7.688,8.541,-177.686,90.108,-0.726,18.818,4.583,30.188,18.816,11.302,-9.283,-9.915,95.032,19.572,-36.0,24.247,8.284,28.228,-2.421,5.908,-8.422,7.488,-6.392,6.041,170.828,44.889,-3.331
3.434904099999585,56.633,28.159,11.787,19.803,-159.066,100.777,32.063,18.287,25.583,46.551,40.827,34.856,9.682,11.099,113.892,46.704,-15.472,47.789,31.329,48.179,15.513,31.005,14.64,30.535,3.349,25.503,188.076,65.849,16.14
3.4349711999998362,52.478,22.496,10.751,12.611,-159.419,97.09,31.519,1.875,18.898,47.017,39.761,39.432,10.697,15.699,110.192,51.268,-6.747,60.549,30.785,46.082,12.936,30.974,12.576,27.43,14.104,27.526,187.375,57.074,9.464
3.4499344999999266,33.982,1.981,-11.801,-6.869,-171.555,87.259,-0.788,-1.201,6.584,33.65,23.84,26.073,0.44,3.9,97.787,36.36,-21.085,46.143,14.873,32.204,-3.983,12.5,-3.83,9.984,2.819,8.031,172.843,36.012,-11.038
3.4499964999999975,33.436,0.442,-15.888,-7.375,-173.945,89.733,-4.886,3.923,13.749,31.567,23.816,19.899,1.976,2.872,97.689,26.59,-27.211,32.265,10.248,28.073,-11.152,7.365,-9.974,4.851,-15.627,3.925,167.035,31.365,-10.514
3.4649602999998024,34.94,4.54,-10.237,-3.269,-175.308,93.742,2.803,0.333,19.883,37.171,27.891,21.416,2.999,8.504,97.591,26.051,-17.963,37.356,8.7,29.069,-9.604,5.821,-14.063,2.797,-20.735,10.581,168.917,32.871,-7.942
3.4650298999999904,30.806,-0.587,-13.3,-8.389,-178.206,92.624,-5.909,-1.204,12.691,34.06,22.228,19.346,-2.127,4.909,95.957,27.562,-19.482,36.806,3.569,28.528,-10.619,0.692,-17.635,-2.841,-19.689,3.91,169.773,29.252,-14.082
3.4799339999999575,31.8,-5.71,-13.799,-8.38,-179.565,86.383,-4.366,1.871,1.92,24.804,17.082,15.228,-6.224,-2.78,95.861,20.874,-30.733,22.425,-0.021,23.889,-18.293,-1.358,-20.691,-8.474,-24.793,-3.266,164.48,19.489,-17.654
3.4800218000000314,27.157,-10.315,-16.347,-6.323,-182.972,81.686,2.811,3.406,-0.131,24.267,16.041,15.213,-10.828,-3.29,89.617,13.169,-32.751,19.841,-5.657,20.279,-23.91,-6.48,-25.281,-13.076,-32.452,-2.751,158.168,11.272,-24.809
3.49496709999994,28.155,-6.718,-18.892,-4.267,-175.104,89.289,-2.315,10.063,16.263,35.001,21.66,22.37,-5.694,2.861,92.089,21.865,-26.059,30.067,-5.139,28.968,-17.226,-4.424,-22.694,-7.427,-31.908,-2.236,164.67,15.872,-26.833
3.4950315999999475,42.984,6.096,-9.14,5.983,-159.56,97.397,3.323,18.25,29.054,42.139,29.835,27.983,6.607,5.932,103.268,32.089,-22.446,31.574,5.113,36.623,-9.012,8.9,-10.889,4.875,-21.117,6.476,174.751,23.541,-15.023
3.5100141999996595,42.428,6.602,-2.983,10.076,-155.814,93.201,15.102,14.133,19.291,35.437,27.756,23.856,1.99,4.902,102.652,28.983,-22.424,30.518,11.768,33.513,-7.466,16.576,0.393,11.018,-15.973,18.253,170.991,22.492,-13.984
3.5100746999996773,37.263,1.985,-7.591,5.967,-153.609,90.546,6.378,7.971,17.735,34.377,27.216,23.832,-5.185,8.483,98.451,31.516,-20.352,39.196,16.367,37.578,-3.36,20.658,7.565,15.106,-17.494,19.259,165.184,23.494,-21.654
3.5249816999998984,49.521,11.204,-1.435,13.646,-141.672,94.554,-4.387,15.648,27.963,42.027,38.972,35.079,4.554,11.036,102.451,41.731,-14.184,44.793,22.498,46.249,1.767,29.859,11.144,19.189,-10.817,20.264,170.142,31.156,-11.899
3.525048699999843,51.008,14.779,6.763,18.243,-136.92,91.898,-0.284,21.267,20.763,38.399,42.007,40.167,5.574,8.464,103.886,43.226,-12.633,43.723,25.037,43.642,0.228,32.903,12.669,19.17,-0.56,25.367,173.046,34.711,0.409
3.5410840999998072,39.687,8.617,2.658,10.028,-141.906,85.658,8.426,12.537,8.959,32.725,33.768,35.004,-3.14,9.992,105.319,41.646,-14.67,46.241,24.5,42.061,-0.797,29.796,15.731,19.663,-0.047,23.805,168.262,34.676,-1.641
3.5411511999996037,41.696,9.121,0.606,5.407,-139.203,87.622,17.126,5.352,11.512,36.278,31.685,32.92,0.961,13.568,105.213,40.067,-15.167,45.683,20.889,44.068,-1.821,28.229,15.203,24.766,-4.145,21.732,166.557,33.617,-4.713
3.5550273999997444,42.679,8.599,-1.444,5.402,-135.989,91.633,11.474,9.957,13.55,34.705,30.629,31.862,3.522,8.944,99.473,30.293,-18.226,37.952,11.647,36.34,-7.454,23.59,9.04,22.692,-9.776,20.685,164.853,28.46,-6.245
3.5550960999999006,34.952,3.98,-10.152,5.908,-142.001,90.516,-8.518,15.071,14.048,30.06,28.549,28.757,-4.166,2.787,97.836,26.164,-22.819,33.304,7.024,31.18,-12.058,16.907,3.908,12.936,-21.037,13.492,159.053,22.796,-10.85
3.5700274999999237,35.941,2.951,-11.166,9.489,-149.031,84.278,-4.923,10.445,15.059,33.103,30.569,31.289,-2.625,4.321,97.226,31.261,-22.796,34.295,8.042,37.809,-9.484,15.865,1.342,9.849,-28.189,11.43,159.919,19.187,-13.913
3.5700910999998996,35.905,1.924,-7.569,9.992,-149.907,77.534,10.451,2.237,10.433,32.558,29.002,32.283,2.5,7.391,90.469,30.205,-23.285,35.285,8.034,38.796,-8.45,17.898,0.316,14.962,-27.136,17.054,162.833,18.143,-13.899
3.5849921999997605,29.21,0.897,-11.147,5.371,-145.659,77.456,-3.391,2.235,11.96,27.915,26.411,28.664,-1.601,6.359,91.403,30.175,-24.287,36.787,12.124,35.171,-11.003,21.467,6.976,20.07,-21.986,20.11,160.62,19.662,-10.299
3.6000976000000264,29.693,1.408,-13.698,0.242,-140.39,80.965,-16.708,6.844,16.558,30.961,29.459,28.636,-2.624,4.303,95.923,35.78,-18.115,41.361,16.21,39.234,-10.48,22.47,11.58,21.075,-19.914,21.627,159.435,21.179,-8.239
3.600164799999675,31.712,0.382,-13.684,-6.418,-141.274,80.884,1.239,6.325,9.882,30.417,28.917,30.144,-1.596,8.91,94.29,32.158,-13.998,45.418,13.633,39.195,-9.957,20.398,9.006,16.443,-26.042,21.606,160.3,19.109,-13.867
3.6150698999999804,30.656,0.894,-15.207,-3.85,-145.231,79.266,9.947,6.83,7.31,25.776,24.277,29.089,-4.669,11.462,94.195,25.466,-19.619,44.348,13.107,33.008,-11.484,20.378,4.899,10.279,-28.578,16.461,157.066,14.991,-15.39
3.6151504999997996,27.551,-3.205,-17.754,0.765,-148.16,77.138,-9.53,6.824,16.012,25.75,24.765,29.572,-2.615,2.742,95.126,27.49,-22.161,40.717,12.581,34.0,-8.911,16.771,-3.303,7.195,-22.914,11.834,154.86,6.779,-17.423
3.6301196999997956,20.864,-15.497,-21.834,-12.556,-155.696,71.938,-16.181,-0.868,10.361,22.138,21.155,26.981,-3.637,0.177,88.883,25.413,-18.041,38.115,5.396,34.99,-8.902,10.607,-8.935,5.138,-24.94,11.31,157.267,-1.424,-29.189
3.6319392000000335,21.355,-14.969,-21.813,-19.204,-157.078,69.304,0.229,-0.867,-1.432,16.993,17.035,24.905,-9.781,9.399,89.306,21.802,-18.023,37.565,4.879,32.394,-11.455,17.768,-0.217,10.256,-27.477,12.323,157.109,0.626,-28.135
3.6451038999998673,29.531,-4.196,-13.594,-2.278,-144.113,74.87,2.278,6.819,5.741,23.124,25.727,30.003,-6.697,8.877,96.902,29.465,-19.542,38.039,12.558,36.46,-6.32,26.972,8.493,21.005,-16.178,17.434,155.928,6.773,-14.275
3.6451853999997184,27.964,-5.216,-14.605,0.286,-139.87,78.381,-18.729,-1.897,9.834,23.101,26.214,28.436,-4.129,-0.353,98.854,29.947,-22.596,34.415,8.447,37.448,-4.265,18.748,2.337,16.373,-16.675,21.002,153.722,4.205,-18.871
3.6605482999998458,20.252,-13.408,-23.299,-16.621,-159.198,70.106,-23.321,-16.24,-5.033,8.221,11.843,17.649,-12.834,-0.353,93.632,15.061,-27.184,28.745,0.242,29.214,-15.531,11.045,-5.35,2.524,-34.076,14.834,148.958,-0.41,-28.074
3.6606121999998322,20.232,-10.833,-17.128,-17.117,-165.187,63.888,-10.49,-13.662,-8.614,5.139,10.806,15.07,-14.358,1.697,89.952,11.972,-26.645,28.717,2.291,27.647,-15.516,15.132,-4.833,3.034,-35.067,10.208,146.76,1.128,-20.874
3.6751244999995833,23.285,-3.138,-8.402,-5.316,-141.455,68.948,-18.676,-8.526,5.739,16.404,22.066,21.203,-8.196,1.183,90.375,19.644,-21.495,33.299,6.387,31.718,-7.303,15.629,-5.34,4.055,-32.47,12.759,145.076,2.151,-19.316
3.6751900999997815,24.286,-2.11,-14.541,0.324,-126.969,69.391,-32.49,-9.029,7.783,16.9,22.557,22.718,-10.237,2.206,91.309,17.063,-21.473,33.778,2.795,28.613,-12.419,13.052,-9.433,-3.121,-44.221,13.771,140.833,0.612,-24.42
3.6902275999996164,25.287,-4.669,-18.113,-2.75,-134.015,61.125,-14.526,-9.533,-0.934,10.736,17.411,19.11,-12.276,0.155,88.656,14.485,-22.989,29.645,-1.819,24.486,-17.53,14.064,-11.473,-0.044,-43.152,12.221,142.741,5.222,-21.321
3.691951499999959,20.651,-3.64,-18.607,-12.993,-135.93,62.088,1.37,-11.572,1.116,11.75,15.857,14.992,-10.215,-1.895,86.518,16.007,-25.527,25.005,-3.354,24.461,-14.95,9.439,-12.999,2.005,-34.912,10.159,145.16,6.241,-21.812
3.7052708999999595,14.995,-4.149,-27.298,-14.517,-135.282,67.149,-11.952,-11.049,7.263,10.713,13.792,14.465,-12.254,-2.405,87.456,8.819,-32.162,20.369,-6.937,21.875,-18.522,3.282,-18.621,-8.243,-43.586,6.05,139.892,-3.499,-30.5
3.705338899999788,13.955,-9.78,-28.295,-5.281,-148.466,65.033,-16.038,-6.939,4.181,5.067,13.265,16.499,-12.754,-5.989,86.857,4.711,-33.154,18.812,-9.491,20.829,-20.04,1.742,-20.139,-8.235,-45.08,2.971,141.801,-12.204,-32.006
3.7202735999999277,13.429,-9.258,-17.508,-5.276,-154.978,63.431,-6.288,-8.981,0.079,4.55,12.74,12.385,-12.229,-7.52,83.184,10.342,-29.023,22.379,-5.383,24.906,-13.36,4.301,-13.971,2.02,-30.69,7.578,147.807,-6.557,-24.802
3.720343899999989,13.415,0.485,-11.855,-3.734,-145.089,63.88,-8.844,-7.948,-1.458,7.107,9.141,7.761,-17.339,-5.463,82.076,5.721,-28.481,22.357,-3.329,25.394,-13.347,9.933,-7.297,6.116,-21.95,13.718,140.999,5.233,-16.58
3.735257399999682,15.964,6.12,-8.77,9.078,-139.309,63.303,-8.835,-0.767,-4.018,7.1,7.595,7.754,-18.859,-6.482,84.555,-4.019,-29.99,16.699,-8.961,19.733,-15.895,11.46,-6.778,10.209,-16.293,12.68,137.272,11.375,-11.44
3.7353204999999434,15.435,4.065,-6.712,7.532,-140.194,68.363,2.957,-2.304,-2.477,8.117,9.637,4.672,-16.791,-5.964,84.983,-2.99,-28.935,15.146,-10.489,17.664,-15.367,5.813,-10.87,12.248,-17.301,9.594,141.745,6.241,-11.429
3.7503342999998495,11.321,-1.575,-13.877,-3.746,-139.029,71.881,-2.169,-8.449,1.624,9.134,8.09,1.081,-20.36,-2.884,83.873,-4.524,-27.882,17.18,-12.528,18.159,-20.474,0.172,-19.568,-1.085,-35.214,6.51,134.944,-4.011,-18.078
3.7520352999999886,6.187,-10.795,-25.134,-8.353,-141.964,63.1,-19.073,-9.977,-2.989,6.051,3.983,2.617,-21.877,-5.955,82.253,-10.667,-28.878,12.552,-21.737,13.53,-25.065,-7.001,-29.282,-15.94,-47.987,-1.693,123.026,-14.766,-29.843
3.765308399999867,2.082,-17.956,-30.745,-19.616,-151.556,52.791,-18.029,-13.554,-10.158,-0.103,-0.119,2.102,-16.22,-7.486,80.121,-6.558,-31.923,6.904,-22.227,10.955,-23.503,-10.58,-32.327,-16.437,-49.476,-8.352,121.878,-23.973,-40.059
3.7653700999999273,5.666,-15.377,-31.738,-24.719,-151.404,52.738,-7.253,-15.077,-9.636,-0.615,0.393,2.612,-15.691,-1.33,80.553,-1.428,-30.867,10.995,-10.934,17.604,-19.381,-2.373,-24.098,-6.687,-50.451,-1.171,123.805,-21.9,-39.507
3.780307300000004,16.419,-4.091,-25.047,-5.739,-137.42,60.882,-5.196,-9.939,-2.966,6.045,10.639,11.831,-14.138,3.282,87.645,3.696,-20.59,20.206,-3.751,23.221,-8.603,8.901,-12.29,5.616,-40.667,12.663,129.317,-7.533,-28.196
3.7947206999997434,17.94,2.061,-17.849,2.463,-131.135,66.969,-7.24,-11.466,-0.914,11.675,16.776,18.479,-8.489,4.303,92.68,13.426,-11.348,24.284,-1.186,25.247,-0.91,15.039,-9.204,9.196,-29.355,16.236,136.36,-1.378,-20.996
3.794789000000037,6.139,-7.162,-20.393,-17.007,-143.812,59.73,-8.77,-21.188,-10.134,2.441,5.489,12.313,-13.604,4.299,85.928,11.876,-14.923,20.674,-2.721,24.198,-9.106,12.463,-14.318,2.015,-34.961,9.56,130.076,-12.135,-25.586
3.809391699999651,-3.089,-18.938,-25.496,-24.674,-155.963,47.887,-15.933,-25.778,-16.784,-10.369,-4.763,4.616,-24.861,2.245,78.669,0.593,-19.006,15.018,-9.379,21.612,-15.757,4.253,-13.279,-1.574,-40.562,5.452,121.236,-20.832,-31.195
3.8094538999998804,-4.111,-19.432,-23.933,-12.354,-155.295,48.864,-28.213,-25.24,-11.644,-6.772,-1.172,2.562,-23.299,1.731,76.029,0.593,-13.864,16.54,-10.906,20.053,-13.692,0.151,-14.29,-3.109,-39.497,0.836,122.14,-26.447,-31.676
3.8244080999998005,-11.791,-26.072,-27.495,-16.44,-158.726,48.302,-33.308,-29.313,-15.219,-6.765,-5.269,-1.026,-21.226,0.704,67.756,-0.945,-14.875,14.474,-14.481,13.886,-22.899,-4.46,-29.645,-18.475,-50.728,-12.485,115.358,-42.814,-37.792
3.8244793999997455,-22.538,-41.415,-36.177,-41.015,-174.961,36.471,-28.664,-35.944,-32.11,-21.616,-17.559,-11.271,-31.451,-8.518,60.004,-18.875,-27.668,-1.422,-29.324,3.113,-34.147,-18.288,-41.399,-32.289,-63.997,-23.744,104.996,-59.165,-47.489
3.839449699999932,-20.978,-38.3,-36.141,-42.511,-178.372,35.922,-28.123,-34.883,-32.59,-20.569,-16.005,-16.896,-35.006,-12.096,61.481,-26.028,-32.763,-9.618,-33.905,1.573,-28.99,-21.344,-34.185,-27.646,-62.908,-18.597,109.502,-52.958,-46.929
3.839507799999865,-14.297,-25.966,-34.056,-26.074,-161.288,45.108,-33.73,-33.824,-17.188,-8.253,-7.792,-11.243,-25.749,-4.911,65.006,-17.293,-28.119,-4.997,-23.113,5.158,-23.326,-12.101,-27.491,-20.446,-59.772,-9.357,114.516,-40.61,-43.296
3.854494999999588,-13.258,-26.965,-38.632,-31.171,-149.856,45.575,-28.573,-36.351,-14.097,-12.856,-8.297,-5.597,-22.138,-3.369,66.477,-14.202,-27.067,-3.455,-20.528,6.177,-24.839,-11.064,-30.025,-19.913,-62.786,-9.86,110.815,-42.618,-46.326
3.854558300000008,-9.147,-26.938,-41.155,-35.751,-154.317,48.091,-18.811,-32.729,-19.206,-14.38,-6.239,-3.029,-22.115,-3.878,68.46,-10.601,-22.941,-2.94,-19.995,11.806,-18.667,-9.004,-25.384,-14.77,-65.285,-9.337,116.339,-45.65,-48.329
3.869393399999808,-6.064,-22.813,-45.213,-23.932,-161.335,52.654,-25.964,-31.671,-18.675,-6.169,-3.159,0.047,-19.019,1.249,68.904,-2.906,-16.258,1.674,-17.926,15.893,-15.574,-6.946,-24.334,-16.292,-68.293,-6.254,121.346,-44.579,-50.33
3.869452099999762,-15.279,-35.085,-57.975,-38.765,-167.833,43.379,-44.894,-44.447,-24.804,-15.896,-10.84,-5.076,-24.636,-2.339,63.2,-9.563,-20.34,-4.475,-29.179,7.68,-24.268,-21.796,-40.704,-31.645,-72.323,-18.031,111.491,-52.732,-61.038
3.8845149999997375,-22.436,-48.882,-65.602,-64.854,-170.739,33.09,-48.435,-50.038,-35.025,-25.614,-16.977,-11.218,-33.32,-8.996,58.526,-16.726,-25.443,-12.668,-36.322,3.574,-26.805,-29.458,-48.348,-34.687,-71.226,-26.21,102.67,-62.413,-67.125
3.884579599999597,-16.266,-40.124,-59.901,-53.006,-165.446,37.668,-31.48,-42.816,-29.355,-16.879,-12.862,-5.572,-27.652,-3.352,64.615,-9.025,-17.221,-7.532,-26.552,9.718,-20.631,-14.572,-33.442,-19.796,-64.495,-14.401,108.203,-55.178,-59.373
3.899483799999871,-12.664,-28.813,-56.255,-38.096,-161.182,44.802,-26.838,-43.798,-22.665,-13.276,-11.312,-4.029,-24.55,-2.324,68.649,-9.528,-17.716,-7.524,-23.964,8.684,-21.122,-9.434,-26.237,-12.604,-61.869,-7.726,113.218,-45.901,-52.654
3.8995488999998997,-17.774,-34.932,-57.223,-48.304,-165.631,41.171,-50.377,-50.414,-24.692,-17.874,-17.448,-15.808,-33.747,-13.593,58.846,-25.4,-33.067,-22.374,-34.698,0.991,-27.761,-20.183,-34.92,-19.251,-68.467,-17.965,107.469,-50.466,-54.65
3.91493760000003,-23.904,-39.508,-51.53,-52.354,-173.663,32.421,-55.962,-47.802,-26.204,-20.418,-23.066,-25.526,-37.812,-18.19,49.566,-34.596,-39.694,-33.622,-40.811,-5.67,-33.881,-24.262,-37.959,-25.38,-71.985,-23.07,99.677,-54.514,-52.034
3.9149960999998257,-30.028,-34.858,-41.233,-44.617,-179.124,26.753,-31.316,-44.168,-33.35,-28.082,-28.166,-29.087,-36.749,-17.147,44.906,-41.221,-39.142,-37.687,-41.795,-11.3,-37.433,-26.799,-37.921,-25.867,-70.376,-24.071,97.016,-53.435,-46.859
3.9294795999999224,-36.145,-36.872,-38.63,-41.499,-177.921,24.677,-31.284,-45.661,-43.051,-33.689,-33.261,-34.181,-38.762,-22.765,36.151,-51.426,-45.763,-45.334,-45.852,-15.9,-40.982,-33.944,-46.592,-28.402,-74.404,-32.756,92.308,-59.529,-48.861
3.929537999999866,-37.134,-44.008,-44.739,-45.044,-168.009,24.652,-53.795,-52.275,-38.397,-29.045,-35.79,-36.196,-41.797,-25.816,32.017,-49.838,-47.767,-46.826,-47.855,-16.908,-44.015,-36.984,-53.205,-36.571,-82.527,-35.798,86.068,-69.204,-56.497
3.944560499999625,-31.461,-42.427,-44.694,-48.585,-159.644,27.189,-51.179,-58.883,-32.211,-27.479,-31.655,-31.037,-41.755,-18.106,39.157,-38.005,-34.911,-34.483,-41.66,-9.207,-40.385,-34.386,-50.078,-36.534,-84.493,-28.077,90.593,-71.184,-56.441
3.9597345999995923,-23.233,-37.261,-32.354,-38.29,-152.824,29.211,-38.32,-53.189,-35.252,-27.963,-23.939,-21.784,-36.078,-8.866,47.315,-28.233,-19.507,-21.129,-30.86,2.585,-30.098,-26.667,-44.393,-28.813,-78.261,-21.389,101.261,-68.551,-50.749
3.9597993999996106,-21.16,-42.859,-32.834,-33.641,-148.061,27.645,-40.331,-42.889,-31.119,-24.349,-20.329,-15.615,-29.382,-5.271,49.829,-20.52,-11.803,-16.497,-28.78,5.144,-25.97,-21.517,-44.861,-29.809,-73.572,-20.343,102.696,-70.019,-56.846
3.974700099999609,-23.701,-53.063,-52.269,-55.124,-152.011,23.519,-41.316,-50.531,-25.964,-28.936,-22.87,-16.624,-32.426,-5.266,46.705,-18.451,-13.84,-20.579,-34.386,0.529,-28.505,-25.082,-49.427,-33.365,-81.183,-20.835,97.471,-78.146,-71.646
3.974763699999585,-21.628,-51.473,-59.389,-59.68,-151.859,23.496,-40.25,-58.165,-30.549,-31.468,-22.335,-17.632,-35.468,-1.674,45.122,-17.92,-16.388,-23.12,-31.278,3.09,-24.378,-20.446,-48.353,-25.135,-83.151,-17.74,97.885,-74.482,-71.062
3.9897800999997344,-13.922,-36.564,-47.547,-34.005,-137.362,35.255,-36.623,-39.152,-21.81,-18.117,-14.116,-8.905,-25.186,5.5,54.811,-9.705,-10.736,-16.437,-19.464,10.259,-14.62,-5.568,-36.009,-11.79,-66.162,-9.013,109.571,-44.694,-55.109
3.9898513999996794,-8.272,-23.72,-41.351,-28.848,-131.077,50.589,-25.828,-20.669,-6.418,-7.853,-5.392,-2.236,-17.476,5.494,62.953,-6.109,-9.189,-11.81,-15.858,13.322,-12.556,0.585,-25.727,-4.093,-54.825,-0.807,121.756,-20.058,-42.759
4.004859799999849,-10.826,-20.623,-43.872,-39.577,-137.606,51.051,-29.388,-31.92,-12.047,-12.968,-7.948,-8.381,-21.557,-2.708,56.742,-15.325,-16.352,-17.433,-19.428,9.211,-20.228,-3.514,-30.824,-3.577,-61.43,-0.294,117.536,-16.452,-36.056
4.006618499999604,-14.913,-19.577,-41.266,-33.39,-137.469,44.852,-37.556,-43.158,-18.695,-16.541,-14.088,-16.058,-23.073,-3.218,51.562,-21.969,-16.848,-18.44,-17.36,4.591,-23.282,-3.511,-34.379,-8.184,-61.881,-5.417,108.709,-8.751,-28.335
4.019704599999841,-14.898,-18.533,-35.077,-28.746,-134.257,49.93,-26.76,-29.795,-7.406,-12.426,-11.0,-13.992,-21.001,0.884,54.072,-20.923,-13.757,-11.25,-14.781,5.098,-18.136,-1.458,-29.734,-9.713,-52.085,-8.486,115.773,1.504,-21.647
4.019768499999827,-17.445,-23.125,-31.456,-34.352,-140.783,53.979,-23.659,-27.204,-8.935,-14.975,-12.526,-12.441,-23.029,-0.142,51.457,-22.951,-16.817,-12.263,-16.815,5.093,-19.654,-6.58,-32.778,-12.265,-53.57,-13.088,121.293,-5.157,-24.187
4.034729999999854,-21.526,-25.151,-31.424,-36.367,-143.716,46.24,-37.98,-48.181,-23.783,-22.645,-22.76,-17.552,-25.055,-0.142,46.794,-23.953,-16.8,-15.325,-17.823,-0.547,-24.758,-13.745,-36.844,-16.863,-64.275,-17.686,112.462,-8.738,-30.823
4.034806199999821,-16.381,-18.466,-29.856,-32.745,-131.789,42.608,-35.381,-48.133,-18.637,-19.036,-17.102,-11.899,-20.419,3.957,49.821,-15.219,-9.611,-4.038,-13.194,1.503,-17.561,-7.072,-29.123,-11.723,-65.748,-13.569,111.837,0.492,-31.816
4.050716699999612,-7.144,-12.812,-24.703,-22.466,-120.387,50.25,-22.538,-25.543,-6.835,-6.722,-3.765,0.408,-15.276,7.027,53.87,-5.47,-4.478,3.138,-10.62,9.186,-9.859,2.669,-24.995,-8.125,-60.559,-6.896,122.484,1.004,-31.272
4.05078659999981,-6.112,-13.824,-23.654,-14.759,-119.242,57.372,-21.491,-22.444,-6.316,-2.616,-7.347,-1.641,-14.236,5.995,52.279,-9.051,-5.499,-7.624,-17.781,6.103,-17.021,-10.141,-36.241,-20.413,-66.134,-13.037,121.337,-3.608,-38.926
4.064751499999602,-5.081,-13.298,-27.216,-21.404,-119.123,60.901,-21.469,-31.131,1.888,-2.614,-7.34,-6.763,-12.172,1.378,49.665,-15.702,-12.665,-17.35,-26.473,0.973,-21.615,-24.476,-46.963,-26.028,-76.826,-21.22,115.58,1.006,-42.473
4.06669329999977,0.559,-12.772,-27.701,-24.969,-114.393,60.328,-17.349,-23.415,11.619,4.561,2.402,-1.633,-4.475,1.377,51.665,-15.174,-18.288,-17.845,-25.934,4.046,-16.47,-16.766,-46.916,-19.342,-72.138,-18.638,118.026,6.128,-34.746
4.07967299999973,-3.027,-17.37,-29.211,-23.407,-116.84,56.681,-15.795,-16.219,2.386,3.532,-6.822,-6.242,-6.52,2.4,51.101,-20.282,-15.708,-18.339,-27.445,0.968,-21.577,-16.75,-46.357,-21.371,-64.894,-17.594,115.347,4.585,-30.613
4.079738499999621,-12.758,-23.501,-33.792,-34.654,-131.068,57.649,-16.804,-18.765,-6.325,-7.742,-22.185,-20.068,-17.272,-1.188,44.39,-35.119,-14.668,-19.858,-35.614,-7.742,-32.826,-31.59,-47.847,-25.449,-72.001,-21.675,108.059,0.482,-31.607
4.094704599999659,-10.184,-22.453,-32.222,-41.28,-134.01,61.177,-24.472,-13.111,2.39,-5.173,-16.527,-18.511,-14.181,0.862,44.858,-37.645,-16.703,-17.277,-34.042,-5.685,-31.256,-26.947,-44.726,-20.812,-69.88,-18.068,113.586,-0.031,-24.403
4.094766199999867,-0.952,-18.332,-30.652,-33.041,-124.655,59.067,-24.447,-11.048,6.486,3.029,-8.826,-9.783,-6.482,10.595,52.498,-26.849,-10.026,-11.624,-24.274,-0.044,-20.979,-13.601,-41.095,-21.816,-59.564,-13.951,120.645,2.019,-20.792
