Timestamp,Cz,Fz,Fp1,F3,C1,C3,T7,C5,CP5,CP3,CP1,P1,P3,O1,CPz,Pz,Oz,O2,P4,P2,CP2,CP4,CP6,C6,T8,C4,C2,F4,Fp2
0.0,-32.606,-54.489,-310.91,-60.577,203.504,-43.371,-74.019,-33.799,-24.05,-10.169,-32.47,-23.716,4.026,1.858,-48.047,-27.069,-13.696,3.135,-28.597,-19.931,25.937,-31.315,-22.961,-50.01,-90.882,-19.873,-86.857,-100.322,-259.024
0.014619800000218675,-19.254,-43.676,-301.377,-52.32,217.646,-32.569,-77.531,-23.007,-16.853,0.088,-19.118,-13.959,7.608,3.906,-38.778,-13.722,-6.51,8.255,-23.445,-17.349,35.645,-26.673,-11.668,-35.103,-79.008,-12.169,-78.061,-88.439,-243.908
0.014684499999930267,-7.964,-32.874,-294.416,-38.947,233.822,-24.339,-69.257,-12.738,-7.615,11.871,-6.291,-5.236,14.261,8.513,-31.566,-1.925,-1.38,13.37,-16.25,-9.647,43.294,-18.449,-2.434,-23.797,-66.633,-3.447,-72.347,-79.129,-231.881
0.02960399999983565,-7.956,-25.669,-292.072,-36.347,238.711,-21.753,-67.138,-14.775,-6.07,8.785,-7.821,-1.644,15.271,10.041,-31.535,-1.411,-5.99,12.332,-14.696,-6.051,43.763,-16.894,-2.432,-25.31,-68.104,-6.005,-81.496,-78.025,-233.186
0.03151290000005247,-11.021,-31.791,-294.342,-41.946,234.374,-22.756,-70.657,-20.395,-11.187,2.629,-8.326,-4.716,10.133,5.933,-33.553,-2.434,-5.472,14.881,-14.682,-8.095,41.67,-18.926,-2.429,-26.822,-70.085,-12.659,-108.567,-84.095,-237.563
0.044694000000163214,-12.547,-39.443,-299.17,-39.855,231.066,-27.344,-73.148,-22.424,-15.275,2.114,-9.342,-9.322,6.536,2.853,-35.056,-2.944,-0.855,18.965,-10.569,-6.037,41.628,-16.346,1.671,-23.721,-69.502,-9.573,-140.734,-86.06,-234.764
0.044760499999938475,-13.559,-34.281,-301.433,-35.716,227.761,-29.878,-79.735,-28.037,-16.284,-2.499,-15.481,-8.801,6.018,3.875,-36.046,-3.965,-3.416,17.409,-8.509,-5.007,42.611,-14.28,3.207,-22.673,-73.019,-7.002,-145.204,-80.851,-232.48
0.05970549999983632,-9.96,-29.124,-297.545,-35.681,229.582,-22.676,-82.729,-28.009,-13.194,0.065,-9.83,-5.206,8.573,3.358,-28.325,-1.912,-6.999,17.904,-7.988,-6.538,42.569,-13.753,2.691,-20.601,-71.921,-8.019,-123.03,-76.672,-229.174
0.059771700000055716,-7.388,-29.607,-290.075,-35.645,234.988,-14.969,-79.06,-22.346,-10.619,9.799,0.426,-3.151,11.638,3.355,-21.124,4.238,-8.016,16.861,-5.418,-2.433,45.6,-10.153,3.201,-16.994,-68.263,-2.376,-115.734,-75.058,-222.797
0.0746420999998918,-11.479,-31.626,-290.298,-37.658,229.118,-18.028,-78.981,-29.495,-15.219,4.666,-3.16,-1.099,12.651,3.352,-25.202,6.795,-9.033,12.233,-7.462,-0.894,49.14,-9.631,4.734,-15.44,-70.757,-0.324,-118.18,-76.008,-225.136
0.07470169999987775,-11.468,-35.693,-293.593,-39.158,222.229,-24.67,-77.878,-39.2,-19.302,-0.462,-6.231,-0.073,12.126,3.348,-28.763,5.251,-5.95,12.221,-10.016,-4.992,42.944,-11.671,6.267,-14.4,-68.637,-4.422,-105.767,-79.005,-229.009
0.08965660000012576,-7.87,-35.145,-284.591,-32.971,229.691,-23.108,-70.627,-27.89,-11.086,10.297,-2.639,0.439,10.577,7.443,-24.635,6.27,-3.895,14.771,-5.908,-3.45,39.314,-9.097,8.31,-10.799,-59.346,-1.344,-99.001,-75.34,-216.485
0.09137220000002344,-10.936,-29.987,-275.084,-24.741,232.535,-17.45,-62.872,-10.956,-1.854,10.799,-4.685,-0.586,12.104,8.461,-24.098,6.777,-5.428,16.293,-8.463,-1.909,41.324,-7.551,7.789,-8.739,-56.213,0.706,-105.049,-71.167,-210.633
0.10473150000007081,-18.098,-34.568,-281.982,-30.352,225.13,-16.92,-55.637,-10.945,-5.438,1.054,-10.828,-7.758,13.629,3.329,-31.247,-2.452,-6.959,14.227,-20.238,-10.104,32.574,-17.79,-1.44,-17.44,-65.891,-8.004,-102.895,-78.78,-226.816
0.10479820000000473,-20.641,-43.242,-292.97,-40.055,225.93,-20.489,-55.069,-16.057,-10.043,2.59,-12.354,-12.361,10.029,1.789,-34.289,-8.597,-10.539,8.065,-21.755,-12.656,23.32,-25.457,-8.611,-27.156,-79.657,-13.631,-101.255,-91.509,-238.372
0.11976559999993697,-15.497,-39.101,-293.19,-33.867,234.413,-18.932,-59.625,-13.479,-5.422,6.686,-8.244,-5.176,10.531,3.836,-29.644,1.658,-15.651,6.008,-12.512,-6.495,31.493,-17.234,-2.455,-25.592,-82.651,-8.494,-104.228,-93.467,-232.499
0.11983020000025135,-8.822,-33.426,-289.823,-26.149,235.203,-13.277,-58.028,-10.904,-5.929,2.581,-3.112,-2.097,13.082,-0.778,-27.565,6.267,-17.172,7.539,-14.548,-8.026,30.437,-13.119,0.109,-25.054,-80.007,-6.437,-102.587,-90.812,-231.754
0.13511280000011539,-14.961,-42.102,-292.607,-38.418,225.234,-18.9,-56.946,-18.578,-16.169,-2.033,-13.355,-13.366,5.897,-4.876,-37.272,-7.572,-19.205,2.921,-26.829,-18.264,9.402,-27.45,-13.211,-35.275,-89.149,-17.701,-107.607,-101.992,-242.281
0.1351767999999538,-29.29,-53.331,-295.9,-49.651,216.812,-28.614,-63.036,-25.732,-21.276,-8.178,-26.662,-22.574,-2.306,-4.871,-44.407,-19.86,-21.235,-3.23,-31.413,-23.881,2.22,-38.181,-22.932,-45.999,-102.892,-28.442,-118.258,-119.308,-249.211
0.14974389999997584,-29.261,-51.74,-293.555,-40.892,219.157,-25.0,-66.047,-25.194,-19.206,-11.756,-22.024,-19.99,0.258,-8.452,-39.751,-17.79,-18.652,-4.764,-30.357,-21.808,6.829,-34.045,-20.859,-46.977,-103.814,-24.315,-116.091,-120.726,-246.4
0.15146580000009635,-22.059,-42.979,-290.7,-37.777,223.036,-19.852,-67.006,-25.169,-21.236,-9.183,-18.416,-19.97,-1.279,-9.469,-37.662,-14.699,-14.535,-6.808,-31.351,-19.225,1.699,-31.961,-21.863,-42.319,-100.124,-16.606,-112.388,-109.846,-240.006
0.1648393999998916,-24.599,-39.863,-292.459,-43.887,221.276,-24.955,-68.476,-29.754,-25.313,-11.735,-27.107,-24.561,-8.451,-4.336,-42.748,-15.196,-14.008,-5.777,-30.808,-20.742,-0.352,-32.442,-21.841,-37.666,-96.437,-15.565,-113.301,-100.515,-231.056
0.16490269999985685,-22.525,-37.261,-289.092,-36.671,224.129,-24.93,-63.284,-29.724,-23.751,-15.822,-24.518,-22.999,-3.831,-2.795,-41.168,-13.132,-13.481,0.377,-26.166,-19.185,3.747,-24.212,-10.036,-29.432,-88.144,-8.889,-104.478,-89.144,-223.141
0.17990450000024794,-11.744,-28.002,-274.459,-23.314,232.101,-16.708,-60.147,-23.547,-19.116,-9.146,-16.809,-18.878,2.32,-1.255,-36.004,-9.02,-10.394,6.012,-19.48,-13.018,1.182,-15.479,-0.805,-19.668,-78.834,-1.195,-96.689,-74.71,-215.745
0.17996619999985342,-13.782,-24.901,-267.012,-24.828,229.82,-13.618,-64.698,-19.425,-16.536,-3.502,-22.94,-18.859,-0.244,2.332,-40.066,-9.011,-8.335,8.567,-14.337,-14.542,-3.43,-16.488,-3.878,-21.186,-76.194,-6.317,-99.666,-66.951,-208.87
0.19492170000012266,-20.428,-33.585,-274.429,-33.0,220.881,-16.165,-64.121,-23.504,-16.007,-6.06,-24.966,-19.352,0.269,-1.768,-44.125,-13.101,-12.425,10.096,-14.835,-18.626,-5.476,-17.496,-6.436,-26.8,-77.142,-8.36,-98.542,-64.835,-210.198
0.19500030000017432,-13.747,-35.088,-280.815,-35.528,220.66,-15.637,-59.446,-24.505,-13.942,-5.541,-17.769,-16.771,5.392,-5.353,-36.908,-14.625,-17.535,13.159,-11.747,-11.435,-5.471,-10.819,-0.281,-18.576,-74.504,0.87,-90.759,-57.597,-217.16
0.2099025000002257,-11.684,-27.369,-283.608,-34.468,223.001,-15.621,-53.751,-18.845,-12.391,-2.462,-17.751,-15.73,5.386,0.288,-29.699,-12.049,-15.469,21.855,-4.563,-5.788,-4.441,-4.66,7.403,-11.898,-68.282,3.43,-90.156,-47.806,-215.918
0.2249179999998887,-22.943,-32.464,-292.546,-39.044,216.118,-18.167,-48.574,-19.851,-13.915,-4.509,-20.808,-18.788,3.332,2.337,-34.28,-12.549,-12.379,26.957,-6.607,-9.881,-9.559,-8.242,6.884,-21.62,-71.287,-6.307,-94.164,-49.807,-218.264
0.2249818000000232,-27.019,-46.264,-300.45,-46.69,208.217,-21.223,-49.55,-24.442,-11.34,-6.553,-20.787,-20.306,4.353,-0.227,-40.906,-16.122,-14.928,24.88,-9.674,-12.432,-17.747,-13.869,1.241,-30.819,-81.974,-16.035,-96.631,-61.028,-232.39
0.2399318000002495,-26.48,-48.267,-302.199,-49.717,208.521,-22.739,-50.013,-19.294,-7.742,-4.498,-21.791,-19.774,4.349,-0.227,-39.84,-15.594,-17.475,25.368,-7.616,-11.908,-20.29,-16.929,-1.834,-32.838,-84.966,-21.654,-97.047,-64.553,-236.256
0.23999499999990803,-33.625,-45.657,-306.508,-52.229,206.264,-23.228,-44.84,-19.275,-12.858,-8.079,-26.38,-23.34,1.27,-3.813,-41.85,-18.652,-20.019,23.806,-14.268,-13.945,-27.955,-24.596,-7.467,-37.928,-85.394,-22.145,-99.512,-66.538,-234.483
0.25595430000021224,-38.203,-52.784,-309.275,-59.349,199.91,-25.254,-49.406,-30.527,-18.993,-17.293,-29.939,-26.903,-0.78,-9.957,-45.394,-25.806,-25.634,15.073,-21.426,-17.517,-39.197,-32.769,-17.194,-41.989,-90.944,-24.172,-105.047,-73.132,-245.007
0.25601370000003953,-34.066,-54.268,-306.917,-59.29,199.71,-24.717,-59.09,-28.447,-15.9,-18.3,-25.811,-23.29,1.782,-5.848,-38.689,-20.145,-23.56,15.57,-14.232,-16.475,-38.134,-28.125,-16.152,-40.41,-90.853,-25.684,-101.868,-68.448,-245.786
0.2699557000000823,-26.86,-43.455,-303.023,-49.496,205.145,-20.593,-55.957,-20.222,-10.761,-12.134,-19.637,-19.68,5.367,1.33,-33.015,-8.854,-16.364,23.239,-8.07,-9.798,-31.436,-16.314,-6.402,-34.222,-85.126,-20.023,-88.959,-55.059,-228.634
0.27002130000028046,-21.197,-38.289,-297.085,-46.885,206.477,-16.987,-54.364,-25.324,-12.287,-9.048,-20.13,-18.636,4.337,-1.745,-36.568,-11.919,-17.884,22.703,-9.087,-5.69,-34.478,-14.248,-7.42,-28.04,-83.504,-15.905,-85.796,-50.906,-225.332
0.28495139999995445,-21.176,-42.861,-295.251,-49.4,207.295,-17.994,-64.044,-26.836,-13.299,-9.039,-22.159,-20.154,1.771,-6.867,-38.58,-17.542,-21.453,21.656,-9.078,-10.808,-41.103,-19.87,-13.56,-30.061,-84.445,-24.086,-92.37,-52.904,-231.767
0.2850149999999303,-24.229,-45.38,-302.128,-47.301,207.6,-22.075,-65.517,-22.711,-13.798,-12.616,-22.649,-26.282,-0.28,-4.81,-38.542,-17.525,-19.894,28.294,-11.63,-12.334,-47.21,-24.973,-13.034,-37.715,-85.386,-30.209,-91.253,-55.413,-229.486
0.2999763000002531,-23.18,-44.822,-304.9,-49.816,203.294,-22.565,-61.865,-28.323,-15.834,-17.727,-28.774,-29.842,-2.329,-6.343,-41.065,-23.143,-22.436,27.241,-13.668,-9.247,-53.311,-24.948,-13.534,-37.165,-84.788,-27.105,-87.064,-60.993,-229.256
0.3000424000001658,-22.132,-43.241,-298.96,-53.352,202.579,-18.956,-69.488,-30.857,-17.355,-15.147,-30.795,-28.787,-2.327,-10.435,-38.975,-28.755,-25.487,21.579,-11.093,-12.824,-54.282,-20.312,-11.471,-30.468,-77.018,-23.492,-84.927,-56.321,-230.564
0.314013199999863,-21.085,-37.562,-292.513,-44.077,208.524,-18.937,-71.98,-24.678,-14.264,-11.546,-24.616,-28.758,-0.788,-5.301,-36.374,-24.628,-20.339,26.68,-10.057,-13.836,-53.203,-18.755,-3.775,-28.389,-73.868,-19.882,-77.158,-43.969,-220.087
0.31407880000006116,-11.331,-26.254,-280.437,-27.639,216.512,-16.869,-58.075,-18.506,-8.102,-11.022,-18.956,-21.557,3.312,4.438,-33.776,-16.918,-12.121,36.387,-6.461,-5.113,-54.174,-17.712,-1.722,-26.311,-79.429,-16.276,-66.322,-37.265,-206.547
0.3290004999998928,4.562,-11.37,-258.128,-14.292,230.64,-3.02,-44.697,-2.606,-0.921,0.772,-8.691,-4.117,10.993,8.532,-21.959,-7.68,-5.962,38.913,2.767,-0.497,-48.997,-6.935,-1.208,-20.137,-76.788,-12.674,-56.522,-27.494,-193.021
0.3290631999998368,11.218,-4.699,-244.549,-3.519,242.705,6.205,-43.628,10.205,3.691,14.091,5.15,3.571,16.105,8.011,-14.253,-0.5,-5.956,40.411,5.326,0.016,-43.825,0.756,3.917,-17.043,-73.125,-8.051,-46.732,-17.22,-181.557
0.3440159000001586,8.645,-7.768,-253.526,-2.491,234.778,1.588,-47.171,2.51,6.248,9.979,1.558,-3.092,13.527,5.442,-20.898,-2.549,-15.171,38.321,-1.852,2.065,-49.929,-5.905,1.351,-19.075,-79.712,-5.993,-45.148,-21.814,-184.449
0.34408140000005005,7.099,-9.81,-263.519,-11.197,226.858,-0.976,-47.123,-0.566,7.267,5.358,-7.152,-6.163,10.952,1.338,-22.927,-6.132,-18.742,32.647,-4.411,-1.011,-55.514,-8.973,-3.773,-20.593,-81.682,-7.012,-46.64,-26.915,-191.437
0.35907099999985803,5.555,-10.824,-259.157,-16.822,232.779,0.562,-49.126,7.631,6.747,9.451,-3.559,-6.669,11.966,-1.737,-20.342,-8.175,-15.137,33.127,-2.87,-5.109,-59.045,-7.939,-1.208,-23.646,-81.088,-11.103,-43.007,-25.864,-189.709
0.359139199999845,0.939,-19.011,-258.898,-18.342,231.01,-1.487,-56.249,1.476,4.179,5.343,-5.605,-11.273,9.905,-4.297,-23.908,-12.266,-17.684,32.581,-7.99,-6.128,-67.695,-14.079,-6.33,-29.77,-88.691,-17.24,-46.55,-34.035,-192.08
0.3744218000001638,3.5,-23.602,-268.885,-19.86,229.754,-3.023,-56.705,-3.137,2.638,1.752,-9.698,-10.75,5.284,-5.318,-23.884,-11.229,-20.74,26.401,-9.007,-7.659,-68.652,-13.04,-11.959,-31.277,-91.676,-15.686,-54.7,-42.198,-201.11
0.3744824000000335,11.693,-17.943,-264.006,-16.767,244.381,-1.995,-45.89,9.162,4.684,8.922,0.046,-2.03,7.84,-3.775,-15.663,-0.971,-15.084,32.01,2.273,-1.504,-60.386,-2.268,-0.164,-22.025,-81.338,-7.985,-50.035,-37.545,-200.909
0.38908390000005966,11.169,-16.901,-254.008,-14.188,243.624,-0.456,-36.11,9.665,6.217,8.913,3.12,0.022,12.443,0.327,-14.623,2.616,-10.458,38.638,4.32,5.158,-63.912,-1.754,3.422,-17.392,-78.183,-9.514,-45.374,-39.556,-199.171
0.4041253999998844,0.912,-23.544,-265.537,-22.371,224.425,0.056,-41.709,-3.665,1.6,1.732,-8.666,-8.175,7.82,0.839,-19.219,-6.608,-15.058,24.767,-7.467,-3.044,-75.631,-15.072,-12.463,-28.645,-87.839,-16.677,-52.501,-52.325,-208.706
0.40598769999996875,-4.212,-28.131,-277.567,-35.156,220.102,-1.481,-53.451,-6.735,-0.963,2.242,-11.219,-13.803,2.177,-3.26,-18.688,-12.237,-19.142,18.082,-10.534,-7.652,-78.63,-20.692,-13.987,-37.838,-92.362,-18.71,-55.522,-57.395,-215.157
0.419251499999973,-2.671,-28.103,-270.117,-35.634,226.03,-1.991,-50.323,-2.117,2.111,3.265,-6.597,-9.69,5.249,-1.208,-17.132,-7.614,-16.561,30.872,-4.888,-1.496,-77.014,-13.499,-3.727,-31.653,-87.146,-18.691,-52.393,-53.239,-207.769
0.4193132999998852,-0.107,-26.026,-262.674,-27.913,224.267,-1.477,-39.002,-1.091,1.597,2.749,-5.566,-4.558,11.391,5.453,-19.164,-4.533,-13.983,32.378,-2.834,-3.544,-76.425,-9.9,-6.285,-27.523,-83.985,-15.599,-52.341,-50.625,-200.902
0.4342747999999119,0.918,-24.975,-263.949,-22.762,226.092,-1.988,-42.549,2.497,1.595,8.382,-0.95,-6.09,10.355,0.837,-21.194,-6.065,-18.067,24.661,-1.294,-6.615,-76.348,-11.427,-6.278,-29.544,-84.414,-11.484,-49.215,-48.525,-202.75
0.43434220000017376,1.942,-24.95,-263.172,-20.69,230.477,-0.449,-51.216,5.568,5.18,9.398,0.588,-6.084,6.246,-6.336,-19.124,-7.084,-22.148,26.686,-1.805,-1.485,-78.321,-6.805,3.462,-26.953,-81.256,-11.473,-44.555,-45.915,-203.572
0.4492352000002029,0.403,-25.437,-260.348,-22.207,223.586,-0.449,-49.116,0.439,3.638,2.729,-7.097,-4.541,6.752,-4.281,-17.055,-8.613,-22.638,28.708,-6.414,-3.533,-83.366,-4.749,1.921,-25.389,-79.125,-11.974,-49.121,-45.869,-202.344
0.4492995000000519,-4.208,-26.949,-259.575,-27.82,217.215,-3.01,-49.579,-6.221,-0.464,0.677,-11.188,-7.098,6.233,-3.764,-19.088,-14.24,-24.664,26.118,-5.895,-9.677,-86.356,-11.404,-4.741,-28.95,-81.607,-11.962,-54.195,-47.872,-203.166
0.46416339999996126,-8.303,-29.483,-258.291,-27.28,217.51,-3.519,-58.751,-6.215,0.561,0.676,-9.64,-11.701,1.104,-4.785,-21.118,-17.3,-25.152,27.629,-7.426,-8.13,-89.344,-15.491,-2.687,-27.896,-82.55,-15.024,-54.141,-48.337,-202.963
0.4663447000002634,-9.831,-30.479,-253.422,-21.617,217.805,-5.052,-56.13,-3.647,1.585,-3.423,-11.68,-12.202,1.615,-0.169,-22.634,-14.721,-20.516,28.626,-10.493,-8.122,-93.353,-15.988,-2.172,-23.258,-78.369,-16.546,-54.599,-44.702,-199.174
0.4794016000000738,-10.334,-29.423,-248.558,-19.546,221.173,-7.609,-43.267,0.455,4.145,-0.858,-9.619,-10.653,5.712,0.343,-21.586,-12.145,-18.959,29.622,-3.822,-7.089,-93.26,-12.898,-1.145,-22.722,-74.705,-13.968,-54.032,-40.047,-192.827
0.47947130000011384,-7.25,-26.32,-248.309,-17.477,224.026,-1.966,-44.76,5.578,8.751,4.266,-3.462,-9.105,3.145,-2.219,-15.417,-9.571,-22.526,30.617,0.792,-4.008,-87.019,-5.2,5.004,-22.187,-73.093,-12.417,-47.83,-39.494,-189.048
0.49427509999986796,-4.169,-26.294,-253.184,-17.972,217.654,2.135,-56.499,3.523,6.181,3.237,-5.507,-9.096,1.605,-1.192,-9.766,-9.049,-25.577,27.512,-5.356,-8.103,-87.956,-5.707,1.925,-23.19,-75.069,-11.38,-45.221,-44.066,-196.543
0.49434389999987616,-6.726,-28.317,-254.467,-23.077,214.875,0.083,-57.979,-1.091,3.101,2.209,-5.502,-10.112,5.189,-0.678,-9.244,-12.114,-26.064,30.046,-4.838,-8.607,-93.504,-12.874,-4.224,-26.753,-79.093,-11.368,-48.762,-45.046,-202.494
0.5096383999998579,-8.256,-23.678,-249.602,-19.98,222.857,4.182,-52.286,1.471,4.635,4.256,0.139,-7.54,5.696,0.859,-11.796,-11.59,-23.476,37.701,0.802,-1.938,-91.361,-10.3,0.391,-24.677,-77.989,-10.845,-47.176,-39.366,-195.12
0.5097123999998985,-7.736,-24.166,-249.353,-17.399,220.585,2.641,-55.307,-0.579,-1.517,0.153,-7.033,-10.094,1.08,-0.166,-16.908,-13.115,-26.527,31.516,-5.859,-7.06,-93.831,-9.265,0.39,-24.14,-74.837,-9.809,-47.641,-42.4,-195.437
0.5242499000000862,-12.851,-35.413,-256.788,-32.238,208.069,-12.219,-63.961,-11.85,-11.25,-9.068,-18.81,-21.355,-6.094,-9.9,-22.014,-24.885,-39.308,19.701,-16.099,-15.762,-105.52,-19.502,-9.344,-35.386,-82.447,-14.922,-56.815,-52.092,-208.049
0.5259424000000763,-11.813,-37.427,-261.654,-38.866,210.422,-12.719,-67.483,-11.838,-8.677,-8.547,-15.205,-20.309,-7.112,-15.525,-20.455,-27.421,-43.367,20.706,-15.571,-11.135,-103.878,-19.994,-11.384,-38.425,-90.049,-18.494,-62.394,-51.527,-208.866
0.5393029000001661,-3.605,-29.192,-262.929,-28.069,219.434,-1.436,-67.416,-1.58,-4.57,-0.854,-7.505,-12.092,-0.957,-10.899,-15.824,-13.562,-35.639,24.271,-10.432,-5.489,-93.528,-11.778,-7.786,-29.165,-83.299,-13.864,-68.479,-46.353,-204.046
0.5393720000001849,-5.138,-30.7,-266.765,-30.09,215.628,-6.557,-70.422,-4.652,-7.127,-2.902,-11.596,-14.641,1.093,-10.376,-16.32,-12.011,-34.579,20.661,-11.959,-9.582,-99.07,-16.889,-11.365,-32.209,-82.704,-13.338,-90.44,-55.528,-210.502
0.5543264000002637,-15.379,-39.891,-274.695,-44.404,212.339,-15.772,-75.475,-18.48,-9.681,-12.633,-18.244,-18.213,-3.519,-12.415,-20.402,-23.27,-39.155,19.103,-17.07,-15.207,-108.192,-27.63,-20.063,-49.596,-96.965,-24.083,-106.743,-70.842,-220.538
0.5543953000001238,-19.974,-47.023,-279.544,-48.458,213.151,-15.244,-76.936,-22.047,-10.696,-14.157,-18.738,-16.657,-4.028,-11.89,-24.48,-25.808,-37.579,20.621,-19.102,-19.803,-109.621,-31.701,-28.24,-59.28,-104.041,-32.256,-97.415,-76.918,-228.514
0.5692798999998558,-20.979,-51.587,-278.752,-46.361,208.327,-18.303,-75.835,-16.902,-8.124,-10.045,-16.158,-19.715,-2.487,-15.464,-30.604,-28.344,-40.615,20.6,-20.108,-27.98,-116.684,-34.231,-30.773,-58.196,-99.326,-34.785,-91.682,-76.841,-231.359
0.5843313999998827,-24.544,-52.56,-277.961,-46.827,206.582,-21.871,-76.271,-17.398,-5.554,-14.645,-19.216,-22.256,-7.095,-19.035,-36.208,-34.976,-44.673,21.604,-23.674,-35.124,-121.178,-37.783,-27.156,-57.113,-97.177,-34.751,-99.275,-77.789,-224.468
0.5843975000002501,-23.495,-49.434,-276.658,-47.292,212.01,-18.263,-78.757,-20.454,-10.672,-20.778,-23.295,-23.259,-10.674,-15.43,-34.123,-32.891,-38.993,25.169,-23.138,-31.503,-117.47,-37.745,-25.08,-57.056,-95.543,-33.691,-98.663,-77.711,-220.657
0.5994395000002442,-13.225,-39.65,-264.598,-39.56,216.409,-13.634,-81.752,-12.749,-11.173,-14.61,-17.124,-22.211,-8.614,-11.316,-25.38,-24.149,-35.88,30.779,-15.43,-21.738,-113.255,-28.486,-19.419,-49.314,-85.714,-29.559,-89.855,-70.461,-215.826
0.5995057000000088,-2.454,-24.754,-249.989,-25.176,225.414,-9.521,-85.768,-6.076,-4.502,-8.96,-9.422,-12.455,-5.019,-13.354,-21.768,-17.978,-37.893,36.896,-11.316,-19.155,-106.481,-16.162,-6.592,-35.945,-74.87,-19.283,-83.106,-57.583,-196.655
0.6143489999999474,-0.914,-20.631,-253.325,-24.639,232.361,-9.512,-85.17,-14.779,-9.109,-13.562,-9.413,-8.344,-7.064,-13.853,-22.259,-16.423,-36.831,36.859,-12.329,-20.16,-99.715,-12.047,-4.024,-31.811,-74.283,-11.067,-75.338,-50.353,-192.36
0.6144147999998495,1.136,-24.709,-259.732,-33.323,232.129,-12.064,-76.376,-18.863,-13.71,-10.987,-6.329,-11.922,-8.081,-8.203,-17.626,-11.795,-35.77,38.872,-6.682,-13.992,-98.59,-12.035,-5.557,-32.804,-78.819,-10.544,-67.066,-52.352,-203.438
0.629714199999853,7.795,-21.098,-250.251,-24.068,237.02,-6.929,-72.713,-7.061,-4.475,-3.291,-0.175,-3.713,-0.901,-2.56,-14.534,-2.562,-33.685,49.591,0.497,-8.855,-94.906,-4.339,2.133,-28.672,-76.179,-11.046,-61.363,-51.788,-196.575
0.6297782999999981,8.299,-19.54,-245.902,-15.847,239.857,-2.311,-81.35,-1.931,-2.421,-7.386,-1.2,1.414,3.199,-3.582,-17.081,-2.56,-29.04,50.054,-2.065,-10.895,-90.712,-2.285,1.107,-30.693,-76.615,-10.522,-59.765,-49.687,-189.206
0.6443085999999312,3.168,-25.155,-254.365,-25.565,230.395,-7.432,-83.83,-4.491,-9.079,-13.014,-3.248,-5.248,-2.952,-8.189,-15.527,-9.729,-31.573,43.344,-5.136,-11.909,-95.745,-9.455,-11.19,-38.859,-84.735,-12.561,-62.267,-55.272,-199.775
0.6443681000000652,1.628,-25.13,-255.648,-27.077,226.579,-8.961,-71.451,-4.486,-7.533,-8.903,-3.245,-2.681,-3.462,-7.156,-10.389,-7.158,-33.59,48.936,-2.57,-11.385,-97.698,-11.495,-11.179,-38.82,-83.114,-14.598,-63.741,-61.365,-202.137
0.6594414000001052,-4.009,-28.179,-256.929,-28.587,225.84,-8.44,-67.793,-13.703,-7.525,-12.48,-8.877,-0.629,-0.384,-4.588,-16.526,-7.663,-33.557,50.424,-7.69,-18.546,-98.113,-16.094,-11.68,-39.294,-78.42,-18.169,-65.727,-66.426,-201.422
0.6595130000000609,-15.788,-38.909,-265.894,-41.366,215.368,-17.653,-81.558,-18.813,-13.665,-19.64,-14.503,-11.899,-6.532,-10.218,-29.829,-19.439,-42.745,40.64,-17.929,-27.749,-109.286,-27.861,-23.451,-48.476,-82.44,-25.323,-72.833,-75.069,-207.881
0.674522700000125,-18.334,-36.309,-263.066,-36.201,213.615,-22.759,-84.55,-7.523,-12.115,-17.571,-15.513,-15.986,-10.111,-14.819,-32.361,-21.981,-49.874,38.55,-22.009,-31.307,-116.349,-34.493,-25.477,-49.964,-79.283,-29.396,-76.347,-74.994,-201.525
0.6745897999999215,-19.853,-31.15,-254.094,-27.968,217.5,-20.687,-74.219,-8.028,-10.054,-19.603,-24.207,-16.994,-11.638,-14.804,-31.304,-26.057,-47.775,34.413,-29.159,-34.35,-117.769,-41.119,-22.89,-48.89,-71.007,-33.978,-78.32,-72.358,-196.713
0.6894341000001987,-34.69,-47.512,-264.086,-49.969,205.5,-24.252,-81.317,-20.827,-17.728,-29.317,-35.966,-30.297,-19.823,-19.4,-43.056,-43.45,-51.826,24.132,-38.352,-41.488,-129.434,-52.349,-33.113,-57.038,-75.547,-42.653,-89.512,-87.142,-210.861
0.6894922000001316,-38.241,-56.686,-274.58,-56.579,201.196,-28.839,-88.408,-17.221,-19.76,-31.337,-33.368,-34.365,-20.828,-19.893,-48.648,-43.918,-52.286,29.743,-32.166,-38.372,-131.867,-50.247,-36.154,-57.493,-80.082,-41.073,-91.472,-94.74,-212.699
0.7044933000001947,-25.908,-43.31,-263.547,-35.518,216.364,-25.736,-71.926,-11.056,-16.666,-30.281,-24.626,-26.134,-13.635,-12.701,-36.816,-26.968,-44.037,40.472,-22.912,-25.014,-116.365,-36.877,-26.896,-47.189,-73.854,-31.299,-78.573,-80.813,-199.167
0.7194549999999253,-24.345,-40.705,-254.575,-35.995,217.684,-24.173,-65.194,-16.68,-19.211,-30.251,-25.626,-23.546,-16.183,-14.225,-33.193,-26.941,-46.555,34.796,-26.475,-22.428,-114.2,-32.741,-26.357,-47.142,-73.268,-29.73,-74.908,-78.683,-196.406
0.7212915000000066,-26.37,-49.373,-258.418,-47.23,213.881,-23.125,-81.011,-14.614,-18.679,-23.56,-24.576,-19.937,-16.167,-18.309,-41.357,-27.427,-48.557,34.762,-21.838,-23.43,-116.647,-28.098,-26.331,-47.607,-75.244,-29.701,-77.394,-85.776,-195.185
0.7213454000002457,-14.56,-42.664,-254.574,-36.424,231.085,-16.441,-78.88,-2.816,-9.951,-16.877,-10.719,-8.646,-5.392,-8.045,-34.656,-9.981,-33.652,52.145,-4.398,-9.574,-99.624,-12.701,-11.447,-35.264,-69.534,-19.425,-68.095,-73.907,-191.404
0.7345550999998522,-10.959,-36.473,-250.221,-31.265,242.637,-16.425,-65.994,-4.863,-8.405,-17.372,-4.048,-3.002,-2.313,-0.864,-24.887,0.275,-29.52,55.167,0.217,-3.417,-91.328,-6.028,-5.288,-30.106,-73.05,-13.77,-61.88,-63.587,-195.823
0.7346213000000716,-18.121,-42.585,-258.68,-40.967,235.222,-24.605,-75.662,-19.202,-16.593,-18.379,-12.241,-4.536,-4.872,-9.061,-29.473,-3.823,-40.249,40.255,-7.98,-13.659,-100.458,-14.731,-18.091,-40.834,-88.346,-20.416,-67.966,-73.258,-204.849
0.750630000000001,-12.467,-38.956,-260.983,-39.902,239.598,-19.458,-84.807,-19.183,-15.552,-17.336,-11.716,-3.507,-1.281,-11.101,-28.931,-1.77,-41.745,39.19,-7.459,-12.621,-96.771,-17.278,-22.171,-46.429,-92.356,-17.834,-66.361,-79.332,-207.205
0.7646930999999313,-1.184,-24.572,-246.377,-27.054,251.141,-5.094,-76.013,-2.258,-3.241,-10.659,2.128,4.181,2.306,-4.43,-18.144,4.891,-37.605,47.348,-2.329,-4.924,-84.892,-10.088,-12.415,-38.186,-81.506,-8.083,-54.511,-69.519,-195.727
0.7647624000001088,-3.232,-22.499,-239.983,-18.318,251.915,-9.699,-71.327,1.843,-0.676,-7.062,2.638,7.251,1.792,-7.499,-20.687,6.423,-38.592,42.69,-7.45,-7.993,-88.393,-12.127,-10.353,-29.438,-71.69,-13.71,-53.432,-63.302,-182.724
0.7795870999998442,-8.352,-32.722,-248.965,-23.422,219.387,-15.325,-73.817,-13.528,-8.36,-15.252,-9.148,-4.027,-1.284,-15.176,-24.765,-2.805,-41.115,31.888,-15.639,-12.083,-97.014,-21.849,-18.028,-32.995,-74.18,-24.967,-53.379,-72.46,-190.738
0.7813826000001427,-4.245,-40.374,-259.986,-38.256,186.893,17.478,-75.792,-18.638,-5.79,-13.7,-7.089,-12.732,-7.43,-17.21,2.924,-19.196,-50.808,24.684,-17.16,-6.948,-89.232,-29.512,-26.719,-48.331,-87.938,-28.016,-20.538,-90.83,-210.015
0.7946492000000944,15.739,-41.871,-265.874,-45.39,154.43,50.248,-79.815,-11.447,7.023,6.294,8.287,-8.621,-5.886,-24.365,35.709,-25.836,-63.565,16.463,-15.094,8.94,-65.064,-33.581,-33.864,-54.943,-98.097,-30.037,12.271,-100.473,-215.953
0.7947170000002188,37.753,-36.706,-263.559,-36.123,122.001,78.887,-70.001,-6.825,15.213,20.12,19.037,-2.465,3.341,-28.952,61.801,-18.126,-64.013,12.86,-9.444,28.399,-46.044,-26.375,-27.683,-41.056,-89.801,-24.884,45.046,-91.151,-209.077
0.8096473999999034,39.252,-24.374,-250.488,-21.23,154.666,69.587,-53.025,0.354,17.247,20.612,23.629,4.198,6.924,-21.75,54.054,-10.423,-57.289,19.507,-0.213,30.42,-44.461,-9.442,-11.774,-25.645,-76.392,-10.514,22.972,-76.203,-199.646
0.8097139000001334,31.016,-21.788,-245.627,-17.11,187.299,63.369,-57.583,6.502,16.718,21.616,25.654,10.854,5.38,-16.606,46.828,-6.827,-50.572,27.172,4.911,25.266,-44.416,0.301,-4.077,-21.521,-75.291,-4.356,16.801,-77.152,-196.885
0.8245804000002863,33.546,-33.549,-254.602,-25.802,154.837,66.38,-70.845,1.372,13.115,22.107,25.116,9.306,6.912,-17.614,52.929,-6.307,-43.349,26.12,7.98,33.438,-37.2,-0.724,-5.098,-21.5,-77.777,-7.426,31.641,-84.247,-202.323
0.8246416000001773,33.0,-35.565,-255.885,-28.338,168.514,60.166,-71.287,-3.752,11.565,21.06,25.091,7.76,8.442,-14.01,48.778,-3.74,-42.281,26.607,13.607,38.015,-38.187,2.863,-3.043,-20.454,-78.211,-6.906,21.876,-80.577,-201.097
0.8396007999999711,24.258,-27.845,-248.969,-25.236,201.133,48.323,-74.289,-9.384,8.479,15.403,22.505,10.313,8.433,-10.41,35.409,0.875,-44.288,30.166,13.593,28.756,-41.223,7.471,-0.479,-22.482,-82.232,-6.899,8.534,-78.447,-196.797
0.8412741000001915,22.185,-30.378,-253.843,-32.895,195.297,41.102,-82.924,-22.182,0.786,6.679,15.31,5.18,5.351,-10.399,32.812,-1.688,-41.682,29.111,10.506,26.166,-38.62,0.291,-4.577,-28.608,-84.199,-13.552,12.624,-88.102,-204.285
0.8546919000000344,20.625,-33.934,-257.688,-36.961,200.737,33.889,-83.866,-26.258,0.785,3.598,11.196,-0.973,-1.314,-8.34,29.705,-8.346,-38.567,29.082,11.008,26.139,-44.729,-10.98,-11.745,-36.264,-81.553,-20.199,4.927,-93.649,-207.667
0.8547588000001269,15.482,-27.24,-245.135,-24.629,233.324,26.17,-84.294,-18.035,6.932,2.57,11.185,1.077,-3.874,-9.356,18.405,-5.264,-38.016,31.615,9.46,17.916,-48.783,-8.92,-11.221,-35.715,-79.935,-18.641,-7.374,-85.871,-194.651
0.8697609000000739,18.028,-23.114,-233.106,-18.456,265.878,23.582,-79.599,-8.796,10.512,1.543,11.174,2.101,-0.797,-12.42,12.751,-0.135,-34.904,28.509,4.327,14.312,-40.537,-3.276,-3.012,-24.921,-73.707,-12.987,-6.854,-74.514,-183.186
0.8698263000001134,15.96,-23.091,-231.849,-18.95,296.863,17.923,-59.54,-0.59,13.575,6.152,11.163,1.074,-0.796,-10.871,7.615,-4.234,-36.918,21.821,1.761,12.249,-43.058,-9.42,-4.546,-20.797,-65.436,-15.024,-18.118,-70.854,-177.367
0.885053599999992,2.625,-19.994,-232.129,-13.808,329.354,5.098,-47.185,-2.126,12.537,2.047,3.979,-1.488,-4.894,-10.86,-4.688,-11.402,-45.591,17.701,-5.925,-0.059,-55.31,-17.607,-14.788,-25.387,-67.932,-20.132,-39.617,-74.881,-176.165
0.8851153000000522,0.573,-18.95,-231.385,-12.77,354.64,-5.666,-56.359,-8.784,5.352,-6.664,-5.246,-8.659,-7.962,-17.509,-13.392,-16.513,-45.033,14.097,-13.091,-6.207,-54.231,-16.565,-11.699,-24.337,-68.377,-13.452,-46.237,-73.782,-180.6
0.8996925000001283,9.281,-12.783,-225.006,-9.171,387.073,-7.197,-61.938,-1.603,7.908,0.003,1.419,-8.651,-4.368,-12.881,-17.477,-13.935,-37.303,14.595,-8.467,-1.59,-49.566,-12.45,-4.515,-16.116,-59.599,-3.704,-51.826,-63.974,-176.321
0.901520100000198,5.174,-5.086,-217.608,-3.526,419.474,-12.313,-55.729,-1.089,9.949,2.564,7.053,-3.007,1.271,-1.085,-23.608,-7.261,-33.167,18.679,-7.947,-6.199,-55.151,-14.999,-9.121,-14.563,-62.613,-4.213,-65.607,-64.935,-171.021
0.9148153000001003,-3.029,-11.741,-224.563,-14.281,432.374,-30.231,-61.308,-24.142,-7.479,-12.807,-7.299,-8.639,-4.878,-3.133,-31.781,-11.353,-32.622,16.611,-18.185,-14.389,-56.121,-18.058,-12.186,-24.282,-74.846,-6.77,-75.275,-78.19,-182.634
0.914881400000013,-0.464,-18.901,-234.585,-23.488,447.311,-45.058,-77.641,-33.852,-17.718,-19.455,-13.439,-12.216,-11.533,-8.253,-40.971,-15.952,-32.077,13.008,-18.167,-12.838,-50.429,-13.942,-8.076,-26.82,-74.259,-2.153,-85.958,-77.6,-189.111
0.929862299999968,0.561,-10.685,-228.715,-13.219,479.651,-43.988,-80.125,-19.985,-4.38,-11.75,-0.106,-2.47,-3.324,-0.048,-44.004,-3.641,-27.434,18.118,-9.439,-9.751,-46.28,-6.755,-3.969,-16.034,-65.475,3.997,-95.094,-67.788,-176.626
0.9299304999999549,-0.976,-4.015,-220.801,-8.082,511.959,-46.506,-70.311,-12.793,-0.277,-8.153,3.993,2.143,2.314,3.538,-40.373,7.121,-20.747,21.174,-7.893,-10.766,-43.673,-3.675,0.133,-9.358,-61.312,10.653,-96.536,-67.208,-172.864
0.9448099999999613,0.049,-7.084,-224.167,-12.173,542.186,-61.316,-66.654,-14.83,-7.961,-9.169,-3.696,-2.982,-5.372,-0.564,-48.018,2.504,-21.751,19.103,-7.885,-15.366,-43.629,-5.208,3.207,-12.423,-57.152,12.692,-107.71,-69.702,-179.863
0.9448725000002014,-9.685,-10.151,-225.992,-8.575,574.431,-75.6,-68.124,-15.839,-10.003,-14.283,-8.815,-8.102,-8.441,0.974,-68.462,-2.622,-25.827,17.035,-9.414,-26.109,-50.758,-9.814,-0.895,-13.947,-56.07,8.068,-130.144,-69.633,-179.683
0.9597945000000436,-30.68,-16.289,-225.766,-13.689,606.645,-89.869,-71.642,-24.021,-17.165,-27.076,-21.102,-14.754,-9.969,-0.564,-89.91,-8.767,-23.752,12.407,-21.188,-36.842,-57.367,-18.001,-8.066,-18.032,-62.674,0.376,-152.043,-77.76,-182.577
0.9749031999999715,-43.969,-27.031,-230.663,-27.508,629.092,-110.271,-75.157,-27.583,-28.931,-38.32,-37.475,-24.473,-20.206,-7.224,-105.19,-20.029,-22.704,8.809,-27.827,-43.465,-61.408,-24.13,-11.644,-23.137,-64.148,-7.822,-172.895,-87.416,-189.055
0.9749698999999055,-46.486,-32.127,-231.457,-28.505,634.61,-119.895,-68.934,-20.895,-29.927,-41.868,-40.511,-29.06,-27.87,-5.68,-110.72,-23.595,-24.73,9.312,-24.213,-48.545,-65.957,-25.131,-11.632,-21.064,-59.986,-15.498,-182.456,-86.816,-185.792
0.9899224999999205,-51.051,-30.558,-227.639,-23.865,623.217,-115.164,-54.008,-22.923,-30.409,-44.388,-40.983,-32.105,-29.379,-5.674,-112.146,-25.109,-24.193,6.229,-26.75,-51.058,-67.428,-28.692,-13.67,-19.507,-62.999,-20.094,-180.737,-85.705,-182.532
0.9899897000000237,-56.123,-27.454,-224.85,-19.743,619.008,-114.024,-50.88,-25.974,-33.452,-47.417,-44.016,-34.122,-29.862,-6.18,-115.108,-29.182,-22.12,1.612,-31.334,-51.519,-62.75,-34.299,-16.218,-26.659,-71.133,-22.635,-186.192,-86.644,-180.3
1.005325200000243,-50.944,-23.328,-219.502,-11.014,630.684,-115.959,-56.465,-14.678,-27.784,-44.296,-40.385,-28.452,-26.246,4.072,-110.382,-24.03,-15.95,4.172,-27.716,-49.418,-56.54,-32.727,-15.177,-25.608,-71.575,-21.588,-186.518,-83.483,-171.411
1.0053962000001775,-43.208,-22.28,-217.746,-11.515,631.591,-110.208,-57.945,-13.126,-24.17,-37.591,-34.71,-20.739,-23.146,8.679,-104.636,-15.296,-8.25,4.68,-24.615,-44.758,-50.848,-25.522,-12.088,-17.898,-66.38,-17.468,-176.085,-83.4,-172.264
1.019888499999979,-43.677,-26.356,-226.75,-23.287,621.737,-108.561,-59.937,-25.408,-28.756,-38.066,-35.187,-21.231,-20.049,5.084,-107.605,-15.281,-8.241,3.139,-24.078,-43.688,-45.161,-23.96,-7.977,-16.855,-61.19,-15.914,-173.86,-86.39,-183.363
1.019950599999902,-46.195,-28.891,-230.109,-24.288,617.017,-112.551,-61.926,-23.846,-26.678,-40.59,-35.152,-21.722,-14.906,8.152,-105.449,-12.704,-6.184,7.746,-18.418,-42.62,-38.456,-23.424,-3.359,-13.765,-56.006,-14.873,-170.612,-79.132,-181.642
1.034941500000059,-43.075,-27.325,-223.731,-18.629,614.351,-106.291,-55.204,-16.137,-23.065,-36.963,-31.531,-16.065,-13.866,9.169,-96.122,-8.081,-2.591,14.911,-14.302,-36.43,-33.807,-17.765,-3.355,-8.115,-56.462,-10.247,-159.171,-67.269,-173.776
1.035008100000141,-39.958,-26.786,-228.118,-21.172,608.614,-95.938,-50.026,-18.171,-24.067,-33.852,-28.425,-14.512,-14.365,4.549,-97.562,-9.097,-5.15,21.044,-12.75,-34.857,-33.773,-14.673,-3.352,-11.181,-61.017,-9.212,-161.573,-63.616,-178.213
1.0499730000001364,-40.943,-28.808,-236.087,-21.15,603.906,-99.428,-49.463,-17.128,-21.481,-34.843,-27.372,-15.522,-11.789,8.643,-101.563,-7.551,-3.096,27.17,-8.127,-36.359,-30.666,-16.195,-0.275,-11.17,-56.345,-13.814,-163.973,-57.405,-182.133
1.050037699999848,-42.439,-26.218,-232.777,-20.105,598.18,-108.038,-43.266,-15.061,-21.972,-35.833,-29.394,-13.969,-13.826,12.22,-97.363,-7.544,1.518,29.192,-7.094,-35.298,-25.512,-16.692,0.75,-7.573,-52.702,-18.411,-156.124,-43.515,-175.804
1.0649991000000227,-42.396,-22.093,-228.958,-24.695,593.483,-106.906,-37.588,-19.145,-23.487,-37.846,-32.951,-16.005,-15.862,10.671,-97.778,-14.196,-2.582,29.675,-11.698,-37.312,-22.925,-18.724,-1.3,-13.2,-61.871,-23.003,-162.116,-35.787,-171.529
1.0789521000001514,-38.768,-20.534,-231.803,-21.597,591.352,-99.114,-38.062,-16.052,-14.754,-33.197,-29.332,-18.038,-10.723,14.247,-100.754,-15.207,-5.141,30.158,-11.174,-39.836,-18.291,-22.804,-6.934,-18.31,-68.469,-27.079,-168.614,-35.751,-173.919
1.0790107000002536,-35.143,-20.513,-236.694,-15.94,584.101,-96.453,-38.024,-10.4,-11.666,-26.504,-23.667,-15.458,-10.2,15.769,-96.043,-11.093,-3.599,26.029,-7.576,-36.722,-13.662,-21.244,-11.538,-16.243,-67.889,-28.076,-154.101,-36.227,-177.332
1.07905430000028,-36.645,-22.542,-237.995,-23.096,569.685,-100.968,-42.597,-19.611,-21.9,-33.65,-26.205,-16.467,-14.288,8.581,-89.287,-13.131,-8.719,20.368,-8.081,-35.148,-11.599,-18.149,-7.428,-16.227,-71.407,-27.024,-146.774,-34.142,-178.179
1.0940859000002092,-35.583,-25.081,-235.707,-29.733,560.918,-102.404,-53.313,-27.789,-22.903,-41.813,-31.302,-18.5,-13.761,4.987,-87.661,-11.581,-14.345,15.225,-4.999,-33.064,-5.44,-17.619,-1.273,-13.649,-70.823,-25.972,-150.214,-30.009,-173.902
1.0941489000001638,-33.498,-24.031,-237.521,-26.63,557.796,-98.203,-54.797,-24.687,-18.782,-37.161,-29.221,-14.383,-15.284,2.932,-91.159,-7.983,-14.843,11.111,0.641,-26.371,0.713,-14.527,0.265,-8.512,-65.117,-26.971,-145.965,-27.418,-171.167
1.1090471000002253,-36.539,-25.544,-246.505,-31.214,549.553,-100.154,-48.082,-24.15,-24.398,-34.562,-26.631,-12.832,-15.782,-0.144,-94.142,-8.488,-13.291,14.174,1.665,-25.32,-0.312,-11.951,4.876,-10.553,-65.052,-31.042,-143.77,-27.39,-177.656
1.1091129000001274,-38.039,-32.179,-254.455,-39.892,539.782,-104.152,-50.595,-27.2,-24.374,-36.577,-26.092,-11.794,-11.155,6.516,-90.974,-6.43,-8.155,21.844,2.176,-25.807,0.2,-13.476,7.945,-11.567,-66.011,-33.573,-146.187,-27.875,-184.65
1.1244479000001775,-33.903,-32.147,-255.225,-38.827,539.242,-94.826,-58.741,-23.074,-15.64,-29.88,-20.43,-2.561,-8.07,13.682,-86.272,-1.813,-2.511,25.408,5.76,-20.146,4.299,-12.438,4.351,-7.969,-64.409,-32.002,-139.894,-30.921,-185.49
1.1245096000002377,-27.721,-24.43,-250.872,-32.641,537.678,-78.85,-55.097,-16.391,-9.989,-21.653,-12.725,1.028,-3.963,14.693,-79.526,-2.836,0.565,26.92,5.754,-18.589,4.807,-10.889,4.347,-10.523,-67.93,-26.847,-130.532,-32.94,-183.255
1.1390986000001249,-20.521,-18.77,-249.596,-27.997,528.432,-73.136,-45.308,-12.276,-6.393,-19.07,-14.762,-6.658,-0.373,14.678,-69.712,-7.956,2.101,27.405,-0.912,-20.619,6.339,-16.513,3.318,-15.123,-69.399,-20.673,-121.692,-32.907,-182.56
1.1391641000000163,-19.988,-16.702,-257.031,-28.994,521.755,-75.624,-43.725,-12.264,-5.874,-20.588,-21.919,-12.287,-7.033,10.052,-70.155,-18.706,-3.024,18.669,-7.571,-23.673,5.82,-24.181,-8.981,-19.206,-70.867,-21.164,-116.96,-36.972,-190.062
1.154146800000035,-25.091,-19.247,-258.823,-34.6,518.672,-77.086,-47.78,-15.838,-12.529,-27.74,-25.483,-17.398,-12.661,2.87,-78.794,-29.958,-12.755,5.842,-13.199,-32.358,-1.358,-29.28,-16.657,-23.286,-76.431,-28.828,-123.503,-38.985,-194.483
1.1692355999998654,-24.554,-20.765,-246.782,-32.004,510.469,-79.058,-49.269,-18.896,-15.59,-33.86,-25.97,-23.528,-11.624,2.867,-81.789,-29.928,-12.23,0.201,-16.772,-35.912,-2.381,-32.325,-13.566,-22.238,-72.256,-30.336,-125.941,-32.286,-185.579
1.1693017000002328,-24.529,-18.695,-240.899,-26.849,498.688,-82.565,-54.855,-23.488,-16.087,-34.338,-27.994,-22.992,-15.711,4.914,-78.633,-29.386,-8.631,-0.312,-18.804,-31.265,1.72,-34.342,-15.09,-21.191,-66.549,-26.207,-119.667,-32.253,-180.27
1.1840824000000794,-29.628,-20.213,-244.245,-32.97,492.041,-83.507,-59.411,-28.075,-20.169,-36.353,-30.015,-18.871,-15.695,5.421,-75.481,-30.894,-9.647,3.275,-17.248,-31.234,-0.844,-36.356,-17.636,-27.83,-73.655,-27.718,-121.597,-41.443,-187.262
1.184135999999853,-26.012,-21.73,-244.513,-33.962,492.574,-78.813,-54.741,-23.436,-17.587,-35.292,-26.911,-15.266,-9.019,12.075,-73.356,-20.617,-4.002,10.444,-11.596,-28.129,3.256,-31.197,-12.495,-29.851,-77.679,-27.69,-120.963,-42.426,-188.1
1.199126399999841,-16.252,-16.072,-244.268,-25.731,494.13,-71.561,-51.613,-17.777,-8.86,-23.986,-17.662,-5.516,-8.498,16.162,-70.721,-7.276,4.199,14.02,-2.875,-13.244,18.109,-20.92,-7.36,-23.673,-75.04,-20.49,-111.108,-37.26,-183.301
1.199197599999934,-14.187,-15.032,-246.073,-28.266,493.124,-69.953,-51.049,-19.297,-6.802,-17.814,-11.497,0.637,-9.002,13.584,-63.478,-5.732,2.658,13.493,3.788,-8.62,22.702,-16.8,-6.328,-20.576,-81.113,-15.346,-108.948,-38.248,-186.191
1.2142115000001468,-15.197,-21.677,-247.876,-33.874,488.02,-75.006,-48.948,-20.302,-10.382,-23.432,-15.072,-4.487,-5.919,11.521,-59.829,-7.263,-0.419,13.48,4.809,-14.759,19.093,-15.759,-4.272,-23.117,-86.155,-16.356,-109.351,-40.771,-191.128
1.216294199999993,-12.108,-19.606,-248.141,-27.18,485.995,-75.956,-55.047,-19.257,-10.884,-22.384,-16.594,-7.556,-8.475,10.485,-66.429,-5.719,1.118,15.516,5.316,-11.158,23.173,-7.546,-0.682,-21.045,-78.896,-12.241,-99.508,-38.169,-190.425
1.2292692999999417,-4.924,-8.828,-238.159,-16.906,492.682,-69.22,-61.14,-13.602,-3.7,-12.628,-7.356,0.648,-8.466,13.549,-61.752,-2.639,4.191,18.062,9.409,-4.487,30.834,2.195,7.003,-9.24,-67.034,-1.47,-89.675,-28.909,-179.476
1.2293435999999929,2.253,0.403,-222.039,-8.693,502.435,-64.027,-48.271,-4.367,1.426,-11.078,-0.688,7.82,-4.872,19.17,-48.37,2.486,5.212,17.019,10.937,-3.458,34.902,4.242,16.73,2.04,-56.721,3.142,-88.048,-17.097,-162.39
1.2442531000001509,0.202,0.402,-222.329,-10.221,498.346,-63.963,-43.1,-8.974,-6.26,-17.215,-6.835,0.64,-6.916,11.467,-53.445,-3.151,-2.478,7.268,2.729,-7.04,31.793,-4.471,12.103,-2.061,-57.177,-4.546,-87.96,-17.592,-159.154
1.2443174,-11.069,-10.869,-232.353,-23.531,480.942,-66.973,-63.036,-18.186,-14.963,-20.784,-12.976,-9.607,-11.008,-0.328,-67.224,-19.03,-11.185,-2.985,-7.52,-16.767,22.027,-15.738,-2.254,-13.842,-66.341,-14.787,-90.946,-31.919,-172.315
1.260338099999899,-16.693,-21.104,-235.195,-27.605,471.752,-72.029,-73.22,-13.045,-10.849,-22.3,-13.988,-9.085,-10.997,4.795,-65.619,-21.572,-6.563,-1.958,-10.586,-21.361,18.419,-20.845,-8.399,-18.439,-68.836,-17.334,-95.466,-40.596,-178.803
1.2604040000001078,-18.726,-23.645,-238.546,-25.016,469.231,-75.544,-64.437,-18.155,-11.863,-26.888,-19.609,-8.564,-13.035,9.914,-61.968,-16.94,-2.458,-0.419,-12.112,-18.266,17.376,-25.435,-12.489,-23.544,-72.354,-21.415,-100.493,-45.167,-180.673
1.2742332000002534,-28.953,-32.843,-247.529,-39.336,451.343,-81.103,-59.762,-38.629,-26.196,-36.083,-31.373,-20.338,-18.657,-1.367,-69.59,-29.218,-14.239,-8.103,-18.248,-23.883,6.6,-35.143,-23.235,-33.766,-83.04,-29.591,-108.59,-55.88,-189.714
1.2760607999998683,-34.56,-39.982,-248.818,-50.055,434.498,-86.145,-60.727,-38.59,-30.268,-41.17,-37.489,-26.466,-22.225,-6.489,-74.644,-38.411,-18.835,-8.607,-17.205,-27.958,7.106,-35.108,-20.138,-31.171,-81.932,-28.536,-113.092,-55.824,-189.524
1.2892901000000165,-23.767,-27.647,-241.397,-36.173,448.92,-78.887,-65.277,-23.183,-15.893,-30.883,-26.693,-14.656,-15.542,4.276,-65.348,-24.54,-4.984,5.746,-0.794,-14.097,24.517,-17.654,0.886,-14.746,-65.969,-15.7,-106.831,-41.936,-175.502
1.2893601999999191,-14.521,-16.348,-235.52,-23.329,467.939,-68.562,-68.285,-20.086,-7.168,-17.019,-12.322,-4.395,-4.256,10.932,-56.061,-11.708,4.755,12.913,8.941,-4.862,28.591,-7.391,10.619,-5.51,-59.755,-8.0,-98.015,-35.234,-170.204
1.3043179000001146,-17.581,-20.943,-233.748,-26.379,460.811,-71.567,-56.946,-22.115,-11.259,-18.027,-13.846,-6.952,-5.789,7.335,-61.64,-15.795,1.676,7.777,1.247,-10.492,20.878,-14.043,2.412,-10.115,-69.941,-10.553,-98.942,-36.223,-173.107
1.3192417000000205,-16.538,-18.872,-227.879,-29.427,454.203,-74.057,-50.742,-15.433,-10.736,-21.595,-17.931,-6.433,-10.394,6.303,-66.701,-16.803,0.138,9.306,-2.34,-10.482,26.492,-16.078,0.873,-13.179,-71.921,-13.104,-101.404,-30.552,-166.274
1.3193007999998372,-8.837,-6.558,-216.892,-20.688,463.482,-67.323,-61.962,-4.659,-4.065,-15.426,-9.716,0.233,-2.699,12.444,-56.901,-10.639,5.773,13.907,3.297,-3.811,32.614,-8.89,5.995,-12.141,-58.529,-12.067,-93.618,-24.373,-156.374
1.3342969999998786,-9.853,-8.601,-219.749,-15.032,461.482,-67.256,-63.437,-9.265,-7.135,-14.898,-10.731,-4.378,-3.208,11.92,-52.745,-13.19,3.205,5.184,-1.829,-9.443,25.921,-13.492,0.866,-15.715,-57.446,-12.055,-88.402,-26.398,-160.829
1.3343540000000758,-13.942,-17.302,-233.362,-25.775,450.262,-70.775,-55.689,-27.186,-16.862,-24.105,-22.503,-14.619,-16.013,1.149,-60.377,-24.447,-8.581,-6.604,-13.098,-17.118,22.821,-22.7,-8.357,-20.822,-75.319,-16.141,-92.412,-33.544,-170.402
1.3493747000002259,-8.805,-12.673,-231.591,-30.36,453.398,-64.044,-60.756,-22.548,-14.283,-22.031,-15.821,-9.994,-10.361,-2.95,-58.268,-25.96,-8.06,-3.011,-10.011,-11.466,26.385,-20.116,-7.324,-22.851,-80.879,-16.125,-88.221,-37.097,-170.743
1.3494424000000436,-1.624,-7.025,-222.138,-15.986,461.141,-57.832,-63.257,-2.546,-2.998,-12.788,-1.973,-0.25,0.407,6.786,-50.525,-14.663,5.78,6.213,-3.853,-5.306,30.969,-18.046,-4.243,-22.828,-73.626,-12.523,-78.399,-32.961,-167.499
1.3643606000000545,-1.622,-11.117,-224.99,-15.457,457.094,-59.823,-56.021,-7.666,-2.995,-14.824,-5.044,-2.299,-7.278,10.878,-52.011,-11.062,9.361,3.645,-6.411,-9.912,34.012,-21.615,-8.337,-21.78,-75.601,-14.559,-77.808,-31.904,-168.356
1.3644185000002835,-4.694,-12.13,-226.302,-28.762,451.514,-60.788,-55.965,-16.88,-10.164,-20.445,-11.187,-7.932,-13.418,4.207,-55.033,-19.76,-0.382,0.056,-8.966,-11.439,32.441,-21.593,-7.816,-22.271,-80.136,-17.106,-82.341,-34.946,-166.651
1.3797445999998672,-9.3,-12.631,-221.977,-30.27,445.939,-62.264,-60.008,-8.154,-11.691,-22.474,-12.201,-9.461,-12.38,-0.92,-54.466,-25.376,-12.165,1.08,-12.543,-11.428,27.285,-24.645,-7.808,-26.859,-81.081,-14.015,-85.332,-36.448,-165.459
1.3798102000000654,-13.389,-19.278,-226.366,-29.727,437.296,-68.35,-63.534,-16.343,-14.753,-30.136,-17.311,-13.55,-19.028,-3.993,-55.436,-26.888,-22.911,-1.995,-20.215,-17.051,25.721,-31.281,-15.485,-29.394,-83.049,-14.514,-86.784,-38.46,-167.856
1.3943801000000349,-10.302,-15.16,-226.14,-26.624,439.933,-69.306,-63.47,-27.597,-20.374,-35.229,-19.343,-13.024,-20.033,-0.403,-55.38,-24.299,-21.864,0.569,-15.584,-17.547,29.794,-25.614,-13.933,-23.217,-76.306,-15.011,-82.086,-35.348,-161.54
1.3944375000000946,-3.632,-2.85,-215.667,-15.326,449.739,-65.138,-57.771,-13.737,-16.767,-28.533,-13.689,-5.327,-10.279,11.381,-52.764,-13.004,-8.522,15.937,-5.323,-8.82,36.424,-14.83,-1.111,-14.484,-66.496,-6.287,-73.807,-24.042,-149.595
1.409544200000255,-4.653,-6.945,-219.55,-22.483,446.216,-66.098,-64.374,-9.113,-12.14,-26.456,-13.163,-4.809,-9.757,9.832,-52.711,-8.38,-6.977,17.458,-7.879,-5.737,36.388,-16.352,-2.135,-18.568,-71.04,-5.769,-75.271,-24.53,-153.544
1.4096174000001156,-12.333,-16.16,-234.187,-34.244,440.646,-71.155,-90.949,-20.375,-18.275,-33.089,-17.76,-11.977,-18.456,0.601,-55.22,-17.594,-17.216,3.096,-11.97,-10.855,28.667,-25.045,-11.354,-30.333,-82.24,-19.083,-82.88,-41.412,-168.248
1.4244896000000153,-17.956,-16.656,-238.052,-27.55,438.156,-72.621,-98.031,-22.916,-25.429,-36.13,-21.841,-16.063,-22.536,2.65,-57.726,-25.773,-19.248,1.556,-10.933,-14.43,25.564,-30.655,-13.392,-35.938,-87.281,-24.699,-85.359,-52.129,-175.764
1.43947930000013,-23.061,-22.275,-237.301,-38.793,425.423,-73.06,-76.416,-31.602,-27.966,-41.217,-27.967,-20.146,-25.587,0.598,-60.742,-29.333,-20.765,7.19,-15.533,-15.44,25.026,-33.698,-16.452,-38.976,-91.804,-26.211,-88.347,-56.688,-181.736
1.439539699999841,-25.087,-28.4,-240.65,-57.197,419.362,-74.012,-65.069,-36.694,-26.401,-44.25,-27.939,-21.15,-24.537,-7.087,-61.194,-32.378,-25.868,3.084,-16.03,-17.474,22.44,-34.177,-17.461,-43.035,-93.762,-29.259,-91.845,-60.217,-184.628
1.4395816999999624,-19.427,-23.249,-238.873,-37.16,431.238,-68.815,-73.713,-17.701,-17.153,-34.984,-19.714,-13.957,-16.316,-1.445,-58.059,-30.808,-22.768,3.081,-8.329,-16.944,28.053,-27.483,-8.734,-35.308,-85.983,-22.57,-87.655,-56.571,-177.271
1.454484599999887,-13.772,-20.152,-231.974,-21.754,431.831,-64.135,-78.25,-7.438,-11.5,-30.338,-17.645,-10.869,-13.738,3.167,-55.951,-27.191,-18.134,9.226,-5.247,-12.829,34.685,-19.771,-4.627,-21.44,-78.213,-14.863,-81.932,-56.002,-173.508
1.4545449000002009,-12.734,-23.205,-228.668,-35.052,425.252,-66.633,-73.561,-12.553,-14.563,-36.455,-18.14,-12.395,-16.286,-5.033,-56.408,-23.578,-21.19,9.729,-3.192,-9.23,34.138,-16.165,-2.573,-18.857,-75.061,-13.823,-79.8,-57.995,-175.896
1.4695470999999998,-6.573,-14.985,-224.341,-24.771,439.684,-63.492,-66.827,-5.881,-11.986,-32.32,-8.9,-6.235,-12.683,-3.491,-50.204,-15.358,-19.632,10.232,3.471,-4.61,41.788,-9.489,8.701,-12.178,-69.863,-3.563,-72.548,-45.129,-167.523
1.4696171000000504,1.118,-2.162,-219.506,-4.254,448.978,-53.182,-67.273,-6.387,-5.314,-24.091,-3.256,-1.105,-8.06,3.685,-39.395,-5.608,-16.539,14.32,3.98,-2.044,51.993,-2.819,13.815,0.642,-63.645,4.125,-65.816,-34.326,-158.646
1.5296223999998801,-2.469,-4.209,-224.922,-17.057,434.697,-54.666,-77.964,-20.213,-10.432,-29.19,-10.937,-5.203,-12.663,-0.417,-41.917,-8.164,-21.133,11.744,-1.66,-7.165,45.793,-8.452,5.604,-4.482,-66.655,-4.076,-70.873,-43.001,-166.684
1.5296862000000147,-10.664,-12.914,-232.894,-31.385,428.114,-64.345,-85.571,-21.217,-19.131,-37.358,-14.512,-8.784,-18.798,-1.441,-49.56,-17.378,-22.649,6.609,-5.756,-10.744,39.087,-17.665,-0.549,-16.261,-72.224,-6.121,-74.901,-49.105,-170.616
1.529728299999988,-7.067,-10.34,-224.976,-22.132,435.883,-63.256,-82.411,-17.098,-16.55,-36.296,-9.375,-7.75,-17.242,1.634,-43.362,-16.848,-20.064,8.139,-5.751,-6.122,43.146,-13.549,4.062,-9.584,-68.566,-1.504,-70.727,-41.372,-161.736
1.5297694999999294,-0.4,-1.62,-211.943,-10.839,441.082,-56.021,-76.693,-13.494,-12.948,-32.161,-7.316,-7.23,-14.151,-2.466,-41.782,-12.22,-25.167,9.156,-4.72,-6.116,43.103,-7.9,12.255,-2.402,-62.349,-3.552,-70.144,-35.695,-158.501
1.5298087000001033,-4.498,-0.082,-216.342,-13.902,443.715,-59.039,-70.469,-5.284,-15.496,-30.08,-9.87,-10.809,-18.747,-5.538,-54.036,-17.331,-29.241,6.073,-5.74,-11.233,39.986,-13.015,10.706,-9.06,-65.361,-2.011,-74.685,-37.708,-161.928
1.5298471000000973,-9.104,-4.18,-226.884,-25.159,443.271,-63.078,-64.251,-7.84,-15.993,-31.587,-11.397,-14.385,-25.389,-2.458,-52.957,-21.412,-25.625,7.604,-5.734,-8.66,40.459,-14.026,6.084,-11.1,-69.394,1.577,-74.61,-44.331,-167.402
1.5315319999999701,-3.972,-4.688,-224.096,-23.597,441.804,-54.306,-69.822,-9.882,-11.879,-28.993,-9.849,-10.784,-20.753,-1.944,-42.658,-14.219,-22.526,16.818,-1.118,-4.041,39.906,-8.377,10.177,-5.454,-70.349,-2.523,-71.462,-48.385,-174.919
1.5450740999999653,-6.017,-5.196,-216.187,-12.302,438.8,-47.591,-80.511,2.936,-8.793,-22.817,-9.327,-5.65,-15.096,-2.454,-48.763,-13.18,-21.991,17.826,-0.092,-8.135,36.28,-13.492,5.556,-10.059,-76.426,-8.156,-72.927,-51.923,-175.256
1.5451403000001847,-18.307,-11.851,-220.07,-17.925,429.652,-55.741,-83.504,2.421,-13.395,-27.917,-15.465,-9.743,-20.717,-2.451,-56.399,-22.388,-19.408,10.635,-6.752,-14.275,30.096,-23.212,-6.233,-24.394,-78.399,-15.833,-80.539,-63.141,-174.057
1.559670300000107,-19.313,-17.987,-227.534,-30.203,422.05,-62.857,-77.785,-14.488,-17.992,-33.012,-16.474,-9.733,-22.745,-0.912,-51.219,-19.804,-15.29,12.162,-4.184,-14.773,24.943,-21.652,0.946,-28.468,-70.636,-20.94,-83.532,-69.738,-180.03
1.5597318000000087,-13.146,-18.481,-227.819,-28.636,423.165,-59.208,-68.998,-16.523,-14.388,-27.856,-10.823,0.01,-14.013,4.724,-49.119,-9.026,-10.151,19.834,5.042,-8.61,30.041,-15.483,11.703,-20.242,-66.979,-14.771,-80.887,-63.521,-177.801
1.5746447000001353,-18.768,-18.975,-226.566,-31.681,420.18,-56.588,-69.441,-9.846,-11.812,-26.804,-12.861,0.01,-15.024,6.256,-53.681,-10.042,-12.19,14.179,1.963,-8.089,32.572,-15.467,6.568,-16.124,-70.499,-10.658,-83.368,-63.97,-172.5
1.5747031999999308,-25.922,-26.128,-231.463,-42.408,413.613,-57.043,-80.13,-10.349,-17.948,-32.925,-20.02,-11.26,-25.767,-5.533,-54.652,-20.79,-24.986,-0.18,-7.26,-17.815,21.269,-17.501,4.0,-21.743,-72.477,-12.697,-87.383,-71.59,-178.475
1.6346776999998838,-24.871,-30.713,-233.281,-39.291,410.637,-59.035,-80.05,-11.875,-22.029,-35.965,-21.537,-17.909,-27.278,-13.212,-54.085,-28.454,-31.109,-6.327,-9.302,-20.359,17.149,-18.508,6.046,-22.233,-72.917,-10.635,-83.709,-73.568,-180.346
1.6499551000001702,-22.797,-27.608,-225.875,-34.129,407.665,-60.513,-68.187,-12.888,-17.908,-37.979,-21.516,-16.867,-23.665,-10.125,-53.006,-27.401,-24.417,-5.809,-8.781,-12.654,23.28,-19.002,3.478,-17.6,-72.332,-9.087,-77.99,-74.007,-172.481
1.6500147000001562,-21.237,-27.068,-225.649,-37.681,408.794,-59.941,-74.779,-14.412,-16.866,-36.916,-20.982,-14.801,-28.764,-8.578,-52.953,-20.713,-21.831,-4.266,-7.747,-13.154,20.695,-16.421,5.011,-21.169,-72.26,-9.078,-77.4,-75.982,-175.895
1.65005710000014,-22.753,-28.066,-239.768,-37.643,409.923,-63.467,-94.172,-21.058,-20.947,-35.855,-19.424,-17.347,-34.883,-10.106,-56.486,-22.742,-22.322,-3.237,-9.277,-18.776,13.502,-17.429,4.494,-26.271,-76.798,-9.069,-79.884,-78.98,-186.99
1.6500961000001553,-26.316,-23.427,-242.09,-29.921,404.39,-69.039,-98.176,-32.307,-26.562,-42.991,-23.503,-21.428,-33.312,-5.485,-57.454,-31.428,-17.689,-2.209,-13.878,-17.732,12.976,-20.998,-1.658,-24.708,-79.795,-13.158,-82.366,-80.438,-183.729
1.6501346000000012,-22.704,-20.33,-224.429,-29.379,402.448,-67.945,-87.319,-32.275,-29.097,-44.997,-27.066,-18.333,-30.717,-0.357,-53.811,-27.811,-13.573,-1.182,-12.84,-17.715,11.939,-20.465,-1.144,-24.171,-76.129,-14.682,-79.209,-73.697,-172.787
1.6652177999999367,-18.583,-21.334,-220.107,-37.034,401.534,-66.852,-83.646,-25.07,-28.043,-40.342,-22.94,-15.241,-32.223,0.156,-53.245,-22.66,-12.535,-2.718,-12.314,-19.746,11.414,-21.981,-1.655,-25.171,-73.492,-11.081,-74.519,-67.988,-170.052
1.6652790000002824,-18.564,-15.677,-228.083,-33.923,401.132,-63.712,-92.784,-24.533,-24.941,-39.789,-19.331,-18.812,-32.703,0.668,-53.704,-29.297,-12.01,-4.765,-17.425,-17.165,13.452,-25.033,-4.727,-20.023,-73.93,-11.582,-71.371,-67.92,-166.296
1.6798942000000352,-11.886,-8.489,-219.146,-19.545,413.026,-54.427,-98.839,-20.922,-21.33,-35.138,-16.238,-16.744,-29.084,2.717,-49.551,-26.194,-8.412,-1.174,-16.383,-15.611,12.926,-19.373,1.425,-16.929,-70.783,-11.059,-67.714,-61.705,-158.445
1.6816711000001305,-4.701,-10.018,-210.218,-20.55,419.786,-54.884,-87.469,-14.754,-19.772,-27.419,-10.586,-10.067,-24.957,6.3,-48.477,-16.434,-3.28,-1.173,-11.756,-16.107,14.45,-15.767,4.497,-17.424,-69.175,-6.437,-64.572,-59.081,-161.873
1.694871300000159,-1.11,-9.495,-218.204,-27.701,416.804,-55.854,-76.623,-12.177,-15.141,-25.854,-1.866,-2.372,-18.784,8.343,-42.793,-11.807,-3.277,-7.319,-8.158,-9.431,25.194,-14.727,3.468,-13.309,-68.593,-1.82,-58.36,-64.658,-167.859
1.6949373000002197,15.797,3.322,-215.937,-6.669,431.757,-36.331,-82.694,2.179,-2.318,-13.021,11.455,11.462,-11.593,6.798,-23.795,2.037,-7.372,-3.213,2.608,0.312,39.002,-1.904,15.76,-5.611,-62.377,7.916,-39.858,-57.421,-160.006
1.7099186999998892,25.515,8.954,-210.086,4.608,439.522,-26.56,-87.222,11.399,1.783,-0.2,16.055,14.012,-11.069,1.668,-17.624,11.257,-8.901,0.376,6.704,0.312,38.45,4.757,19.843,-5.093,-62.315,11.494,-34.183,-51.216,-158.822
1.7248751000001903,3.972,-6.937,-226.782,-26.647,415.004,-43.952,-82.012,-6.543,-11.539,-13.52,1.694,-0.346,-17.718,0.642,-33.488,-4.636,-12.991,-10.383,-4.061,-7.886,24.579,-10.104,3.429,-14.309,-76.085,-1.837,-54.641,-70.12,-175.569
1.7249359000002187,-6.278,-18.201,-237.826,-39.428,405.88,-51.593,-77.832,-12.685,-14.089,-23.24,-5.48,-0.858,-19.237,4.739,-39.602,-12.828,-12.978,-13.959,-1.495,-9.927,22.506,-12.143,2.401,-18.393,-79.082,-3.372,-60.734,-81.32,-184.615
1.7398815000001377,10.122,-9.985,-224.78,-11.724,423.404,-40.783,-75.192,4.234,-2.804,-10.921,3.235,8.876,-18.193,7.808,-30.341,-0.008,-3.231,-6.26,11.314,-1.72,32.217,2.726,17.256,-10.178,-68.757,9.439,-46.329,-69.456,-174.696
1.7399415999998382,6.014,-8.439,-221.481,-12.737,418.883,-40.742,-82.802,-1.405,-7.925,-13.472,1.695,1.695,-22.786,6.264,-32.872,-4.106,-0.154,-8.815,5.155,-2.743,28.599,3.748,17.238,-6.582,-68.688,4.306,-51.918,-70.923,-167.349
1.7550260000002709,-13.972,-20.725,-229.457,-39.364,397.459,-49.411,-95.014,-21.384,-18.163,-28.316,-10.602,-9.065,-28.911,2.671,-43.597,-20.496,-8.351,-15.466,-6.121,-13.499,18.836,-5.99,9.537,-15.797,-75.792,-5.432,-64.161,-82.636,-170.256
1.7550876000000244,-13.446,-23.779,-227.178,-40.862,391.939,-49.361,-88.772,-22.9,-16.608,-26.238,-13.666,-5.982,-30.931,-0.405,-43.042,-19.451,-10.904,-17.5,-4.578,-15.022,19.842,-9.058,9.527,-17.83,-73.667,0.721,-57.437,-79.991,-171.11
1.7700177000001531,-5.236,-17.095,-224.902,-31.599,396.157,-44.701,-80.998,-22.364,-16.079,-18.527,-9.554,-5.464,-31.412,-4.503,-36.339,-13.796,-10.893,-20.557,-4.573,-10.909,20.847,-8.536,10.03,-11.664,-71.032,2.257,-55.331,-77.862,-168.89
1.770079800000076,-5.23,-15.028,-226.214,-31.055,401.909,-42.607,-90.139,-20.805,-14.014,-12.361,-3.909,-5.971,-27.283,-8.085,-33.228,-16.856,-15.493,-18.487,-7.13,-12.947,19.801,-6.991,9.508,-11.653,-72.498,-3.892,-59.374,-81.883,-168.721
1.7849876999998742,-1.639,-13.989,-219.328,-24.877,406.118,-39.491,-85.438,-4.903,-3.241,-3.127,3.78,2.232,-18.546,-3.978,-32.171,-12.741,-10.867,-13.345,-4.049,-11.397,25.417,-3.91,10.523,-13.69,-70.888,-1.327,-50.093,-77.19,-167.015
1.7850456000001031,6.56,-7.827,-209.887,-12.044,406.224,-34.84,-65.885,7.398,-0.164,-0.05,6.338,7.866,-14.429,4.223,-29.065,-6.068,-3.171,-16.406,-2.508,-5.238,27.953,-2.369,11.537,-12.14,-73.379,-1.326,-43.895,-70.965,-159.164
1.7990401000001839,8.602,-1.159,-205.578,-2.811,409.916,-30.707,-66.843,6.366,-3.238,0.462,6.844,4.784,-18.001,4.218,-26.986,-6.574,-6.242,-16.902,-4.555,-4.208,26.9,-2.879,6.402,-14.689,-79.453,-5.423,-48.462,-72.431,-154.906
1.799107400000139,0.909,-5.257,-207.934,-10.492,408.482,-30.676,-75.486,0.212,-3.234,-0.05,3.251,0.168,-23.106,0.116,-30.545,-11.691,-8.797,-16.372,-7.112,-7.79,25.849,-10.561,-5.387,-22.359,-84.497,-6.442,-49.438,-76.97,-164.997
1.8140475000000151,-8.313,-14.985,-217.973,-27.9,394.753,-35.257,-79.509,-11.059,-10.916,-10.809,-9.048,-4.955,-27.693,2.677,-35.638,-18.339,-6.739,-22.504,-11.716,-12.393,17.626,-21.309,-10.505,-28.484,-93.122,-10.534,-53.487,-85.09,-177.128
1.8141097000002446,-4.719,-14.458,-221.341,-22.237,392.822,-35.734,-90.7,-14.635,-17.565,-15.409,-9.039,-6.999,-28.69,6.261,-32.016,-20.37,-4.683,-18.383,-9.655,-11.868,15.559,-16.677,-0.248,-25.894,-93.029,-10.524,-54.971,-86.029,-171.828
1.8290455000001202,9.118,-4.197,-210.873,-5.309,407.286,-29.55,-90.097,-5.911,-8.326,-1.049,6.852,0.692,-23.539,8.816,-24.299,-12.665,0.957,-6.069,-0.424,-3.147,27.327,-2.828,10.51,-12.036,-76.029,-0.779,-45.182,-74.16,-159.36
1.8291116999998849,12.695,1.442,-205.539,-9.402,411.489,-24.398,-77.199,0.755,-1.657,6.637,10.431,8.376,-18.392,10.856,-23.763,-8.554,6.079,-9.137,2.138,-1.607,31.398,-1.8,14.598,-4.852,-69.293,2.295,-45.649,-70.5,-160.738
1.844101099999989,8.072,-2.145,-210.969,-15.028,403.393,-26.935,-81.22,2.804,-6.267,4.581,4.273,6.319,-18.374,8.796,-25.788,-10.595,0.437,-16.3,-4.011,-8.778,25.219,-5.385,13.559,-10.995,-77.933,0.244,-51.239,-78.114,-167.237
1.8441602000002604,9.088,-7.779,-212.807,-13.476,398.891,-31.006,-83.701,2.289,-7.285,5.601,7.855,6.825,-19.38,9.3,-24.738,-7.51,-1.1,-12.185,-2.471,-4.671,29.804,4.354,13.033,-11.496,-75.806,4.854,-42.99,-77.011,-166.558
1.8590500000000247,15.739,-6.746,-208.496,-18.585,402.591,-28.926,-73.883,-3.861,-1.642,7.645,14.507,13.99,-15.774,16.975,-20.615,-0.33,9.66,-7.05,10.852,5.58,35.922,14.596,21.729,-3.8,-67.533,11.51,-37.312,-69.762,-161.268
1.8591111000000637,18.797,-1.104,-204.189,-13.444,407.824,-25.311,-80.982,-2.833,2.458,11.735,16.542,16.538,-10.635,22.081,-13.422,2.744,16.822,-4.481,16.989,5.062,34.862,15.094,26.831,-3.796,-69.515,12.01,-42.91,-69.692,-157.008
1.874159200000122,13.655,-3.664,-205.522,-9.844,405.879,-26.822,-95.758,0.756,-0.106,12.236,16.013,12.935,-11.649,23.084,-14.433,1.716,20.392,-4.989,9.799,2.496,31.753,13.542,16.045,-8.915,-74.569,9.437,-45.429,-73.208,-155.827
1.874224900000172,4.932,-11.345,-214.026,-29.814,394.714,-34.993,-91.563,-9.491,-11.377,1.465,8.824,11.897,-17.785,24.085,-24.665,-1.871,22.42,-11.132,5.691,1.469,26.598,7.381,9.882,-11.98,-78.08,5.329,-49.482,-77.234,-157.72
1.9497442000001683,5.44,-11.846,-214.324,-34.908,392.271,-39.056,-82.763,-13.067,-17.513,-2.122,6.254,13.422,-19.305,22.524,-24.128,-3.406,20.861,-11.633,8.759,-2.631,20.936,1.738,19.093,-11.968,-77.49,3.274,-52.506,-77.669,-156.025
1.9498177000000396,12.607,-7.736,-206.425,-15.405,398.538,-32.869,-76.02,-1.784,-10.323,8.638,15.469,16.483,-15.699,22.502,-16.419,0.695,24.426,-5.986,9.263,0.957,23.989,6.347,21.636,-8.37,-70.752,6.345,-42.207,-72.98,-152.796
1.9498625999999604,12.082,-8.753,-206.219,-16.927,394.554,-26.176,-76.968,-1.27,-4.165,11.704,19.04,19.028,-13.122,21.967,-16.915,4.281,29.013,-8.542,8.741,7.616,24.477,6.341,12.905,-10.411,-70.682,4.802,-33.456,-73.42,-155.204
1.949902800000018,4.897,-16.429,-212.16,-29.205,383.913,-25.638,-93.798,-5.879,-3.136,8.618,12.873,14.91,-13.109,16.309,-17.923,-1.359,18.738,-16.218,5.659,1.973,13.694,-4.936,4.695,-23.208,-80.857,-4.937,-41.107,-78.469,-161.709
1.9499571999999716,-4.841,-27.171,-217.583,-27.127,375.844,-26.125,-98.315,0.275,-1.084,9.634,4.151,8.236,-14.12,11.682,-23.028,-14.165,6.423,-17.738,-4.081,-7.25,1.385,-12.616,-6.58,-37.017,-93.072,-14.666,-55.411,-79.415,-168.72
1.9500154000002112,-15.595,-33.291,-223.001,-31.198,366.247,-31.734,-82.335,-2.287,-4.157,3.989,-7.124,1.567,-16.668,10.646,-39.911,-26.446,3.855,-16.696,-11.249,-12.366,-9.374,-18.751,-14.771,-46.202,-105.786,-20.799,-66.626,-79.848,-175.723
1.951695600000221,-17.116,-31.721,-225.852,-37.827,363.319,-41.948,-79.179,-10.482,-8.251,-3.187,-11.215,-5.607,-19.725,9.611,-44.482,-31.031,3.339,-13.605,-11.238,-15.427,-16.537,-23.343,-15.268,-50.254,-112.853,-22.315,-70.146,-79.768,-179.646
1.9517405999999937,-14.538,-32.202,-227.675,-35.74,369.616,-41.394,-83.71,-5.861,-7.218,0.402,-6.593,-6.626,-17.656,8.577,-33.679,-29.975,0.774,-6.932,-6.616,-11.314,-16.009,-18.709,-15.253,-47.642,-110.691,-21.78,-67.002,-73.029,-179.979
1.9517783000001145,-20.671,-35.243,-231.546,-42.876,368.222,-37.254,-79.016,-4.83,-6.699,-0.111,-9.66,-3.545,-15.589,8.568,-36.207,-31.482,-2.813,-4.363,-3.023,-9.253,-17.529,-17.153,-15.238,-44.521,-110.58,-21.246,-66.935,-65.271,-178.262
1.9643489999998565,-21.162,-31.11,-230.29,-51.03,362.218,-44.902,-76.887,-15.072,-7.717,-6.258,-15.286,-6.103,-18.647,11.121,-41.806,-32.475,-6.396,-3.847,-4.045,-12.83,-21.098,-20.21,-14.71,-43.452,-114.056,-17.639,-63.281,-57.521,-173.985
1.964411299999938,-7.309,-19.808,-223.4,-36.635,368.003,-45.369,-82.446,-6.86,-2.586,1.945,-6.562,-0.974,-15.043,17.258,-31.006,-23.221,-0.242,3.329,-0.967,-5.132,-14.417,-12.505,-12.134,-36.748,-109.331,-11.986,-47.337,-44.656,-170.225
1.979271499999868,2.432,-8.517,-218.565,-18.155,378.394,-30.979,-81.851,15.177,5.614,13.214,4.716,11.322,-4.781,18.265,-22.265,-9.878,8.468,10.498,8.768,5.631,-7.23,-2.759,-4.437,-30.052,-96.926,-7.875,-36.019,-33.341,-166.469
1.9793300999999701,2.942,-3.386,-210.15,-18.137,376.991,-30.436,-74.597,16.186,6.633,10.639,2.149,9.262,-5.801,12.099,-25.829,-11.405,3.848,6.389,7.735,1.527,-13.883,-5.318,-2.384,-29.509,-88.632,-7.868,-36.495,-27.159,-158.105
2.0543453000000227,2.942,-3.214,-210.582,-17.793,377.347,-29.408,-75.67,17.323,7.486,11.093,2.548,9.318,-5.516,11.471,-25.257,-11.859,3.507,5.706,7.051,1.072,-14.508,-6.342,-2.896,-31.214,-88.964,-8.208,-37.231,-27.384,-158.771
2.0562110000000757,2.941,-3.043,-211.014,-17.45,377.704,-28.38,-76.743,18.459,8.339,11.547,2.946,9.374,-5.231,10.844,-24.685,-12.313,3.165,5.022,6.367,0.616,-15.132,-7.366,-3.408,-32.918,-89.296,-8.549,-37.967,-27.609,-159.436
2.0562779000001683,2.941,-2.872,-211.446,-17.106,378.061,-27.352,-77.817,19.596,9.192,12.002,3.344,9.43,-4.945,10.216,-24.113,-12.767,2.823,4.338,5.683,0.16,-15.757,-8.39,-3.92,-34.623,-89.627,-8.89,-38.703,-27.834,-160.102
2.056321300000036,2.941,-2.701,-211.878,-16.763,378.417,-26.324,-78.89,20.733,10.045,12.456,3.742,9.485,-4.66,9.589,-23.541,-13.221,2.481,3.654,4.999,-0.295,-16.381,-9.414,-4.432,-36.327,-89.959,-9.23,-39.439,-28.058,-160.767
2.056361899999956,2.94,-2.53,-212.31,-16.419,378.774,-25.296,-79.963,21.869,10.898,12.91,4.141,9.541,-4.375,8.961,-22.969,-13.675,2.139,2.97,4.315,-0.751,-17.006,-10.438,-4.944,-38.031,-90.291,-9.571,-40.175,-28.283,-161.433
2.0564024999998765,2.94,-2.359,-212.742,-16.075,379.13,-24.268,-81.036,23.006,11.751,13.364,4.539,9.597,-4.09,8.334,-22.397,-14.13,1.797,2.287,3.631,-1.206,-17.631,-11.462,-5.456,-39.736,-90.622,-9.912,-40.911,-28.508,-162.098
2.0564414999998917,2.94,-2.188,-213.174,-15.732,379.487,-23.24,-82.11,24.143,12.604,13.818,4.937,9.653,-3.804,7.706,-21.825,-14.584,1.455,1.603,2.947,-1.662,-18.255,-12.486,-5.968,-41.44,-90.954,-10.252,-41.646,-28.732,-162.764
2.0564801999998963,2.939,-2.016,-213.606,-15.388,379.844,-22.212,-83.183,25.279,13.457,14.273,5.335,9.709,-3.519,7.079,-21.252,-15.038,1.113,0.919,2.263,-2.117,-18.88,-13.51,-6.48,-43.145,-91.286,-10.593,-42.382,-28.957,-163.429
2.056520399999954,2.939,-1.845,-214.038,-15.045,380.2,-21.184,-84.256,26.416,14.311,14.727,5.733,9.765,-3.234,6.451,-20.68,-15.492,0.771,0.235,1.579,-2.573,-19.505,-14.534,-6.992,-44.849,-91.617,-10.934,-43.118,-29.182,-164.095
2.0694610000000466,11.645,2.255,-205.627,-10.419,384.943,-15.015,-91.857,48.931,28.129,24.446,12.388,12.317,-1.694,10.031,-14.0,-11.89,2.307,4.334,3.115,-1.033,-20.51,-12.983,-5.96,-44.804,-84.353,-12.46,-44.1,-21.468,-160.344
2.069522499999948,6.511,-2.87,-204.397,-14.507,381.484,-21.66,-76.908,41.71,17.854,18.786,4.691,8.718,-3.229,8.484,-21.67,-12.903,0.255,4.842,2.087,1.529,-23.051,-8.359,-5.954,-40.661,-88.368,-12.447,-50.716,-27.082,-160.184
2.069562600000154,2.406,-6.454,-208.803,-15.517,382.64,-21.126,-70.171,22.2,13.226,14.157,2.125,7.173,-5.275,2.84,-22.161,-15.964,-0.257,4.837,3.622,3.577,-24.565,-4.252,-1.338,-38.571,-92.89,-8.336,-49.64,-31.153,-162.073
2.0696023000000423,12.649,-0.812,-203.472,-8.329,389.942,-13.932,-78.81,31.4,21.409,23.876,11.856,15.362,-3.22,7.448,-15.479,-7.751,4.354,12.516,15.401,8.184,-16.855,5.486,8.398,-26.237,-75.379,-1.156,-30.123,-20.363,-156.788
2.0844271999999364,15.198,-1.323,-200.707,-11.395,388.527,-18.529,-79.243,37.516,15.24,22.828,11.844,17.396,-0.656,13.076,-17.512,0.454,9.473,20.189,25.12,12.787,-13.252,17.264,19.66,-16.989,-58.909,4.993,-20.359,-15.22,-154.07
2.0844903000001977,12.109,-2.347,-201.018,-17.531,385.065,-22.097,-79.677,23.646,13.176,17.682,10.808,16.354,-0.143,15.625,-16.47,1.99,16.635,26.828,29.705,17.897,-17.338,25.956,31.423,-13.386,-57.826,11.648,-26.486,-14.18,-150.329
2.099430900000243,22.343,8.414,-194.157,-5.218,395.95,-14.39,-97.528,29.77,29.044,29.96,22.068,26.072,3.444,23.806,-7.745,10.697,21.742,35.511,40.434,28.125,-13.222,35.664,40.101,-1.077,-52.645,21.371,-18.775,-4.432,-140.958
2.099503899999945,34.104,15.578,-189.352,7.595,407.85,-8.74,-109.213,44.597,34.65,38.126,29.73,34.243,10.613,25.831,-5.175,20.42,20.183,37.525,49.615,31.683,-5.012,41.263,44.672,5.071,-49.518,25.96,-6.461,0.183,-139.28
2.1145030000002407,33.558,14.538,-189.163,5.026,408.979,-7.707,-95.784,32.77,28.98,39.113,29.188,32.159,12.651,18.121,-4.658,18.351,19.138,31.852,42.906,26.528,-7.056,38.661,41.553,-5.18,-56.641,20.299,-11.065,-2.379,-140.677
2.1145652999998674,29.426,16.06,-186.412,4.508,408.57,-4.625,-87.491,25.052,31.513,44.709,29.672,31.615,10.077,15.541,-3.629,14.746,15.021,24.647,32.617,23.94,-14.221,31.962,32.29,-9.785,-57.609,17.717,-13.616,0.185,-136.438
2.1295390999998745,26.835,15.532,-189.812,8.602,407.649,-7.695,-107.384,38.86,28.408,39.029,26.056,29.021,5.968,14.501,-4.65,10.633,4.247,15.401,26.949,19.306,-19.33,25.27,27.647,-8.239,-58.576,19.748,-9.504,1.21,-136.302
2.12960350000003,25.783,11.93,-191.159,5.007,401.606,-14.859,-118.035,40.87,9.936,26.182,19.882,20.796,1.352,9.876,-5.67,1.913,2.194,10.775,22.823,13.651,-24.946,22.683,30.181,-8.743,-65.69,18.192,-15.13,-2.89,-137.19
2.144600900000114,29.344,13.968,-178.16,2.953,397.618,-13.308,-93.838,29.046,2.754,26.669,19.35,19.75,-0.187,13.964,-6.689,3.961,9.876,19.474,26.899,18.76,-24.409,26.759,32.712,-4.123,-57.94,20.223,-20.75,-2.887,-126.294
2.1446657000001323,30.851,15.491,-161.588,1.413,399.27,-10.733,-78.888,25.431,16.583,29.716,23.941,24.853,3.4,19.586,-6.682,13.178,14.477,29.188,33.532,26.939,-20.798,31.855,36.266,-1.045,-47.636,25.838,-17.143,-0.323,-112.336
2.1598956000002545,27.234,12.401,-151.18,-6.785,400.407,-11.747,-99.813,27.455,29.375,32.76,29.04,30.464,6.982,19.054,-2.577,14.19,19.073,28.646,35.035,26.912,-22.314,33.36,38.279,-6.68,-56.297,22.226,-21.737,-2.372,-105.051
2.1599559000001136,23.109,8.803,-143.345,-9.34,399.495,-8.661,-110.472,29.989,28.321,36.313,27.474,34.02,8.512,20.06,-3.599,13.151,28.276,26.056,37.562,27.909,-27.927,33.839,35.167,-7.698,-64.95,17.081,-34.01,-8.005,-101.36
2.174606600000061,20.012,5.208,-131.418,-2.158,395.509,-8.652,-99.603,32.52,21.632,28.592,17.201,28.863,5.942,19.015,-9.231,12.625,30.809,27.055,37.524,29.418,-30.461,32.781,33.595,-6.153,-64.373,16.551,-37.563,-9.021,-86.914
2.1746726000001217,17.942,8.276,-105.671,7.066,392.552,-12.23,-101.553,29.414,21.611,27.027,17.184,23.711,3.887,15.41,-8.709,6.977,27.192,26.515,34.925,26.315,-32.992,30.186,37.659,-9.221,-63.284,13.461,-32.914,-0.815,-60.187
2.189614899999924,18.437,17.49,-76.877,17.305,394.721,-5.045,-94.279,27.848,28.249,35.709,25.363,26.248,5.42,19.493,-5.114,3.896,24.603,24.44,33.866,25.264,-37.058,25.033,36.085,-8.699,-57.585,10.886,-29.807,6.87,-42.708
2.2046267000000626,16.369,16.96,-66.041,17.8,391.765,-1.454,-61.397,33.967,20.024,26.964,16.116,20.075,2.341,18.449,-7.671,-1.231,15.357,21.341,26.147,19.603,-42.656,15.787,28.364,-10.74,-54.966,9.338,-33.364,4.814,-41.641
2.2196782000000894,11.215,13.853,-48.501,8.03,380.226,-7.09,4.269,44.652,-6.648,5.914,-5.936,-1.476,-10.981,3.044,-16.362,-19.154,-5.156,5.933,4.073,5.225,-54.348,-0.117,17.044,-16.351,-62.031,3.685,-39.954,7.88,-31.825
2.234592000000248,19.401,26.646,-33.084,17.243,384.456,-7.083,-12.13,38.972,-2.543,17.179,3.804,-0.963,-12.507,-3.107,-15.833,-20.159,-6.176,-9.443,4.069,8.294,-52.757,6.543,22.15,-4.04,-58.895,11.366,-31.204,27.34,-12.326
2.2346582999998645,35.775,43.014,-24.341,46.94,403.027,3.17,-25.95,41.494,14.878,27.92,17.632,11.334,-2.76,5.605,-4.547,-6.307,1.515,-7.896,16.873,18.02,-43.995,17.295,32.887,15.944,-39.369,29.286,-13.755,45.244,0.494
2.234701800000039,44.961,51.167,-23.292,59.188,415.432,9.315,-3.895,60.408,17.937,27.38,21.201,17.982,3.39,11.747,5.704,1.384,9.71,8.506,23.004,20.051,-39.34,23.937,41.051,22.588,-28.058,34.892,-5.032,54.42,10.74
2.249700500000017,38.256,49.067,-24.294,41.711,412.967,14.428,5.331,63.422,16.382,31.451,21.18,20.014,1.85,13.785,1.6,-0.666,15.848,13.62,19.907,19.518,-44.936,23.401,36.911,13.857,-36.227,28.709,-9.125,49.242,9.192
2.264698800000133,20.8,31.087,-43.225,16.566,399.234,12.877,-9.019,38.255,14.317,25.272,10.912,13.334,-3.787,14.283,-10.185,-8.863,9.685,7.971,12.715,15.4,-58.723,12.107,22.53,-4.6,-58.22,17.922,-19.362,25.627,-17.969
2.2647603000000345,11.045,12.613,-66.748,9.377,385.003,1.081,-10.035,30.02,5.593,11.927,-0.882,3.074,-7.882,12.22,-14.273,-15.514,-1.596,11.549,9.628,10.262,-66.862,3.898,14.823,-13.817,-72.507,7.658,-28.564,9.72,-43.054
2.264802099999997,20.768,15.162,-74.366,15.003,389.741,3.129,-13.099,48.433,8.661,18.575,5.267,8.706,-5.825,13.744,-9.648,-8.326,1.992,22.296,19.352,17.936,-61.159,15.677,25.054,-1.508,-60.651,11.749,-28.536,12.784,-42.499
2.2807771000002504,25.87,18.221,-82.488,7.816,399.085,11.323,-31.528,49.409,21.973,26.753,13.971,17.919,-0.696,18.854,-6.564,0.904,11.212,28.934,28.554,25.603,-54.438,25.908,37.837,6.69,-50.344,19.422,-23.384,11.747,-46.042
2.29471360000025,15.598,4.882,-99.312,-8.586,389.977,1.066,-25.862,38.601,16.828,14.431,6.785,12.266,-3.257,17.81,-9.119,-4.22,8.639,27.88,24.427,20.454,-61.556,19.222,33.7,-2.026,-60.028,12.23,-27.459,-0.048,-65.976
2.29477820000011,12.509,-1.27,-108.434,-7.553,381.902,-7.645,-11.491,45.223,5.028,9.806,4.216,7.131,-8.377,11.133,-8.598,-9.851,2.482,18.119,21.329,17.36,-69.691,15.616,25.47,-4.585,-60.48,7.607,-34.604,-5.684,-74.107
2.309784099999888,23.254,6.928,-110.887,4.75,393.303,5.171,-22.75,46.715,5.023,20.042,11.384,10.197,-7.856,8.048,-1.929,-5.743,-0.594,11.953,23.357,20.416,-65.011,21.236,30.567,2.592,-48.124,14.772,-29.959,-2.092,-73.009
2.3116746999999123,30.404,14.093,-113.338,9.868,401.107,12.338,-28.875,42.057,8.604,22.071,15.472,11.212,-4.262,9.576,1.146,-1.639,-2.13,18.601,21.797,20.396,-59.311,23.776,34.635,8.225,-45.002,17.318,-22.244,6.107,-73.96
2.3247882000000573,36.008,19.715,-110.151,14.469,401.73,10.276,-21.674,55.335,13.206,25.123,19.042,13.762,-2.208,10.591,3.194,-0.1,1.97,22.681,24.337,20.376,-59.764,27.339,35.625,15.901,-41.883,21.4,-19.66,14.298,-69.275
2.324853399999938,44.682,27.38,-106.454,18.553,408.501,15.901,-28.312,61.427,16.267,32.27,24.146,18.359,-2.206,6.482,8.314,2.974,2.481,14.973,29.435,21.38,-56.63,33.459,44.299,24.594,-31.083,31.624,-17.079,16.333,-64.595
2.339866300000267,44.637,29.402,-110.959,18.535,409.629,17.935,-28.796,43.947,8.566,24.554,21.561,14.242,-6.303,3.402,6.769,2.971,-2.645,10.86,27.357,20.846,-56.061,34.963,47.328,27.131,-31.564,33.13,-16.55,17.341,-68.117
2.3399272000001474,39.982,28.347,-116.483,22.615,405.634,12.794,-15.448,42.367,5.996,18.381,18.977,12.691,-7.321,10.059,2.664,0.406,4.018,19.046,25.792,24.924,-61.64,36.465,44.207,26.079,-41.779,29.51,-17.046,20.398,-68.561
2.3548086999999214,42.503,28.831,-120.465,23.104,408.302,16.879,-21.068,57.181,14.699,29.121,24.082,18.314,-2.703,16.709,8.297,2.967,16.309,28.761,31.402,30.534,-60.554,37.965,49.798,23.492,-43.274,30.505,-12.93,16.279,-67.98
2.3548894999998993,40.411,24.192,-127.517,8.224,404.82,20.449,-34.367,53.025,17.758,31.654,25.594,18.808,-0.651,13.618,12.387,7.575,9.633,30.781,31.371,28.967,-59.469,36.902,50.261,18.345,-40.669,28.426,-13.429,4.992,-80.208
2.369771000000128,30.125,16.483,-135.074,-1.005,394.169,10.694,-32.283,40.165,13.642,24.962,21.983,17.252,-2.187,11.555,6.227,7.055,-2.16,29.726,29.802,26.376,-64.533,36.353,43.551,14.741,-43.702,25.836,-20.076,-1.161,-92.935
2.3714453000002322,33.169,18.516,-141.087,14.365,398.385,10.171,-32.251,49.346,16.702,33.646,26.059,26.456,2.426,17.691,7.757,14.221,9.625,38.918,40.019,33.522,-61.906,41.952,52.729,19.849,-39.56,30.421,-14.42,4.476,-93.355
2.384937499999978,42.869,27.719,-146.581,30.744,411.819,22.969,-41.952,65.691,24.882,44.371,35.255,36.164,10.108,21.26,17.483,27.014,24.985,49.637,48.175,37.587,-56.721,46.521,60.36,25.465,-34.398,33.464,-6.721,6.52,-93.261
2.385001099999954,28.482,20.006,-155.656,15.857,403.21,17.823,-44.984,53.33,22.296,34.081,27.022,25.369,6.0,14.579,10.806,18.79,11.128,37.292,34.807,26.791,-67.936,36.741,43.394,12.631,-51.782,23.697,-23.621,-11.417,-105.463
2.3999604999999065,4.887,-1.53,-165.234,-14.898,377.704,-2.175,-35.718,26.124,9.466,19.19,7.015,6.901,-6.814,6.367,-8.16,-3.77,-8.863,18.3,18.379,14.469,-84.774,16.724,27.981,-8.386,-70.173,8.304,-45.114,-31.898,-119.703
2.415176900000006,6.419,-3.066,-164.044,-20.006,371.691,-3.71,-33.633,33.782,3.821,17.634,3.935,6.381,-10.394,7.385,-10.714,-5.303,-4.756,20.843,19.897,14.454,-87.251,12.097,30.515,-5.304,-61.394,5.734,-40.971,-29.304,-118.046
2.415237900000193,16.659,10.257,-160.806,-6.153,383.615,10.126,-54.091,55.778,8.94,23.764,13.152,13.035,-5.772,10.964,-0.969,5.46,2.421,30.044,22.951,15.465,-83.577,21.306,34.07,9.046,-50.061,13.925,-33.757,-16.98,-109.731
2.4152804999998807,10.495,5.124,-169.355,-9.221,376.571,3.968,-64.283,35.23,4.833,18.617,8.016,6.362,-9.353,7.879,-4.042,-0.693,-4.241,26.94,16.781,9.814,-88.617,18.723,33.524,5.451,-52.061,11.35,-38.847,-20.549,-115.769
2.4298070999998345,8.435,-3.59,-177.382,-17.921,361.338,-12.429,-37.067,13.165,-4.394,7.84,0.836,3.794,-14.979,6.847,-9.673,-6.327,-4.237,27.937,18.301,11.341,-90.065,12.044,33.491,2.372,-50.984,6.728,-40.345,-28.725,-120.776
2.431445100000019,20.722,6.659,-173.619,-6.632,372.247,-3.195,-26.271,37.743,3.808,13.467,11.593,16.086,-5.742,13.5,1.095,3.925,3.452,37.643,23.918,17.99,-82.29,20.742,36.019,12.616,-51.957,17.479,-39.792,-21.012,-111.946
2.4448545000000195,28.386,15.362,-172.421,3.108,386.219,16.275,-56.983,50.513,17.124,28.311,22.852,19.144,2.46,14.511,8.778,10.069,0.374,39.655,22.869,18.996,-77.597,27.381,38.544,15.165,-59.59,23.61,-46.412,-13.818,-113.371
2.4598848999999063,25.796,10.223,-176.347,-3.043,376.612,9.087,-64.099,30.482,10.959,23.672,17.706,11.952,-4.714,7.837,1.597,4.936,-4.237,34.492,23.871,17.44,-82.13,21.206,35.432,7.465,-57.994,18.975,-47.39,-19.44,-126.065
2.459946299999956,23.208,9.701,-177.195,-3.552,372.649,-2.193,-35.858,36.087,0.19,15.451,13.078,12.965,-7.271,9.878,2.108,7.492,1.403,35.994,28.97,20.497,-80.511,23.234,34.372,6.945,-50.763,21.005,-43.245,-20.958,-123.378
2.474873000000116,25.234,12.253,-176.505,2.599,382.522,7.031,-31.211,55.007,7.874,26.706,19.725,20.636,2.982,17.553,11.327,17.731,6.525,43.643,29.966,22.013,-73.771,32.432,41.51,13.598,-51.225,25.083,-45.251,-15.301,-118.131
2.474933299999975,25.722,5.58,-180.427,-2.527,382.14,12.147,-43.475,46.755,17.088,35.389,22.267,22.153,4.004,16.51,6.705,16.689,3.956,48.21,28.911,20.454,-77.795,29.838,42.493,15.634,-53.735,18.91,-47.767,-21.946,-129.284
2.4898738000001686,16.987,-6.208,-191.005,-16.869,370.999,1.888,-42.407,35.949,5.8,24.595,13.023,13.934,-6.759,9.322,-2.523,5.401,-1.683,43.551,23.759,14.798,-88.476,20.587,31.692,6.909,-59.317,13.256,-52.33,-37.293,-143.499
2.4899285999999847,10.822,-10.3,-197.987,-24.536,364.993,-3.236,-47.488,36.938,-3.427,14.837,6.862,5.723,-7.776,8.8,-1.496,3.347,-4.243,38.897,18.1,12.222,-89.412,18.517,27.049,0.754,-64.893,12.218,-58.425,-41.867,-148.991
2.504954600000019,20.033,-4.142,-195.739,-18.364,368.214,1.378,-59.223,39.463,4.773,19.433,13.515,12.889,-0.596,11.353,2.604,13.077,1.397,42.444,24.23,18.357,-82.151,25.671,35.732,13.049,-56.119,16.304,-50.17,-35.165,-146.281
2.505020699999932,23.599,-1.577,-197.081,-16.809,370.407,3.425,-58.652,43.009,4.768,21.462,18.113,20.049,-3.157,7.755,3.626,11.015,1.396,43.426,28.816,20.388,-83.093,28.719,39.794,19.696,-48.378,22.436,-40.898,-32.568,-143.061
2.5199909000002663,8.718,-11.821,-206.617,-30.624,364.914,-4.263,-53.983,32.72,-7.532,11.707,9.385,7.733,-12.376,0.575,-3.037,-3.341,-11.414,33.649,17.004,6.536,-92.231,18.956,27.971,4.819,-62.162,14.729,-52.128,-39.195,-151.114
2.5200549000001047,1.025,-17.445,-211.022,-35.204,361.475,-11.431,-53.416,15.269,-5.987,6.572,1.179,-0.984,-13.388,0.575,-13.281,-6.924,-17.55,29.517,9.815,-0.643,-95.725,9.716,17.185,-2.87,-73.883,3.443,-61.297,-46.841,-158.136
2.5343634999999267,10.245,-8.718,-209.786,-19.288,365.724,-7.833,-50.289,28.061,3.24,14.25,7.325,9.776,-8.764,5.697,-11.218,1.792,-8.311,36.66,16.465,7.042,-92.556,13.292,20.754,5.842,-66.124,6.513,-48.429,-44.745,-150.805
2.53442989999985,18.432,-2.562,-207.015,-7.998,367.408,-0.653,-48.702,48.526,3.749,18.334,17.052,16.426,-7.73,6.716,-1.985,5.889,-5.229,39.185,18.498,9.597,-89.902,16.353,22.782,9.422,-62.984,12.142,-36.597,-35.991,-144.507
2.548946800000067,17.901,-5.121,-205.271,-15.674,364.991,-1.677,-53.776,34.645,2.208,15.242,16.01,10.774,-8.235,3.123,-3.008,5.371,-10.859,35.559,18.992,7.025,-86.226,15.312,18.661,8.388,-70.094,14.179,-40.147,-35.443,-149.485
2.549007000000074,19.42,-5.116,-207.627,-31.028,363.602,-5.774,-59.87,19.241,-0.868,16.764,13.433,13.325,-5.665,3.632,-1.468,8.952,-8.799,38.085,26.657,14.191,-79.992,24.518,26.839,12.991,-67.462,21.85,-42.668,-40.53,-150.873
2.5640532000002167,24.524,-3.061,-206.395,-34.071,368.873,-6.793,-61.347,29.98,-0.867,22.895,23.665,26.119,1.513,9.264,5.706,18.677,-2.642,46.756,35.34,23.398,-74.276,38.326,40.645,17.076,-55.099,27.463,-38.015,-38.953,-147.648
2.564115199999833,22.963,-4.083,-199.528,-18.667,379.775,-3.2,-57.187,37.635,7.843,27.995,30.814,32.241,6.122,12.329,3.139,27.367,0.434,50.808,39.403,22.862,-72.153,39.312,41.117,19.108,-51.458,22.825,-43.1,-38.401,-147.5
2.5790476000001945,8.595,-13.3,-207.013,-17.624,373.248,-4.221,-54.056,27.863,7.323,23.869,18.488,25.549,-1.056,10.267,-6.086,21.192,-2.128,45.634,32.704,15.155,-79.253,28.514,31.342,13.966,-61.653,14.605,-58.426,-52.195,-157.599
2.579115500000171,-5.758,-29.681,-222.176,-40.66,345.722,-17.537,-51.953,15.54,-6.516,9.5,4.637,13.228,-11.301,6.158,-12.228,4.777,-11.347,36.367,18.839,6.943,-90.957,16.19,23.113,-1.417,-71.325,6.906,-66.564,-70.074,-172.298
2.5939987000001565,-5.24,-34.262,-222.466,-47.792,337.18,-22.13,-54.975,17.574,-7.022,5.904,1.559,9.628,-11.803,6.152,-16.826,-0.351,-11.848,35.818,15.746,5.399,-92.915,11.051,20.529,-8.076,-71.254,2.801,-64.961,-75.639,-180.323
2.5940583000001425,-3.186,-29.105,-224.293,-39.035,348.626,-12.886,-67.728,25.753,-1.38,13.583,0.02,12.18,-9.741,10.757,-17.834,3.236,-1.078,41.93,19.829,5.906,-90.773,12.577,18.971,-5.506,-72.207,2.798,-68.482,-76.076,-182.704
2.60901610000019,-11.379,-38.297,-237.901,-51.291,341.617,-19.534,-69.197,24.19,-10.088,9.471,-3.566,8.582,-14.342,10.234,-16.792,-2.915,-1.589,42.401,15.71,0.777,-94.781,10.003,12.292,-8.575,-76.746,-0.279,-72.512,-83.172,-189.181
2.6090752000000066,-15.979,-44.919,-238.687,-59.949,328.468,-32.322,-55.295,19.556,-14.176,0.752,-3.05,4.475,-18.427,3.564,-18.312,-8.548,-8.76,40.309,11.596,-0.761,-95.711,3.845,9.718,-12.152,-76.156,-5.401,-73.464,-85.651,-192.066
2.62409179999986,-10.327,-34.628,-228.202,-44.008,338.898,-23.58,-64.462,24.147,-3.916,6.899,-2.022,6.52,-16.871,2.535,-18.806,-3.416,-6.702,40.269,11.585,0.777,-94.078,3.329,10.221,-11.628,-76.08,-3.859,-78.514,-80.442,-183.677
2.624156700000185,-8.268,-30.495,-224.388,-36.279,351.879,-16.384,-79.766,22.586,-3.912,12.016,-0.996,4.976,-14.805,5.094,-19.299,-3.413,-7.207,36.13,7.475,-3.835,-97.57,2.301,5.088,-15.714,-81.127,-3.343,-80.997,-77.8,-175.297
2.6391223999999056,-8.772,-32.001,-221.602,-39.829,347.428,-23.028,-60.731,8.731,-15.179,4.831,0.03,3.434,-15.815,5.089,-20.817,-8.532,-12.323,36.606,9.004,-4.343,-92.862,-1.8,5.083,-15.186,-80.022,-5.901,-75.793,-75.16,-175.121
2.6544420000000173,-7.226,-26.334,-218.307,-35.178,345.032,-26.079,-49.4,4.111,-17.725,0.728,0.03,7.529,-16.824,5.084,-20.796,-5.45,-8.725,42.717,14.118,1.809,-84.572,3.838,14.299,-8.511,-74.818,-1.284,-74.692,-70.987,-175.458
2.6544991000000664,-5.682,-23.233,-215.015,-30.532,352.884,-23.491,-70.355,14.866,-6.949,7.9,3.616,13.157,-11.684,8.153,-19.751,-0.834,-4.105,42.675,14.616,3.344,-83.975,15.617,20.945,-2.867,-73.207,8.451,-75.642,-69.891,-171.185
2.66913169999998,0.984,-17.575,-205.066,-24.354,361.24,-14.758,-73.871,28.683,10.989,22.236,15.395,21.341,-0.914,11.219,-15.632,4.802,-2.564,44.681,22.799,7.951,-75.182,23.798,26.047,5.845,-64.937,11.516,-66.345,-62.649,-164.866
2.669189600000209,6.618,-9.36,-200.762,-17.67,364.465,-2.448,-57.915,31.216,16.613,29.899,19.478,25.93,2.673,10.183,-9.981,10.945,0.512,47.198,29.436,11.53,-64.86,24.799,29.607,10.45,-56.162,10.992,-60.131,-52.34,-161.115
2.684157099999993,-0.049,-16.523,-208.246,-23.8,354.367,-12.18,-46.074,24.012,-1.846,15.012,7.164,15.146,-8.088,5.562,-14.582,1.201,-5.124,36.392,15.574,1.784,-75.554,15.553,20.868,2.755,-59.18,9.444,-66.218,-59.46,-163.515
2.6860873999999058,-8.758,-24.704,-210.087,-25.313,343.254,-27.024,-32.196,23.476,-10.041,0.14,-3.602,2.835,-14.74,2.482,-21.74,-13.145,-14.852,26.622,4.288,-3.341,-86.749,4.779,11.626,-1.859,-62.707,2.775,-74.861,-68.11,-168.987
2.700000000000273,-7.724,-19.556,-207.315,-14.017,350.083,-14.19,-39.848,34.211,7.387,10.386,1.012,6.419,-8.577,5.042,-19.157,-9.034,-12.788,34.28,8.894,1.786,-80.515,6.311,14.176,-0.832,-61.62,-0.814,-78.373,-62.919,-168.818
2.7000685000002704,-2.081,-16.463,-208.133,-16.052,359.467,-2.392,-71.572,38.275,18.138,23.696,7.671,13.585,-6.519,8.11,-12.99,-2.877,-7.652,40.393,10.422,0.247,-76.336,10.403,18.772,-2.369,-61.046,2.261,-76.757,-60.294,-163.014
2.714255200000025,2.019,-16.958,-203.826,-29.356,355.521,-12.124,-70.988,30.04,9.411,15.987,5.102,9.985,-12.148,10.151,-12.464,-8.509,-7.645,38.304,10.924,-2.315,-72.161,9.368,23.364,5.318,-55.349,6.357,-72.582,-57.673,-156.703
2.714320399999906,4.579,-14.38,-199.011,-29.839,354.141,-14.673,-49.912,18.739,-0.845,6.237,-0.026,5.876,-13.673,9.629,-16.038,-9.526,-6.1,36.729,13.475,1.274,-63.892,12.945,27.952,14.022,-49.659,9.424,-71.485,-49.93,-153.472
2.7292528000002676,5.086,-12.316,-202.399,-20.075,358.91,-7.999,-56.01,17.696,-9.041,10.33,3.56,8.432,-15.196,6.033,-17.559,-5.93,-8.143,33.618,11.412,2.297,-62.291,17.543,26.899,7.861,-51.658,9.415,-73.463,-53.979,-154.856
2.7293227999998635,4.057,-12.304,-205.782,-20.055,357.526,-5.941,-63.638,22.289,-8.007,14.418,7.655,9.448,-18.255,2.953,-11.394,-6.949,-11.721,30.511,11.913,3.832,-61.204,18.55,28.409,4.779,-52.119,8.381,-75.439,-63.146,-159.824
2.7445293999999194,2.003,-15.878,-206.089,-33.355,349.996,-4.911,-49.742,12.021,-1.339,10.305,1.5,4.828,-16.7,3.975,-9.333,-7.966,-9.148,30.48,14.463,3.828,-58.581,17.506,31.967,9.897,-50.018,7.86,-78.437,-62.059,-165.812
2.747029300000122,3.538,-19.96,-207.932,-35.371,346.573,-6.955,-46.619,7.91,-2.875,8.245,-2.6,2.774,-13.609,6.02,-14.447,-8.471,-6.577,23.79,9.325,0.75,-59.035,14.415,27.324,8.35,-52.017,6.315,-80.92,-60.972,-169.745
2.75931300000002,11.219,-11.231,-202.089,-14.331,353.911,-3.362,-59.892,30.956,6.862,18.483,8.673,7.894,-10.01,4.99,-10.334,-7.437,-3.497,17.618,10.34,4.336,-49.242,14.913,26.272,10.391,-46.329,10.408,-76.741,-59.886,-163.94
2.759376699999848,11.208,-5.072,-192.153,-5.608,363.291,7.4,-62.906,37.585,26.835,29.735,14.3,11.473,-5.389,3.448,-3.664,-4.868,2.654,20.162,17.502,7.405,-40.484,21.558,33.931,18.578,-36.037,17.057,-74.102,-54.191,-154.042
2.7743383000001813,-0.586,-17.363,-192.473,-16.36,356.267,0.732,-46.962,24.227,15.025,21.509,3.015,7.363,-6.92,3.444,-13.394,-11.011,-0.422,19.117,13.899,0.738,-50.689,18.975,32.36,13.436,-40.099,11.405,-82.225,-59.26,-156.962
2.7744009000002734,-7.245,-25.03,-196.891,-20.955,343.616,-12.076,-31.546,38.036,-4.97,8.68,-1.087,1.72,-10.5,4.465,-21.065,-19.71,-5.033,14.487,9.274,-1.825,-52.688,10.247,24.643,4.201,-46.719,2.684,-87.778,-65.348,-165.002
2.7903050999998413,-4.677,-22.956,-197.207,-24.52,345.321,-3.355,-31.514,44.145,10.917,12.769,3.525,1.718,-8.44,3.949,-17.458,-20.202,3.682,19.596,11.826,-0.286,-43.926,11.261,22.057,4.709,-41.549,3.706,-84.617,-57.086,-161.25
2.7903629000002184,-6.721,-26.519,-199.571,-28.594,345.488,3.821,-30.458,13.363,20.64,11.732,-2.626,2.229,-7.919,3.432,-20.002,-20.182,6.239,25.724,8.741,-5.409,-47.468,10.738,17.424,1.631,-45.094,0.628,-85.557,-50.881,-160.065
2.80430669999987,-10.301,-29.566,-205.007,-19.344,337.458,-2.843,-25.817,10.788,4.737,0.45,-9.284,0.177,-8.936,2.917,-22.543,-20.674,-3.501,23.649,6.17,-6.428,-47.421,4.067,11.259,-8.617,-58.881,-7.057,-92.131,-54.417,-171.688
2.819377700000132,-7.729,-27.487,-206.339,-23.935,341.219,-3.352,-39.111,33.318,10.368,9.158,-0.053,4.276,-3.804,3.426,-17.91,-15.018,-2.985,25.162,11.287,-0.274,-36.615,7.649,13.809,-11.17,-58.822,-4.488,-89.99,-52.825,-176.639
2.819440400000076,0.476,-25.411,-204.595,-38.768,352.149,0.237,-49.83,27.65,28.801,25.543,8.657,11.956,0.811,3.935,-13.794,-11.929,0.092,30.773,14.862,2.288,-33.505,12.252,16.357,-6.548,-53.128,0.127,-82.215,-43.551,-172.364
2.8344725000001745,8.16,-17.188,-204.391,-16.188,354.358,1.262,-42.608,19.938,22.112,22.956,8.136,13.481,-0.215,3.931,-11.218,-12.942,-10.154,31.254,12.286,0.749,-30.397,7.117,10.705,-5.517,-59.223,-1.922,-80.084,-32.749,-173.728
2.834533900000224,5.59,-9.486,-208.285,2.271,349.393,-1.301,-38.467,17.356,7.233,10.638,1.98,4.246,-4.825,2.39,-12.744,-14.978,-17.829,27.637,8.175,-1.301,-27.805,2.499,5.059,-10.122,-68.897,-6.019,-83.59,-28.105,-178.165
2.8493917000000692,-4.149,-15.112,-212.687,-30.006,337.26,-18.206,-31.256,-3.154,-3.021,-1.668,-8.781,-8.054,-14.554,-0.686,-22.465,-25.722,-14.737,24.535,1.507,-5.911,-35.462,-2.114,-1.094,-15.235,-74.464,-9.087,-87.092,-29.102,-178.5
2.8494519999999284,-1.583,-18.683,-213.499,-48.932,332.312,-24.848,-26.614,-0.077,-6.091,-3.204,-9.284,-7.533,-17.101,-3.247,-23.98,-29.794,-12.673,25.023,2.53,-6.417,-32.865,-5.186,-2.118,-16.757,-72.34,-10.102,-86.493,-27.024,-177.809
2.8644835000000057,8.152,-10.98,-215.847,-21.73,344.788,-6.38,-48.617,18.879,8.772,13.193,3.533,4.257,-4.789,0.342,-15.759,-16.957,-10.611,32.17,14.31,1.786,-18.488,7.114,9.155,-10.592,-60.997,-7.531,-83.845,-18.8,-174.045
2.864540600000055,5.582,-7.383,-214.607,-18.635,351.615,-3.3,-54.204,6.565,14.911,18.303,4.042,9.376,-0.173,8.027,-16.768,-11.817,-7.014,36.749,21.981,7.932,-12.321,18.89,20.929,0.177,-52.739,-2.912,-84.786,-11.096,-163.112
2.879494799999975,1.991,-10.962,-204.658,-33.473,344.604,-19.69,-32.12,5.021,2.6,4.965,-5.696,2.707,-8.882,9.043,-20.337,-17.953,-5.983,33.126,20.934,5.875,-9.235,16.31,23.982,8.886,-51.662,2.726,-85.213,-6.474,-155.777
2.8795632999999725,1.476,-14.025,-203.941,-27.804,341.185,-14.035,-39.26,24.484,4.135,2.911,-7.228,-3.956,-11.435,1.35,-18.78,-22.546,-9.563,26.433,15.278,-0.278,-10.251,13.732,23.958,7.852,-49.561,0.674,-86.665,-10.054,-161.256
2.8945435000000543,-9.284,-22.72,-215.008,-34.436,332.135,-9.41,-45.369,6.016,5.155,1.371,-10.806,-11.637,-13.985,-5.312,-23.372,-32.257,-19.287,19.746,7.066,-4.377,-19.462,8.083,16.762,-1.889,-54.634,-8.548,-94.263,-20.802,-170.317
2.8946061000001464,-13.885,-30.382,-212.232,-42.599,321.557,-23.233,-18.683,-9.871,-4.072,-7.34,-17.968,-14.187,-18.069,-5.306,-27.959,-35.298,-24.903,19.214,5.522,-2.835,-14.319,1.927,10.085,-2.912,-60.215,-6.49,-94.169,-21.806,-169.122
2.9098635000000286,3.035,-20.617,-201.773,-14.892,336.604,-15.013,-22.763,12.168,13.351,5.988,-4.63,-1.877,-5.756,-2.74,-20.759,-18.357,-17.706,24.831,13.201,2.291,-0.985,11.659,17.76,6.312,-50.421,5.299,-79.73,-11.538,-161.268
2.9244806000001518,10.716,-12.4,-201.572,-7.192,352.661,0.371,-45.794,14.717,28.195,19.814,8.695,6.834,3.471,-3.249,-15.615,-13.216,-11.541,22.756,13.7,3.313,0.553,16.258,18.254,4.257,-47.297,2.22,-76.576,-11.527,-161.107
2.9245380000002115,3.533,-19.56,-197.784,-34.85,344.624,-11.412,-30.379,7.018,6.649,4.425,-3.097,-1.37,-8.315,-4.27,-22.259,-23.448,-14.603,17.611,10.1,2.285,0.552,7.533,7.478,-3.944,-56.471,-5.979,-86.234,-18.687,-161.97
2.924582200000259,9.678,-13.393,-184.266,-22.007,345.816,-13.962,-22.152,27.503,4.594,-0.703,-4.631,0.681,-8.307,2.394,-20.7,-13.179,-10.49,24.765,17.262,6.893,9.261,15.722,14.642,8.355,-49.242,3.761,-80.0,-9.96,-149.513
2.9395767999999407,19.914,0.965,-174.86,6.704,357.766,0.396,-33.913,29.525,24.057,15.18,11.255,15.025,5.021,10.076,-7.36,1.691,-3.307,33.45,24.929,13.547,16.424,28.002,29.485,21.667,-38.947,15.028,-70.186,-0.216,-138.605
2.9396468999998433,15.796,-6.72,-167.001,-11.233,350.748,-4.215,-25.17,11.052,12.762,11.066,7.145,14.498,2.967,5.455,-3.254,-3.946,-6.378,29.318,20.294,14.045,17.432,20.801,23.307,11.399,-47.617,9.377,-80.362,-5.851,-138.979
2.9546086000000287,12.706,-12.861,-157.1,-23.005,342.713,-9.846,-27.706,19.238,8.651,4.907,-1.059,9.36,-0.11,1.351,-11.96,-6.503,-9.445,24.678,17.2,10.445,15.878,17.194,15.6,8.314,-53.717,3.733,-91.552,-6.87,-133.204
2.9546746000000894,13.206,-3.627,-153.357,-6.076,346.981,-6.25,-49.708,17.682,23.499,14.124,7.139,12.937,6.55,6.473,-19.12,-2.911,-6.874,26.19,18.719,8.898,14.837,19.227,19.17,17.014,-53.151,4.241,-90.948,-0.203,-123.85
2.969586199999867,4.996,-10.283,-149.617,-15.292,343.048,-18.027,-40.949,-3.34,5.032,6.425,4.571,7.288,2.445,6.466,-19.101,-8.031,-7.38,26.164,15.627,6.327,13.286,10.498,16.077,7.264,-59.246,0.651,-88.808,-3.789,-123.213
2.9696475000000646,8.577,-13.859,-130.0,-17.838,343.217,-19.546,-25.026,9.983,-8.805,-0.754,2.005,5.744,-0.631,5.948,-14.471,-5.461,-7.885,28.187,17.148,6.833,12.248,12.537,15.549,-1.453,-54.576,0.65,-80.522,-3.273,-107.209
2.9861492,24.962,10.233,-103.23,14.968,359.78,4.04,-37.809,32.514,23.991,21.276,20.446,22.132,10.641,13.114,-8.309,9.401,-2.754,36.356,28.402,15.536,20.432,26.357,25.779,13.405,-42.738,9.871,-68.146,12.1,-77.9
2.986221900000146,23.912,15.858,-99.028,13.928,361.469,5.06,-46.48,19.674,36.775,27.403,23.499,25.184,11.655,14.638,-5.739,9.904,-1.726,38.369,27.861,16.032,25.535,24.793,27.803,16.466,-52.429,11.398,-69.103,13.112,-76.285
3.000221799999963,8.007,-5.674,-120.446,-16.312,344.714,-14.412,-39.262,9.921,11.635,4.322,5.032,8.765,0.372,7.451,-10.856,-2.401,-8.384,28.596,13.489,4.233,11.165,12.985,16.504,-1.994,-72.357,0.116,-77.743,-6.368,-97.213
3.0002877000001718,2.876,-8.742,-137.232,-12.197,339.759,-12.861,-30.513,15.546,2.914,-1.318,-1.12,3.121,-5.776,3.345,-19.043,-10.596,-15.036,16.785,6.303,-2.943,-1.654,4.263,4.705,-12.238,-76.383,-9.106,-74.079,-15.584,-105.825
3.0146829000000253,-0.713,-7.709,-146.828,-8.086,336.857,-12.336,-24.847,7.846,4.961,0.732,-3.681,0.044,-11.406,-1.269,-28.757,-17.758,-18.095,12.157,5.272,-5.502,-3.702,-4.963,-0.935,-11.713,-73.233,-10.121,-65.808,-17.105,-111.355
3.0147531000002346,-6.348,-18.972,-167.174,-27.034,329.861,-26.668,-33.532,1.691,0.857,-12.588,-12.386,-10.202,-14.98,-5.366,-32.315,-21.838,-18.589,15.731,3.217,-9.595,-10.358,-7.007,3.164,-8.628,-73.159,-9.599,-64.718,-21.699,-126.101
3.0296729000001505,0.318,-14.855,-182.888,-21.884,341.314,-19.981,-45.793,11.935,3.418,-9.502,-6.738,-6.094,-7.281,0.274,-22.549,-15.669,-11.398,22.375,8.337,-3.437,-10.347,1.197,13.407,-0.422,-65.402,-3.954,-61.579,-18.091,-130.073
3.0450777000000926,10.052,-7.155,-185.267,-10.079,352.755,-2.543,-33.964,17.046,4.951,3.828,1.465,3.646,-1.638,5.397,-15.866,-9.505,-3.702,25.427,14.989,3.226,-1.116,4.782,14.93,3.677,-56.115,1.685,-53.833,-11.925,-128.406
3.0451499000000695,3.382,-20.98,-196.352,-29.024,334.984,-13.299,-23.684,6.783,1.873,-5.91,-5.709,-4.042,-6.759,1.293,-25.584,-14.619,-5.748,20.791,9.338,-5.486,-8.799,0.166,8.256,-1.962,-64.255,-3.952,-57.365,-21.135,-141.598
3.0596911000002365,-6.868,-30.693,-211.525,-40.778,322.354,-27.63,-36.981,-3.982,-0.178,-17.175,-12.363,-10.698,-10.339,-1.269,-30.169,-20.752,-9.328,17.184,1.645,-7.53,-20.061,-7.006,2.1,-5.547,-80.073,-11.12,-68.066,-29.31,-155.288
3.0614031999998588,-1.738,-24.003,-210.801,-24.856,336.376,-14.283,-43.604,3.194,-0.178,-6.912,-7.227,-0.441,-5.718,3.855,-21.942,-14.071,-3.683,21.265,6.254,2.723,-12.869,-9.048,2.097,-7.59,-81.53,-9.572,-65.437,-21.596,-153.084
3.0748232999999345,3.387,-24.491,-210.078,-18.683,337.577,-4.535,-43.56,14.462,5.97,-0.245,-0.56,3.658,-1.614,8.974,-21.408,-4.836,-2.143,24.83,7.272,1.696,-14.393,-8.527,3.12,-13.218,-80.423,-11.612,-60.248,-21.063,-154.98
3.0748892999999953,-11.473,-38.299,-223.188,-35.058,316.747,-20.924,-47.615,3.689,6.988,-12.028,-6.195,-6.592,-9.809,6.404,-30.608,-14.052,-10.338,17.633,-5.031,-7.527,-30.772,-16.203,-6.105,-19.352,-91.614,-20.309,-67.873,-35.898,-170.194
3.089851600000202,-23.757,-49.531,-237.31,-51.929,307.721,-33.198,-39.37,-10.147,-8.9,-25.335,-21.046,-13.758,-20.045,-1.8,-33.651,-28.383,-11.352,12.492,-9.124,-10.593,-36.377,-22.334,-12.759,-22.407,-95.621,-23.875,-72.928,-43.035,-179.758
3.089914300000146,-19.635,-50.506,-241.171,-60.587,312.024,-27.53,-28.06,-5.014,-14.527,-25.31,-25.123,-14.256,-18.488,-2.822,-32.081,-25.793,-5.705,17.603,-2.967,-10.583,-37.365,-18.726,-6.598,-21.36,-87.84,-22.314,-70.806,-38.381,-177.529
3.1047742999999173,-18.591,-50.968,-240.417,-61.551,309.15,-25.453,-31.106,-1.935,-1.192,-19.137,-17.413,-14.242,-13.859,3.84,-33.585,-19.62,-6.724,19.634,-2.964,-10.06,-42.963,-17.683,-4.03,-18.265,-85.191,-21.267,-70.223,-37.318,-177.864
3.1048337000001993,-21.134,-54.503,-239.152,-53.292,306.792,-29.526,-38.247,-7.056,3.932,-19.118,-15.859,-10.642,-12.821,6.398,-33.552,-19.088,-7.23,19.615,-3.986,-6.976,-39.334,-15.616,-4.026,-14.148,-81.52,-15.611,-66.054,-36.768,-178.71
3.1198229999999967,-12.403,-48.301,-235.839,-42.993,315.194,-24.886,-44.869,-0.902,2.904,-19.099,-12.769,-3.459,-9.734,7.416,-27.883,-12.409,-0.562,26.767,3.703,-1.334,-35.196,-0.231,7.249,-6.449,-69.655,-9.96,-61.377,-30.072,-173.921
3.1215265000000727,-10.342,-40.568,-228.431,-42.438,316.928,-19.225,-41.75,5.759,1.364,-16.006,-7.634,-0.894,-8.187,9.458,-24.269,-5.224,0.975,31.864,8.822,2.766,-39.259,7.454,14.926,-0.807,-65.999,-9.95,-64.39,-26.455,-168.112
3.1349006000000372,-15.967,-41.552,-223.08,-43.932,309.439,-21.255,-24.29,5.241,-4.785,-15.99,-10.7,-1.917,-11.253,7.912,-25.782,-7.268,-1.587,28.246,9.838,1.739,-39.22,2.323,12.35,-1.831,-69.007,-10.964,-64.325,-27.454,-165.894
3.1499312000000828,-8.266,-36.9,-225.418,-36.716,313.228,-17.648,-28.877,9.847,2.392,-12.9,-7.615,-0.379,-8.168,8.416,-23.707,-6.748,-1.074,27.193,12.39,1.225,-35.595,5.395,13.874,-2.854,-67.401,-8.392,-59.65,-21.278,-162.654
3.149995100000069,-1.085,-26.617,-224.168,-32.068,325.723,-11.483,-43.705,5.738,13.148,-7.252,1.102,3.208,-4.061,11.482,-20.609,-2.131,-1.072,29.215,10.84,3.785,-37.096,10.513,13.86,-1.314,-65.797,-5.31,-58.053,-12.548,-156.856
3.150039099999958,-3.646,-23.004,-217.796,-29.987,327.446,-15.57,-30.853,-1.952,5.45,-8.269,-1.973,6.791,-4.569,9.933,-23.662,-1.616,-2.608,26.624,9.805,3.781,-35.01,9.99,10.26,0.224,-67.268,-4.792,-56.971,-9.462,-151.064
3.165305399999852,0.969,-20.932,-217.066,-22.785,327.631,-16.066,-33.896,12.907,11.08,-4.675,1.615,9.346,0.046,12.485,-23.126,1.459,0.468,26.597,15.43,3.777,-31.389,14.078,13.324,-0.289,-67.201,-4.275,-53.84,-9.452,-149.376
3.1653707999998915,5.578,-18.862,-215.824,-20.713,330.89,-12.464,-56.404,25.189,22.852,2.502,11.859,9.849,2.607,16.571,-17.468,7.605,2.005,31.182,15.927,8.384,-35.456,14.577,14.335,-1.313,-70.72,-3.758,-50.712,-10.467,-149.739
3.1799512000002323,5.573,-15.257,-202.801,-21.204,334.145,-15.526,-23.56,11.844,2.849,-6.722,6.724,11.376,-5.08,13.993,-16.426,9.647,2.515,34.224,13.862,7.864,-35.42,10.976,12.272,-0.799,-73.21,-2.73,-44.514,-8.408,-143.954
3.1817442000001392,15.301,-2.434,-192.864,-9.4,346.106,-9.875,9.251,7.734,-5.863,-10.814,8.255,16.487,-4.05,16.028,-13.335,13.736,11.222,36.239,21.02,8.368,-27.188,19.674,20.456,3.812,-65.453,1.371,-38.834,0.822,-135.101
3.194972400000097,20.921,1.667,-200.868,-1.194,358.055,0.894,-23.033,25.145,22.32,5.079,20.029,20.569,6.712,21.135,-7.174,20.382,16.333,36.715,23.561,13.995,-28.698,23.753,24.534,3.809,-65.387,1.882,-41.357,-0.203,-140.089
3.1950369000001047,5.531,-14.728,-215.524,-17.074,344.377,-11.403,-50.675,21.533,21.785,4.049,9.251,14.913,4.144,13.429,-13.827,13.189,7.096,29.506,11.242,7.834,-42.501,10.409,12.214,-7.466,-81.716,-8.366,-52.586,-19.671,-159.929
3.2089952999999696,-9.331,-32.644,-222.481,-37.549,318.418,-25.736,-26.033,-5.128,-6.414,-13.373,-7.152,-0.471,-9.692,6.243,-25.084,-4.242,-0.084,22.817,3.034,-4.47,-53.217,2.202,3.493,-15.656,-91.88,-19.116,-64.829,-37.069,-171.552
3.223985200000243,-10.859,-38.247,-222.259,-40.586,312.464,-18.025,-31.13,-13.32,-1.796,-11.311,-4.071,-5.593,-12.756,10.336,-26.084,-10.898,-1.108,21.769,2.006,-1.904,-55.213,3.224,6.563,-14.103,-89.227,-17.56,-64.764,-38.569,-169.331
3.224047900000187,-8.799,-36.672,-217.938,-31.836,317.274,-13.397,-52.104,5.649,11.525,-4.639,-1.506,3.122,-7.108,9.813,-24.008,-5.252,-2.644,20.723,1.492,3.734,-54.133,5.27,11.68,-13.064,-85.551,-11.395,-53.941,-37.506,-165.576
3.2390103000002455,-8.79,-34.074,-215.159,-29.242,312.859,-20.556,-32.072,18.451,-4.368,-13.344,-7.652,1.069,-8.126,4.68,-25.521,-4.734,-2.641,20.702,4.052,-0.881,-56.641,8.851,10.644,-14.588,-84.441,-12.408,-54.399,-40.03,-168.996
3.239067299999988,-13.392,-37.113,-216.993,-36.898,307.423,-21.047,-20.257,7.674,-11.023,-16.405,-10.718,-8.153,-16.827,4.163,-28.57,-11.902,-0.59,19.657,4.048,-2.929,-64.269,5.256,6.534,-16.11,-84.869,-15.982,-67.153,-41.015,-173.438
3.2541019999998753,-15.428,-37.076,-219.337,-40.447,311.214,-16.928,-35.606,-4.629,5.894,-9.728,-9.17,-3.022,-15.785,6.72,-29.566,-10.865,0.436,19.637,5.068,0.148,-65.229,2.177,9.602,-14.557,-84.784,-11.867,-69.135,-37.387,-169.678
3.2541685000001053,-7.216,-28.842,-216.556,-30.673,318.075,-18.448,-32.496,1.011,8.45,-8.694,-5.575,5.178,-6.036,10.3,-25.95,-3.17,4.021,24.228,9.674,1.172,-61.065,10.884,17.277,-8.907,-80.601,-5.708,-62.405,-34.788,-164.386
3.269085200000063,-4.647,-30.35,-213.778,-22.957,316.732,-18.429,-26.316,8.182,-1.805,-10.222,-5.569,0.562,-8.079,11.314,-23.875,-4.703,1.968,21.643,6.078,-0.366,-64.078,10.361,13.673,-7.874,-80.52,-9.288,-62.343,-36.291,-166.27
3.269148800000039,-10.278,-37.492,-215.101,-23.959,312.317,-15.849,-41.147,1.514,0.246,-10.212,-8.638,-3.537,-15.243,7.204,-26.412,-9.822,-1.108,13.936,0.437,-2.927,-67.6,0.617,9.561,-12.477,-85.563,-15.427,-62.281,-37.791,-166.104
3.285152299999936,-6.681,-27.209,-211.812,-21.374,316.615,-14.809,-44.692,-0.025,4.857,-10.714,-5.043,1.077,-9.593,9.246,-24.337,-3.664,6.066,22.119,9.146,-0.363,-60.873,10.862,19.286,-4.78,-80.354,-8.751,-58.632,-31.606,-156.717
3.2852175000002717,-3.601,-18.985,-206.99,-20.84,319.373,-17.868,-34.401,8.685,3.315,-9.166,-2.989,2.613,-6.509,12.823,-23.8,0.438,9.133,30.806,12.723,2.711,-58.25,18.536,23.877,6.496,-74.638,-1.058,-56.524,-25.939,-152.461
3.299151900000197,-13.331,-29.212,-212.418,-33.114,311.369,-22.973,-31.805,1.504,-0.787,-15.817,-12.719,-6.611,-15.724,5.638,-33.51,-11.858,1.952,17.456,0.415,-4.976,-65.877,3.148,12.582,-4.269,-87.884,-8.229,-53.906,-31.548,-159.993
3.2992161000001943,-16.904,-31.744,-217.329,-40.766,306.446,-28.586,-29.724,-15.916,-8.983,-23.998,-17.317,-13.265,-19.807,2.046,-39.112,-19.531,1.95,10.266,-3.172,-8.557,-65.298,0.071,8.471,-16.56,-99.067,-15.393,-50.779,-39.714,-166.493
3.3141718000001674,-7.153,-21.466,-211.988,-28.942,314.849,-27.532,-35.842,-7.191,-5.9,-14.24,-5.517,-2.493,-12.615,14.34,-32.413,-8.24,9.12,22.039,8.614,1.698,-52.938,15.44,21.271,-3.224,-89.746,-7.693,-45.092,-36.088,-168.376
3.314237200000207,2.588,-14.785,-210.24,-15.081,327.342,-15.209,-56.81,13.821,14.086,3.705,5.759,12.367,-2.868,19.961,-23.671,5.088,10.648,25.091,15.266,5.282,-40.077,20.036,29.959,9.075,-81.972,2.049,-36.85,-26.83,-166.159
3.3291674000001876,2.073,-13.233,-201.32,-13.529,329.064,-2.899,-56.754,10.221,16.121,4.726,4.217,8.256,-2.865,9.695,-21.086,2.009,6.539,14.307,9.615,-1.896,-36.963,16.429,21.732,1.894,-89.062,-1.54,-36.301,-29.877,-158.82
3.329232200000206,-11.761,-16.806,-173.966,-14.54,314.39,-13.142,-31.594,-4.646,-5.925,-10.136,-9.62,-7.634,-18.744,0.463,-27.725,-12.338,-1.664,5.583,0.384,-8.041,-43.074,9.753,10.951,-7.33,-100.244,-11.784,-48.048,-41.118,-152.514
3.3442027000000962,-21.483,-20.375,-159.96,-9.402,306.391,-30.547,-24.902,-6.179,-9.505,-18.323,-18.832,-13.262,-25.898,-1.074,-34.357,-19.498,-7.298,3.529,-4.227,-11.619,-39.445,3.083,9.404,-9.884,-106.804,-12.797,-52.098,-43.638,-149.287
3.344264700000167,-6.605,-8.06,-162.874,3.415,323.503,-21.295,-32.562,6.123,6.898,-8.571,-4.981,-3.002,-11.015,3.538,-24.589,-6.158,0.906,8.648,2.949,-6.997,-20.45,15.376,17.079,-2.702,-102.598,-0.489,-41.288,-34.373,-145.04
3.359160100000281,10.308,6.293,-153.49,23.391,340.598,-2.831,-24.332,29.171,8.429,3.733,13.467,10.833,-2.295,9.17,-14.831,9.217,6.028,11.201,10.119,4.793,-8.646,28.68,24.234,10.621,-95.323,7.708,-33.05,-24.605,-143.358
3.359219899999971,4.15,0.651,-149.75,25.929,335.647,-7.439,-21.747,33.24,-0.801,-0.881,5.257,7.236,-10.489,6.599,-25.062,0.499,-2.175,5.554,2.424,1.714,-7.613,17.381,20.111,6.512,-102.4,0.528,-39.677,-26.63,-149.362
3.3742975999998635,-8.662,-13.694,-165.482,1.825,325.065,-16.653,-42.729,6.567,3.81,-8.565,-9.093,-4.554,-15.09,0.445,-35.283,-12.822,-6.783,-0.599,-8.337,-10.583,-2.995,6.605,10.357,-8.864,-114.081,-7.157,-50.395,-41.46,-158.946
3.389263800000208,-12.24,-19.828,-173.001,-12.009,318.592,-11.513,-51.908,1.437,9.954,-7.532,-8.059,-5.574,-16.611,-0.58,-31.662,-13.321,-5.752,-3.672,-6.279,-12.109,1.107,10.184,9.835,-9.88,-119.09,-7.15,-52.394,-55.251,-171.083
3.38932879999993,-14.789,-24.419,-175.389,-7.899,310.589,-16.113,-28.29,20.391,-5.937,-15.721,-11.637,-9.667,-21.206,-3.141,-33.167,-16.894,-5.746,-6.742,-4.736,-12.097,1.618,4.539,11.362,-8.333,-123.069,-13.802,-55.928,-61.343,-179.621
3.40465230000018,-15.799,-27.98,-177.776,-11.989,308.742,-30.953,-10.843,5.514,-19.764,-25.439,-19.823,-18.367,-22.721,-4.675,-40.306,-23.025,-4.203,-4.174,-8.318,-16.696,7.764,1.46,7.764,-13.448,-122.946,-17.375,-59.971,-56.159,-172.781
3.4047144000001026,-7.074,-20.78,-167.864,-5.829,315.093,-27.849,-29.276,-13.96,-4.375,-13.119,-12.118,-10.152,-19.112,2.502,-37.192,-16.342,-0.613,1.466,-4.211,-13.605,16.465,13.242,13.392,-4.213,-114.114,-7.111,-53.251,-43.295,-157.752
3.419258500000069,-3.993,-14.099,-167.184,10.058,315.802,-19.111,-46.153,3.473,7.925,-4.908,-4.934,-1.945,-14.995,7.623,-33.056,-11.715,0.924,1.976,-1.133,-7.956,21.06,14.253,17.989,4.501,-110.926,-6.079,-55.759,-44.789,-159.131
3.419317200000023,-16.284,-25.356,-186.484,-9.932,305.241,-28.826,-28.176,8.08,-10.526,-24.371,-15.687,-12.189,-17.541,5.566,-40.708,-17.338,2.973,-1.612,-9.841,-12.559,20.014,0.407,7.725,-11.385,-120.549,-18.369,-74.659,-61.65,-175.878
3.4343156999998428,-20.879,-36.602,-196.032,-37.075,301.349,-34.433,-10.729,-6.785,-19.737,-34.593,-20.795,-13.201,-23.159,7.609,-44.766,-19.37,4.507,-2.635,-14.954,-18.182,18.969,-2.155,0.545,-22.132,-128.625,-19.887,-78.17,-69.273,-183.899
3.436044800000218,-10.099,-29.905,-196.348,-22.693,314.88,-24.152,-24.551,4.493,-0.762,-18.677,-10.528,-2.942,-18.013,9.651,-36.012,-12.691,6.551,-0.07,-7.767,-16.114,21.0,3.483,4.131,-16.987,-127.985,-14.744,-64.26,-70.228,-184.74
3.4493750000001455,-8.552,-26.801,-201.787,-13.449,322.25,-19.517,-37.334,12.173,5.899,-11.486,-7.443,-2.939,-13.897,9.129,-30.34,-9.604,11.156,0.442,-5.71,-11.487,19.954,3.479,2.077,-20.044,-125.807,-18.828,-65.22,-77.843,-188.141
3.449442099999942,-17.253,-34.971,-202.61,-32.391,312.194,-24.621,-32.686,-5.258,-8.452,-20.696,-14.096,-5.497,-19.006,13.218,-36.457,-13.693,13.194,-1.095,-9.29,-13.013,15.323,1.939,0.026,-23.098,-125.682,-21.883,-77.962,-78.277,-189.49
3.464372800000092,-14.162,-31.862,-197.796,-32.87,311.369,-23.059,-39.825,-6.789,-7.419,-19.651,-11.52,-1.906,-16.937,15.767,-38.47,-13.167,10.107,3.004,-4.67,-14.024,18.382,9.109,6.174,-12.829,-123.507,-13.152,-73.274,-66.928,-184.177
3.464436400000068,-0.315,-16.461,-194.525,-15.931,326.427,-13.302,-55.155,1.927,4.372,-5.799,1.299,2.195,-6.674,12.677,-27.161,-4.445,10.097,7.612,4.556,-7.35,26.56,21.395,13.34,-6.156,-116.211,-2.893,-55.782,-56.103,-175.284
3.4794268999999076,6.345,-7.223,-183.572,-8.231,330.711,-8.166,-41.779,1.412,10.515,-0.67,10.519,8.34,-3.594,16.251,-16.888,2.732,15.21,6.067,9.674,-1.195,27.046,28.034,22.036,-2.051,-107.898,2.233,-47.017,-43.239,-162.301
3.4794950000000426,7.876,-2.605,-169.044,-0.026,325.258,-9.695,-17.659,15.243,15.115,-3.743,9.996,12.43,-5.639,22.382,-16.871,4.778,17.756,8.623,12.739,0.343,25.995,29.03,28.161,6.148,-101.642,4.793,-45.945,-33.974,-153.429
3.494383000000198,7.355,-2.09,-170.411,2.536,325.445,-12.759,-21.74,32.646,9.977,-8.35,3.326,5.245,-7.171,17.236,-19.928,0.675,13.64,10.663,10.164,-0.682,24.944,31.051,24.547,5.629,-101.028,6.325,-42.825,-39.576,-155.837
3.496238600000197,4.274,-6.699,-181.512,-2.077,322.045,-12.746,-27.866,21.343,-0.791,-12.44,-1.8,0.629,-12.287,9.535,-20.932,-5.473,6.966,3.993,4.006,-3.243,21.333,31.532,19.912,1.013,-104.001,4.781,-42.27,-45.171,-162.342
3.5094953000002533,5.295,-6.692,-179.281,0.998,321.211,-9.66,-8.883,7.489,6.382,-6.792,4.862,5.752,-12.274,11.062,-20.399,-0.345,6.959,3.989,5.539,-2.215,23.361,30.988,22.966,4.086,-103.385,4.777,-41.716,-38.466,-159.105
3.50955359999989,6.826,-3.1,-166.806,-4.126,328.574,-6.064,3.934,17.216,17.134,1.924,13.566,10.869,-6.114,14.637,-19.354,8.365,10.026,7.059,8.608,1.373,27.436,31.469,21.918,2.545,-101.744,6.821,-34.502,-37.403,-153.823
3.5244495000001734,0.672,-9.756,-169.713,-18.978,325.172,-8.107,-9.39,30.519,6.871,-2.689,7.405,6.76,-8.158,11.549,-21.896,0.16,5.917,-1.145,1.427,-5.288,18.187,25.29,13.187,-7.192,-107.79,1.691,-35.492,-47.1,-160.329
3.5245143000001917,-3.94,-17.431,-178.253,-14.861,316.138,-11.685,-20.652,28.951,1.741,-8.834,-2.336,-0.419,-13.785,6.414,-25.461,-10.087,1.813,-7.804,-5.747,-11.431,10.996,15.531,6.514,-10.771,-112.293,-6.507,-45.702,-52.176,-166.829
3.5398300000001655,-1.887,-12.291,-170.902,-1.014,316.846,-7.062,-16.02,18.676,10.448,-3.19,1.764,1.118,-10.697,8.969,-22.874,-5.978,4.373,-3.698,-4.717,-5.784,16.108,16.028,8.556,-6.661,-106.546,-5.476,-46.169,-49.049,-157.953
3.5398912000000564,-2.909,-8.692,-166.121,-0.5,314.48,-8.08,-5.246,22.756,7.364,-6.26,4.324,4.703,-11.199,12.034,-23.363,-3.923,5.393,-1.133,-1.638,-4.753,17.629,20.11,13.671,-2.556,-99.267,-2.397,-46.635,-48.488,-152.672
3.5544435000001613,-1.37,-12.27,-169.028,2.574,312.116,-14.22,-4.728,44.25,4.283,-10.865,-0.291,2.649,-14.774,7.411,-28.463,-5.456,5.388,-0.107,1.95,-6.286,15.562,22.139,16.219,0.52,-91.483,-0.858,-48.638,-52.538,-157.13
3.5695731999999225,9.39,-6.622,-160.663,18.965,326.661,-0.373,-23.166,44.206,26.308,8.101,10.98,9.307,-3.488,8.941,-21.262,4.283,10.505,5.016,8.608,2.43,24.256,31.851,20.813,8.204,-82.17,7.34,-37.831,-46.85,-147.751
3.5696364999998877,13.992,1.581,-154.866,22.02,335.044,8.336,-35.951,14.448,33.454,19.364,19.678,18.006,2.151,16.616,-13.556,9.402,11.519,5.011,8.599,0.891,28.33,33.869,22.33,10.245,-84.137,11.944,-33.694,-38.094,-137.87
3.584599199999957,6.293,-2.519,-161.372,-1.056,320.876,-15.75,-11.837,7.261,1.145,-6.271,1.216,6.205,-14.245,9.94,-21.227,-2.39,4.336,-0.117,2.443,-11.918,20.617,22.564,16.159,1.014,-93.787,4.759,-40.833,-40.618,-145.929
3.584665899999891,7.311,-1.492,-156.599,-9.764,315.945,-23.419,13.278,33.894,-12.176,-16.511,-5.446,0.052,-17.817,0.708,-19.157,-2.388,6.381,1.932,6.539,-5.758,24.695,26.64,18.193,3.574,-89.082,7.828,-31.571,-35.966,-144.246
3.5995605000002797,20.624,11.318,-149.271,14.837,335.609,5.293,-5.178,47.18,20.624,11.17,19.663,19.007,1.668,12.491,-4.793,15.545,20.719,9.103,18.315,6.543,36.454,43.519,29.445,17.915,-78.235,19.091,-23.342,-20.049,-126.171
3.599619900000107,19.579,10.282,-156.294,20.457,341.421,10.924,-30.788,34.837,33.923,18.332,23.229,24.623,4.741,17.601,-9.911,17.579,26.846,6.532,15.223,3.462,33.343,40.402,27.366,13.799,-76.619,13.437,-37.151,-23.615,-125.533
3.6146263000000545,5.215,-4.586,-159.211,-8.253,321.612,-10.092,-29.22,18.408,5.2,-2.691,2.202,7.692,-11.146,7.338,-21.172,2.704,21.696,-1.671,6.499,0.385,26.138,27.554,18.63,0.977,-75.006,3.177,-44.799,-40.497,-134.629
3.614683199999945,3.16,-10.729,-154.441,-13.367,312.581,-13.156,-17.92,14.804,-7.613,-4.226,2.712,5.636,-12.159,9.379,-16.028,1.165,23.723,2.429,10.079,1.922,30.21,30.6,21.173,6.099,-72.882,8.297,-39.631,-44.555,-133.469
3.629645200000141,8.792,-6.619,-154.799,5.601,321.49,-5.97,-2.533,30.671,3.665,5.0,9.369,16.388,-2.926,20.128,-13.963,9.873,33.433,11.648,14.679,0.383,32.741,34.668,22.689,7.63,-75.37,10.85,-40.616,-41.949,-134.36
3.6297073999999157,9.808,-3.027,-154.132,7.133,324.755,-4.427,6.691,48.571,13.395,4.995,6.798,20.47,0.664,21.645,-15.998,13.449,33.912,11.124,14.665,4.481,33.733,32.072,19.08,2.499,-68.635,9.815,-37.501,-35.76,-138.837
3.6446779000002607,11.335,0.05,-150.904,8.662,327.504,3.262,-6.124,42.887,25.165,13.699,13.451,23.011,3.224,21.111,-9.834,13.948,27.218,12.137,19.261,8.575,38.822,35.626,24.696,10.182,-60.369,17.49,-33.365,-24.453,-135.624
3.6447384000002785,6.713,-3.024,-155.876,13.777,325.127,1.721,0.543,26.45,22.066,15.735,11.389,17.865,0.66,16.479,-14.947,5.737,19.507,16.224,16.168,-0.143,33.661,32.516,25.696,9.659,-67.481,12.862,-47.164,-25.453,-133.952
3.6599890000002233,-7.126,-12.755,-160.843,-3.143,308.408,-13.649,33.33,23.35,4.113,-2.724,-5.017,4.528,-8.05,8.266,-30.814,-8.101,9.241,8.011,1.294,-7.315,21.332,18.652,13.887,-5.208,-73.561,-1.496,-58.9,-33.112,-139.965
3.660052700000051,-6.606,-12.229,-159.146,-11.337,307.587,-12.099,30.735,32.548,12.306,-2.209,-1.938,4.523,-8.555,9.282,-28.222,-10.654,4.621,1.855,1.293,-4.746,23.359,16.584,8.75,-5.202,-69.389,0.042,-55.255,-22.321,-139.825
3.6746406000002025,5.183,-2.483,-155.4,8.142,320.6,-0.816,9.699,40.2,26.126,10.089,6.773,7.592,-5.984,10.81,-18.46,-6.033,5.641,9.538,8.976,-2.692,29.996,19.129,10.791,-1.611,-71.369,4.141,-61.86,-8.978,-134.562
3.674699099999998,2.104,-2.993,-152.683,14.794,313.107,-6.451,20.961,35.037,11.243,1.882,-2.455,-1.124,-13.663,4.652,-22.54,-9.613,1.025,11.065,0.771,-3.714,25.868,8.351,1.558,-11.343,-77.446,-2.011,-81.778,-12.556,-136.477
3.6897711000001436,-4.558,-6.576,-152.018,5.045,305.109,-9.518,26.063,22.194,8.158,1.88,-2.965,-2.66,-15.699,4.135,-25.591,-12.677,-3.587,5.931,-4.866,-5.76,24.305,1.17,-8.689,-17.48,-77.368,-4.57,-89.381,-14.592,-138.39
3.6898353999999927,1.082,-0.422,-145.206,5.04,315.562,-2.336,10.155,21.659,22.494,13.149,3.698,2.465,-8.511,5.667,-22.491,-9.591,1.539,13.097,4.361,-6.266,27.867,6.805,-6.119,-17.462,-75.754,-7.127,-86.218,-7.405,-132.104
3.7047874999998385,1.593,4.701,-138.401,10.671,314.222,-8.994,12.706,34.958,18.373,2.889,-3.478,0.414,-8.502,4.637,-23.494,-10.094,3.587,20.769,5.381,-3.699,25.277,7.822,-3.039,-20.006,-78.24,-12.243,-89.205,-3.812,-128.386
3.704854200000227,-1.994,2.135,-150.558,14.246,302.637,-14.62,12.181,43.632,13.232,-4.798,-5.524,0.926,-9.006,8.731,-25.007,-11.62,1.022,22.285,2.814,-2.67,24.227,4.741,-3.036,-19.986,-79.698,-8.133,-94.751,-4.32,-138.503
3.7197464999999283,3.131,0.084,-165.777,13.207,301.31,-6.921,4.997,37.441,17.83,2.379,0.117,2.974,-4.898,12.308,-23.445,-7.51,2.046,23.8,9.984,-2.668,30.863,8.322,1.065,-19.454,-78.082,-3.001,-95.681,-6.878,-153.734
3.7198192000000745,-0.971,-3.502,-153.316,2.436,293.836,-8.451,22.923,23.571,9.615,-3.771,-8.08,-4.201,-8.992,8.198,-23.934,-9.04,-2.055,16.604,7.924,-1.64,30.32,9.338,2.089,-21.484,-76.467,-11.195,-91.999,-11.481,-152.043
3.734784700000091,-10.704,-5.548,-135.744,-1.153,283.809,-16.127,30.072,15.863,7.044,-10.427,-17.805,-10.857,-15.643,1.529,-24.422,-19.277,-12.811,4.292,-3.867,-5.737,20.556,-0.405,-5.086,-24.024,-77.927,-17.844,-90.371,-14.031,-141.133
3.734844300000077,-8.132,-4.518,-142.268,11.144,289.16,-10.988,11.087,23.019,15.233,-3.757,-13.689,-10.846,-13.066,-3.595,-23.886,-26.43,-17.922,2.75,-4.375,-11.367,17.974,-7.064,-10.716,-29.635,-85.534,-15.265,-92.329,-18.628,-150.213
3.750318700000207,-4.025,-3.489,-148.786,22.915,293.994,-5.854,6.465,35.804,9.071,-2.728,-10.602,-13.397,-14.077,-5.641,-30.009,-26.916,-18.928,3.26,-1.809,-9.818,21.03,-3.471,-9.168,-31.655,-90.571,-13.713,-88.139,-24.757,-169.531
3.750414600000113,-6.07,-2.973,-139.415,25.454,288.065,-10.971,3.384,39.867,6.5,-2.213,-14.177,-15.433,-18.162,-4.611,-32.541,-27.913,-20.446,-1.354,-7.443,-8.784,19.984,-3.468,-8.647,-28.549,-87.919,-17.285,-77.292,-22.171,-169.361
3.7648674000001847,-1.453,-1.433,-137.739,22.355,287.264,-16.083,-11.476,34.191,14.178,-0.162,-14.163,-15.417,-17.119,-8.704,-25.336,-30.959,-21.963,-4.939,-11.021,-12.874,17.402,-10.636,-13.249,-32.107,-84.758,-20.342,-76.19,-20.1,-167.655
3.780865400000039,1.11,-0.919,-144.774,18.746,290.051,-14.53,-0.706,31.596,8.528,-9.383,-13.124,-17.451,-16.077,-14.843,-23.262,-31.953,-25.015,-6.983,-9.473,-11.836,19.947,-11.138,-14.772,-36.173,-85.697,-21.346,-77.139,-28.789,-179.783
3.7809281999998348,2.646,3.18,-138.481,23.338,292.322,-8.368,16.201,37.199,6.983,-9.374,-9.525,-13.848,-12.987,-11.242,-25.287,-23.724,-22.428,-2.878,-2.292,-5.677,26.587,-0.881,-6.048,-29.477,-81.513,-14.152,-62.717,-25.686,-176.017
3.794907400000284,18.012,16.497,-125.535,40.733,308.424,-0.675,1.84,41.261,25.419,11.64,2.78,3.072,-1.191,-0.473,-14.504,-3.72,-7.036,13.007,10.518,2.526,35.782,12.44,9.327,-14.078,-67.599,1.743,-48.309,-3.631,-153.812
3.794969900000069,29.777,27.751,-130.02,58.623,325.534,7.523,-11.994,37.121,35.128,22.387,15.585,15.877,2.908,5.163,-6.805,8.579,1.68,23.752,17.168,9.183,42.918,21.137,18.027,-0.744,-57.286,9.939,-50.31,8.156,-149.559
3.8099348999999165,13.354,15.428,-143.21,43.708,312.913,-0.17,-0.711,22.227,20.236,6.995,4.811,4.59,-8.878,3.109,-20.63,-3.725,-4.982,12.458,5.88,2.002,36.215,10.87,7.763,-7.916,-64.913,-0.317,-61.018,-5.685,-162.73
3.8116777999998703,-6.64,-7.641,-149.727,11.389,286.985,-26.809,10.56,12.471,-2.326,-15.553,-21.322,-15.394,-20.652,-0.993,-34.954,-21.652,-8.563,0.662,-6.934,-11.32,21.834,-7.072,-9.151,-26.863,-82.779,-12.613,-67.617,-23.098,-168.202
3.824912300000051,-2.535,-6.609,-148.553,5.23,291.821,-27.807,-7.381,33.463,2.799,-14.513,-18.227,-10.256,-14.483,2.082,-29.284,-18.557,-1.382,7.834,-2.828,-9.26,22.837,-3.479,-9.655,-26.324,-84.233,-12.088,-63.451,-20.513,-163.936
3.8249785000002703,3.103,6.205,-147.892,38.012,306.898,-1.139,-34.526,55.459,29.949,8.043,2.284,3.587,-0.124,7.715,-21.058,-11.366,4.255,15.51,3.322,-5.664,27.425,3.185,-2.473,-19.125,-74.415,-9.002,-61.339,-15.882,-162.235
3.8400213999998414,-13.294,-6.609,-154.916,31.314,286.611,-11.897,-16.048,29.276,17.623,0.35,-14.112,-10.761,-7.809,2.584,-31.283,-25.187,-0.873,5.761,-7.44,-17.442,11.004,-11.163,-12.204,-30.889,-77.927,-17.702,-74.597,-29.698,-171.806
3.8401020999999673,-23.527,-21.459,-157.323,-0.992,263.271,-40.062,16.755,-1.492,-14.67,-26.802,-37.664,-27.144,-25.732,-5.103,-41.498,-36.432,-5.483,3.706,-13.58,-22.035,2.796,-15.251,-13.729,-31.883,-77.849,-21.783,-81.183,-36.329,-177.27
3.8549980000002506,-7.622,-10.167,-145.383,14.378,282.475,-22.091,2.906,20.026,0.714,-12.943,-16.622,-12.773,-16.485,2.075,-30.185,-21.539,3.232,17.535,-1.271,-8.693,20.212,2.183,5.24,-11.359,-57.791,-8.441,-65.22,-17.849,-161.723
3.8550592000001416,0.071,-3.497,-141.139,27.171,299.611,-8.236,-18.614,43.06,17.62,4.488,-1.748,-2.514,-6.734,6.683,-21.446,-11.784,4.766,15.98,1.804,-5.098,21.728,4.743,5.235,-11.347,-53.635,-3.822,-57.983,-13.22,-148.754
3.8689469999999346,-8.126,-13.739,-149.707,6.139,286.504,-24.622,-1.689,26.623,-0.841,-11.91,-19.165,-14.294,-16.461,-4.594,-28.084,-20.481,-9.071,3.669,-7.419,-11.241,10.436,-1.41,-6.553,-22.607,-68.95,-12.015,-65.097,-26.015,-154.753
3.8708086999999978,3.153,-5.529,-140.336,25.601,297.488,-6.154,-13.983,17.375,20.677,2.446,-5.826,-5.058,-5.174,-4.077,-19.859,-7.653,-0.865,17.498,4.371,1.066,23.745,12.424,8.823,-8.752,-63.758,-1.757,-57.859,-17.792,-148.963
3.8840241000002607,22.105,10.871,-120.215,58.363,327.417,18.443,-41.121,28.116,53.444,32.67,23.894,20.05,12.762,11.296,-1.396,16.433,21.165,35.923,22.298,16.434,37.042,24.707,22.134,3.552,-49.862,13.102,-47.555,-3.43,-133.445
3.8840860999998768,14.398,0.614,-124.193,34.738,316.843,-8.728,-8.292,26.551,21.115,7.534,10.038,13.882,-3.645,10.26,-7.543,8.732,14.996,21.543,13.054,7.709,23.685,15.461,5.206,-13.87,-62.108,1.306,-51.606,-14.697,-144.07
3.8990653999999267,1.576,-15.781,-137.389,10.113,295.01,-25.626,24.504,21.401,-11.182,-18.601,-9.44,-2.014,-15.936,-3.07,-20.343,-6.134,2.686,6.152,0.233,-2.545,14.439,6.224,-7.607,-29.225,-81.513,-12.528,-54.116,-30.564,-165.443
3.899129599999924,10.796,-8.593,-135.203,25.984,311.108,-2.546,-3.185,33.675,14.445,6.008,7.475,9.259,-0.039,-0.505,-12.126,5.656,11.904,14.343,8.43,6.679,19.036,9.803,-1.452,-23.048,-80.919,-5.343,-43.816,-29.509,-162.203
3.9144728000001123,21.544,5.761,-133.018,33.643,327.191,6.166,-26.748,45.937,47.218,23.933,21.3,22.058,7.133,8.717,-2.892,16.921,16.503,18.939,14.569,12.82,21.578,14.404,0.086,-18.927,-75.203,0.298,-35.575,-22.307,-152.82
3.9145355000000563,18.961,5.242,-139.033,25.412,319.179,0.524,-16.475,41.28,39.999,16.225,16.668,17.425,2.515,8.196,-5.963,12.293,8.802,14.822,7.382,5.635,18.483,11.829,-2.988,-24.543,-78.714,-3.801,-39.126,-22.284,-158.814
3.9290227999999843,15.355,1.651,-140.431,24.362,316.299,3.085,-5.188,31.505,32.786,15.696,14.602,14.334,2.513,6.65,-8.006,8.695,7.256,16.856,4.813,2.555,12.317,5.157,-6.058,-27.08,-81.709,-3.285,-43.185,-27.385,-163.266
3.944107199999962,16.877,6.773,-134.143,33.047,320.081,4.107,-9.281,34.548,50.684,24.39,16.637,15.344,3.535,7.668,-7.998,8.174,6.225,14.278,5.833,5.114,7.693,4.127,-5.54,-21.93,-77.017,-0.72,-34.433,-25.309,-157.468
3.9441689999998744,15.836,9.327,-131.959,42.748,313.101,4.102,-24.641,38.612,59.855,26.414,13.034,11.23,0.97,4.075,-12.601,3.042,-0.442,5.554,1.217,2.035,5.637,4.635,-1.948,-20.884,-70.28,-5.33,-31.324,-20.16,-154.236
3.9442234000002827,4.549,-4.002,-141.049,23.75,298.443,-3.586,-11.809,29.864,30.082,6.92,-0.299,0.46,-9.277,-0.54,-21.298,-6.182,-5.052,4.012,-4.932,-4.627,-5.128,-4.079,-7.582,-31.109,-69.185,-14.546,-48.199,-27.825,-159.718
3.959124399999837,-7.751,-16.806,-148.08,-5.475,285.849,-20.489,20.991,28.297,0.85,-15.628,-14.643,-7.225,-19.002,-1.564,-24.862,-13.348,-5.559,6.569,-4.415,-7.696,-13.832,-12.784,-14.234,-34.664,-70.653,-17.093,-57.373,-32.408,-163.656
3.9740860000001703,-5.694,-11.154,-146.395,8.362,284.539,-18.419,17.896,33.904,15.706,-8.44,-11.042,-3.631,-11.298,-3.1,-19.715,-10.261,-5.554,3.489,-2.874,-4.615,-10.744,-7.648,-8.072,-24.383,-68.02,-12.465,-48.094,-18.031,-162.468
3.9741493999999875,-2.102,-9.093,-153.933,15.526,286.303,-10.716,-11.836,18.501,27.473,0.278,-4.884,-1.578,-9.75,-5.658,-18.67,-9.226,-10.671,-0.613,-6.969,-5.635,-13.807,-6.103,-9.089,-23.334,-66.928,-12.453,-50.095,-6.742,-166.916
3.9891255000002275,-6.199,-19.843,-161.464,-16.765,283.456,-18.902,-2.603,5.675,6.441,-13.043,-10.002,-6.7,-18.962,-5.14,-22.238,-13.828,-12.197,0.412,-5.425,-8.19,-17.892,-9.171,-13.178,-27.409,-63.787,-12.953,-57.729,-5.198,-169.311
3.989183900000171,5.591,-11.113,-147.983,-5.989,296.492,-10.174,-0.551,26.161,15.144,-1.759,-0.77,3.553,-9.721,0.5,-13.506,-0.494,-2.964,11.17,7.9,2.064,-4.554,3.646,4.253,-11.5,-50.915,-2.181,-44.352,16.324,-153.26
4.004204200000004,23.516,8.365,-134.515,26.804,318.225,5.205,-25.653,35.869,42.281,19.76,13.575,17.894,1.047,6.135,-0.685,17.95,2.675,18.331,15.064,14.87,3.648,18.499,17.057,5.417,-39.594,7.042,-30.987,45.509,-135.176
4.004276300000129,16.832,2.722,-138.478,14.994,314.833,-13.243,-19.992,13.292,29.431,3.858,2.291,9.679,-10.225,5.617,-4.27,12.296,-1.427,14.214,11.975,9.219,-2.504,12.845,10.38,2.85,-39.554,5.498,-37.616,49.562,-136.065
4.019211700000142,9.643,-7.015,-135.266,-12.685,309.395,-20.914,-11.775,9.18,14.545,-7.416,-1.298,5.059,-11.239,2.537,-6.828,5.624,0.112,14.713,14.525,3.062,-1.989,9.246,10.882,-1.251,-42.588,4.981,-36.042,46.951,-140.028
4.019275500000276,17.318,-1.373,-127.446,5.771,312.672,1.136,-22.01,29.151,22.727,7.96,13.048,13.763,-2.519,4.072,1.376,13.303,3.186,19.821,18.097,9.719,-0.45,14.872,14.969,-0.225,-44.595,2.926,-21.661,53.564,-138.863
4.034709000000021,9.616,-9.056,-133.979,4.228,290.33,-2.964,-3.545,28.609,12.971,0.78,2.277,7.089,-11.225,3.043,-1.187,9.703,-0.916,15.19,9.882,8.685,-8.134,8.197,7.782,-6.372,-50.186,-4.249,-23.176,50.949,-147.434
4.0492253000002165,-2.689,-20.83,-140.505,-16.269,271.596,-18.33,-2.516,16.798,11.421,-9.979,-11.046,-0.603,-14.288,0.991,-10.407,3.034,-0.403,11.589,5.261,2.016,-10.175,-0.008,2.651,-13.026,-56.283,-6.806,-32.887,45.775,-154.458
4.049284700000044,5.511,-12.1,-138.827,5.265,294.891,-0.893,-34.789,22.928,41.123,15.134,7.408,11.181,-0.954,7.137,-7.835,10.715,5.233,16.188,8.842,4.064,-8.628,1.017,-0.425,-15.575,-60.838,-7.312,-30.293,51.877,-150.718
4.049340399999892,8.067,-8.502,-141.25,17.555,303.305,6.28,-24.508,33.152,42.619,23.316,14.573,12.707,-0.441,10.204,-7.315,11.217,2.666,14.123,5.759,1.498,-15.28,-6.669,-7.597,-21.707,-69.486,-13.452,-28.725,51.825,-151.592
