Timestamp,Cz,Fz,Fp1,F3,C1,C3,T7,C5,CP5,CP3,CP1,P1,P3,O1,CPz,Pz,Oz,O2,P4,P2,CP2,CP4,CP6,C6,T8,C4,C2,F4,Fp2
0.0,8.058,3.483,-21.46,-10.167,-681.599,90.051,3.396,0.95,1.533,4.228,14.142,1.763,10.144,-6.896,76.799,12.082,-13.88,7.926,6.18,4.629,20.603,11.26,14.486,10.824,-6.349,4.986,199.15,-0.305,9.624
0.0018416000002616784,7.025,4.504,-19.902,-7.595,-685.016,86.887,-2.243,-2.125,1.531,1.663,11.566,3.811,9.109,2.845,75.185,17.705,-7.719,13.553,5.662,3.087,20.071,7.15,13.447,13.375,-3.269,0.883,208.685,-2.354,9.102
0.015017400000033376,10.092,1.938,-20.906,-8.612,-688.941,89.874,-3.778,0.439,1.018,7.809,16.165,5.344,10.637,13.088,74.086,22.298,-1.563,19.175,4.631,3.597,23.124,5.606,9.847,10.8,-8.389,-3.217,208.476,-2.352,3.97
0.015088600000126462,9.058,-0.625,-16.787,-10.141,-687.74,94.395,3.398,5.561,6.652,8.825,19.735,10.462,14.725,8.977,79.647,23.3,2.025,21.205,5.139,7.179,24.126,3.039,5.739,5.666,-9.918,-1.164,206.219,-1.837,9.601
0.030072999999902095,2.901,0.4,-17.795,-10.131,-688.589,91.227,4.419,5.556,3.059,3.693,13.056,7.377,14.198,2.82,80.079,19.179,-5.15,15.548,-3.063,1.537,16.929,-8.235,-0.415,1.562,-10.42,-5.262,207.549,-6.958,7.03
0.030143299999963347,-1.201,-0.113,-22.388,-10.633,-691.999,86.525,-3.27,2.476,-3.092,0.104,5.358,-2.876,7.524,-1.281,70.266,11.475,-15.391,10.41,-11.769,-7.174,12.302,-12.837,-4.513,-2.026,-14.508,-11.916,202.731,-10.025,-2.711
0.04501680000021224,-2.736,-4.211,-22.365,-12.159,-693.356,86.951,-5.828,-1.112,-1.552,-6.044,4.328,-6.459,0.344,-7.94,65.072,4.291,-19.474,4.252,-12.27,-8.192,15.875,-7.701,-5.02,-0.999,-16.543,-6.781,195.356,-10.528,-1.171
0.0450991000002432,-2.221,-5.744,-18.757,-9.073,-692.151,85.327,2.375,-4.185,-5.136,-7.063,2.787,-8.502,-1.706,-9.981,66.544,0.188,-25.602,-4.974,-10.72,-8.183,17.909,-5.645,-2.966,1.563,-17.039,-1.651,196.698,-11.542,1.904
0.0599634000000151,0.343,-0.103,-10.541,0.158,-686.848,81.655,9.545,0.43,-8.717,-3.47,1.759,-11.567,1.882,-8.434,65.965,0.188,-31.212,-5.481,-8.661,-8.688,20.965,-4.102,1.135,1.562,-18.046,-6.261,198.55,-5.382,5.488
0.06158610000011322,-1.195,0.41,-7.969,2.207,-685.649,82.598,6.974,5.553,-4.098,-6.028,3.295,-9.507,2.905,-9.45,64.362,-0.324,-28.619,1.184,-5.066,-5.605,24.018,-1.536,0.109,2.073,-18.028,-8.816,194.765,-2.303,9.069
0.07499379999990197,-7.341,-12.398,-22.818,-12.652,-694.184,83.028,1.331,-0.088,-6.655,-8.071,2.267,-10.009,-0.172,-9.441,63.786,-3.91,-27.566,1.695,-7.11,-7.136,17.846,-7.682,-6.551,-3.053,-23.133,-7.782,193.546,-17.67,-5.285
0.07505840000021635,-9.383,-20.071,-33.041,-20.837,-697.076,78.847,4.404,-5.724,-11.772,-4.989,0.727,-10.512,1.365,-7.895,64.234,-3.394,-29.075,4.767,-9.152,-12.252,16.803,-11.773,-7.056,-10.734,-27.721,-9.824,197.963,-28.923,-18.087
0.09000360000027285,-4.763,-9.292,-22.25,-7.496,-686.646,79.28,9.01,1.454,-4.587,-4.984,6.874,-3.329,6.487,-0.202,66.731,4.806,-18.288,17.57,-1.971,-8.142,28.57,-4.077,0.635,-5.088,-18.471,-8.789,200.327,-18.136,-6.286
0.09006670000007944,-0.147,-2.623,-12.494,-1.853,-677.25,84.324,9.514,8.625,1.565,-1.393,11.991,3.334,9.042,9.02,68.202,13.511,-6.999,26.774,3.667,-0.449,32.127,0.026,5.245,6.7,-9.231,-3.658,199.102,-8.896,1.405
0.10596750000013344,2.927,-8.768,-14.018,-9.536,-676.572,83.727,10.016,7.08,-0.486,3.219,14.028,3.843,8.521,7.986,70.183,15.034,-10.578,26.747,-0.435,-1.985,31.583,-1.511,5.24,7.718,-10.759,-1.605,201.464,-11.449,-2.183
0.10603370000035284,9.071,-2.099,-10.418,-4.916,-674.871,84.156,11.543,5.536,1.564,0.142,20.162,7.938,9.537,1.83,76.26,18.093,-13.641,25.184,0.59,-3.008,44.359,6.175,12.407,11.809,-4.601,2.495,212.534,-5.29,5.504
0.11997300000030009,11.624,10.711,-2.211,3.286,-670.61,90.732,11.019,6.042,3.611,1.167,22.191,11.004,10.552,2.853,79.258,22.686,-10.554,25.671,7.249,2.118,50.462,13.853,19.567,21.019,7.699,8.641,221.543,3.425,15.232
0.13497490000008838,7.001,5.577,-5.795,-4.914,-671.476,90.641,7.422,3.475,-1.515,2.19,13.971,4.845,4.906,-0.224,75.08,18.565,-17.715,20.522,1.094,-4.032,39.653,3.593,11.863,15.874,2.056,4.534,215.173,-1.702,9.069
0.1350391999999374,1.871,-5.187,-18.597,-14.13,-677.977,80.816,3.829,-3.189,-4.588,-8.57,6.785,-4.894,-3.296,-10.982,71.419,6.763,-28.968,11.28,-11.202,-15.298,33.978,-9.218,0.58,4.588,-11.266,-4.18,206.249,-9.897,-0.674
0.1500611999999819,1.869,-3.133,-20.627,-13.092,-680.373,77.149,5.874,-5.747,-6.12,-11.636,5.754,-6.938,-3.293,-14.045,69.81,3.682,-31.501,11.269,-7.093,-11.697,40.092,-4.086,5.703,8.682,-7.156,-2.127,208.092,-8.35,-0.673
0.15012300000034884,2.38,-1.08,-13.947,-14.103,-678.668,81.171,5.356,-5.229,-8.675,-6.501,3.699,-4.882,-0.215,-9.42,67.691,10.339,-31.469,17.918,3.161,-3.488,46.2,7.189,19.017,16.87,2.073,4.535,212.495,-5.268,3.938
0.1651449999999386,-0.184,-6.715,-17.007,-18.188,-679.014,79.553,-7.457,-11.371,-10.716,-11.105,3.183,-6.926,-3.801,-9.41,66.087,12.89,-30.926,19.949,4.694,-6.046,47.178,7.694,20.535,14.804,-4.077,4.018,209.208,-6.287,2.91
0.16520669999999882,0.841,-7.22,-24.674,-17.657,-678.847,75.375,-12.06,-15.458,-11.218,-10.069,5.741,-5.894,-3.798,-9.401,66.533,11.852,-26.284,22.49,6.739,-5.016,50.717,8.199,17.441,14.277,-7.147,2.99,207.462,-11.916,-0.679
0.1801170000003367,7.5,-1.578,-19.526,-11.492,-675.607,79.398,0.247,-9.808,-5.059,0.187,10.346,3.845,5.428,-1.195,70.053,20.037,-19.598,33.739,12.88,2.674,59.376,14.851,23.571,21.435,4.643,8.11,215.964,-11.904,4.445
0.18017820000022766,6.98,-3.625,-13.359,-11.48,-674.931,83.417,1.271,-9.285,1.606,-2.887,13.41,8.964,8.496,4.442,73.569,27.19,-15.48,37.803,14.916,2.159,63.415,17.397,29.183,21.926,7.712,11.176,222.408,-6.257,8.539
0.19782290000011926,-1.736,-10.794,-19.493,-18.641,-677.843,75.649,-6.415,-16.448,-1.981,-8.52,11.347,4.345,3.365,0.851,71.446,22.039,-19.05,31.618,9.266,-2.966,58.741,11.232,22.493,12.17,-2.029,5.529,215.525,-10.862,-0.179
0.19789140000011685,-5.321,-10.271,-21.523,-15.036,-678.189,69.425,-1.797,-14.383,-6.078,-4.925,4.676,1.267,3.361,1.875,67.276,15.87,-21.08,31.074,2.597,-6.037,56.12,4.049,15.811,9.084,-2.539,-3.186,208.65,-18.023,-1.716
0.21008830000027956,-2.241,-5.137,-11.768,-3.751,-673.925,73.454,2.303,-9.245,-1.973,-4.92,2.622,1.265,5.919,5.972,65.16,15.341,-15.936,34.117,-0.48,-9.617,55.04,1.483,15.795,13.686,1.562,-6.256,213.052,-11.345,9.557
0.21015699999998105,-0.702,-2.059,-6.633,-4.259,-669.153,76.967,-1.286,-8.724,-2.484,-9.014,4.668,-0.785,1.815,-1.719,64.07,11.228,-22.068,26.91,-5.09,-13.706,54.472,-2.104,11.169,12.647,-3.051,-3.176,216.938,-5.698,12.109
0.2255113999999594,-1.726,1.53,-6.114,-5.279,-668.484,75.353,4.863,-4.617,-7.092,-9.005,2.102,-4.883,-1.261,-10.939,64.006,4.556,-35.878,17.662,-9.183,-16.766,55.955,-7.738,3.985,8.024,-6.634,-2.661,213.647,-8.766,10.047
0.22557340000003023,-4.798,5.114,-2.522,0.874,-666.79,73.741,12.543,-5.124,-5.548,-7.459,-2.511,-11.538,-1.259,-8.366,62.405,-0.571,-36.867,19.181,-8.15,-19.823,55.386,-11.316,3.469,8.016,-7.139,-4.707,212.408,-6.708,14.648
0.24014960000022256,-6.843,3.572,-1.495,-1.177,-663.05,69.057,6.895,-11.267,-7.079,-9.501,-5.07,-16.65,-4.844,-9.383,57.219,-7.231,-34.781,20.187,-10.703,-22.365,54.306,-9.256,4.49,9.032,-7.645,-5.215,214.245,-4.653,15.658
0.2402182000000721,-5.299,-1.042,-4.567,-6.298,-663.411,65.914,3.815,-9.206,-10.658,-15.639,-6.602,-17.145,-8.426,-17.058,56.137,-9.785,-41.406,16.068,-13.766,-22.855,58.351,-7.197,4.486,6.974,-7.125,-5.21,210.957,-7.722,12.056
0.25513820000014675,-4.781,0.496,-4.05,-1.681,-665.31,69.946,9.958,-3.562,-8.086,-14.599,-4.546,-16.103,-5.856,-17.041,60.692,-6.189,-42.389,19.126,-6.068,-18.734,64.44,-5.141,8.579,7.479,-6.605,-4.18,211.771,-8.739,12.044
0.2552009999999427,-1.19,6.131,2.614,5.493,-659.521,77.561,17.121,0.028,-0.906,-3.313,5.705,-6.353,2.347,-10.876,65.754,2.526,-35.687,26.791,4.697,-8.981,73.085,5.111,17.792,17.718,0.574,2.997,223.342,-5.656,15.106
0.27026900000009846,8.032,10.735,9.784,9.073,-654.763,83.119,23.764,7.713,7.292,3.35,13.896,9.022,10.542,-3.693,71.836,15.332,-28.991,28.814,9.303,-3.849,84.282,15.352,24.435,28.971,9.795,12.215,232.853,1.522,19.701
0.270351699999992,6.487,6.626,2.602,4.453,-661.793,82.011,22.203,7.193,8.822,0.785,9.784,11.062,10.019,2.459,74.326,19.927,-24.864,30.322,8.781,-6.407,85.223,10.725,18.775,21.77,3.125,11.178,231.083,-0.017,15.583
0.285238500000105,-6.327,-5.163,-17.381,-8.359,-674.964,74.757,13.472,-4.598,1.641,-3.826,4.651,2.854,5.398,1.432,69.129,14.272,-25.351,30.804,1.088,-10.499,76.941,-2.605,3.899,3.305,-10.711,-2.153,226.753,-17.947,-3.388
0.2853616000002148,-12.98,-14.38,-24.536,-16.035,-680.949,70.071,8.847,-6.642,-2.972,-10.482,3.109,-0.735,4.368,0.918,62.4,12.721,-26.863,28.211,-7.623,-12.025,71.74,-12.849,-3.789,-0.797,-12.749,-13.421,223.965,-31.762,-14.655
0.300151200000073,-15.529,-17.439,-21.95,-18.58,-678.731,67.952,2.178,-8.173,-5.53,-16.107,-4.578,-6.882,-2.296,-0.108,56.702,9.122,-27.861,26.134,-10.689,-17.649,69.107,-17.959,-7.372,0.741,-14.273,-16.482,216.056,-32.754,-10.542
0.30021480000004885,-22.686,-22.033,-25.002,-24.71,-680.101,61.224,-9.095,-21.484,-16.283,-18.653,-14.308,-16.096,-11.515,-10.354,52.034,-3.183,-35.005,19.96,-15.801,-26.852,65.452,-20.503,-13.512,-7.969,-20.919,-19.027,207.131,-37.845,-11.556
0.3151729000001069,-24.2,-23.035,-19.854,-22.636,-686.081,60.65,-3.962,-21.975,-17.292,-20.171,-11.732,-15.056,-7.406,-14.442,54.032,-5.741,-40.605,13.28,-21.933,-27.338,65.899,-23.556,-12.986,-10.523,-20.386,-18.496,209.486,-40.369,-13.081
0.33016100000031656,-18.54,-18.401,-10.612,-15.953,-684.37,69.811,6.288,-14.269,-9.077,-16.052,-3.011,-9.917,0.287,-7.255,59.101,-0.612,-39.54,15.316,-17.3,-21.675,72.493,-25.069,-7.85,-3.34,-16.267,-11.305,219.522,-33.668,-4.359
0.33022600000003877,-18.522,-20.945,-20.336,-23.109,-679.075,66.668,-2.428,-22.964,-16.241,-14.499,-6.082,-14.518,-5.861,-12.883,54.943,-5.735,-45.136,15.301,-13.697,-23.19,74.982,-21.458,-8.355,-2.824,-13.689,-9.757,217.766,-35.171,-6.916
0.34549379999998564,-22.602,-26.559,-31.586,-28.722,-679.421,55.842,-12.671,-27.551,-27.495,-22.682,-15.297,-21.164,-12.516,-23.629,46.179,-11.364,-52.263,6.576,-18.806,-27.778,71.833,-18.875,-9.371,-5.383,-13.675,-13.845,208.327,-40.259,-16.643
0.3455515999999079,-20.018,-18.336,-26.944,-18.959,-675.155,59.373,-10.097,-18.302,-18.758,-21.122,-12.208,-18.581,-8.917,-18.482,47.67,-7.767,-50.162,5.545,-16.738,-23.652,74.835,-16.807,-4.238,-0.767,-19.297,-12.295,210.68,-32.534,-10.479
0.3601247000001422,-12.825,-8.583,-20.257,-14.329,-668.332,68.535,-7.013,-16.235,-12.592,-9.83,-2.462,-10.878,-5.834,-14.365,54.282,-2.636,-48.575,11.687,-9.037,-15.943,85.519,-8.593,-1.673,3.333,-22.864,-7.159,216.617,-25.842,-4.321
0.3601845000002868,-11.276,-10.112,-18.187,-16.364,-673.299,67.442,-3.932,-19.805,-16.166,-11.357,-3.996,-8.305,-4.804,-15.888,57.301,3.002,-46.477,15.262,-5.442,-11.829,89.019,-1.412,-2.183,6.403,-17.718,-2.541,212.814,-27.865,-7.902
0.3751431999999113,-11.264,-11.126,-18.169,-14.299,-678.774,66.862,-0.342,-18.76,-13.076,-16.981,-7.066,-8.809,-2.237,-12.286,60.318,8.634,-41.307,18.833,-2.875,-9.768,87.906,-1.411,0.38,12.544,-14.627,1.56,217.724,-25.788,-6.358
0.37686370000028546,-5.618,-9.066,-22.249,-13.772,-674.509,69.357,-1.367,-16.18,-8.964,-11.329,0.113,-6.239,-0.186,-11.249,64.868,10.163,-41.778,21.888,-3.384,-10.271,91.404,-1.922,1.405,13.044,-14.612,-0.491,234.925,-22.689,-5.839
0.3901820000000953,-5.1,-10.594,-23.764,-15.295,-676.908,68.775,-4.951,-12.578,-11.004,-10.293,2.162,-3.671,-0.698,-14.311,61.217,11.177,-44.298,17.767,-8.504,-13.846,90.8,-4.481,-4.232,4.834,-15.622,-7.151,238.788,-24.203,-10.956
0.39025149999997666,-13.292,-13.145,-22.203,-16.817,-682.379,68.706,-6.996,-13.077,-11.506,-14.381,-5.012,-4.18,-0.697,-10.711,55.521,11.678,-44.254,13.651,-12.081,-16.394,84.562,-11.649,-12.425,-3.368,-23.291,-12.266,230.865,-27.765,-9.921
0.40524820000018735,-16.352,-18.767,-25.255,-18.849,-677.598,68.638,-5.452,-15.626,-11.494,-11.293,-6.032,-7.25,-1.209,-10.188,55.465,7.056,-47.283,13.125,-16.68,-19.452,84.477,-17.273,-14.974,-6.438,-29.415,-18.402,230.634,-33.885,-13.497
0.4053106999999727,-16.336,-27.457,-30.353,-18.318,-676.408,63.446,-1.348,-12.024,-11.995,-10.257,-6.538,-12.878,-3.769,-15.813,49.774,0.901,-50.31,11.063,-20.762,-23.531,84.393,-17.256,-13.934,-5.407,-24.775,-21.97,229.891,-42.048,-24.242
0.4202322000001004,-22.979,-29.991,-31.859,-22.398,-682.904,57.747,-0.322,-15.086,-11.471,-18.444,-11.655,-17.476,-7.864,-17.334,41.015,-4.223,-49.747,11.052,-18.18,-25.556,79.185,-17.238,-14.433,-5.402,-22.701,-20.923,223.514,-45.079,-22.168
0.42030019999992874,-26.03,-29.449,-26.704,-32.11,-681.709,57.689,-0.834,-23.78,-14.021,-20.987,-11.643,-19.507,-9.393,-16.292,45.073,-7.805,-50.722,15.651,-16.625,-25.018,77.569,-17.734,-12.369,-5.396,-22.678,-21.927,225.852,-39.911,-12.412
0.435240000000249,-21.393,-28.395,-20.53,-26.442,-679.49,63.267,0.192,-19.146,-14.519,-15.843,-9.582,-19.488,-7.847,-15.764,52.2,-5.236,-49.135,19.222,-18.657,-24.481,80.053,-17.204,-7.234,0.245,-13.946,-20.368,236.384,-35.261,-9.326
0.4370401999999558,-19.323,-22.731,-22.046,-15.657,-679.835,65.765,-1.346,-12.979,-12.968,-15.315,-9.572,-16.395,-5.79,-11.649,49.586,-0.62,-44.987,20.74,-14.028,-23.432,82.022,-10.526,-2.103,9.466,-6.76,-12.663,239.734,-34.713,-8.292
0.45029120000026523,-20.328,-21.684,-21.0,-17.691,-674.033,62.626,3.267,-15.527,-11.93,-15.299,-5.464,-12.28,-4.247,-8.052,48.0,0.406,-45.454,20.719,-7.354,-20.335,86.039,-2.831,4.046,13.555,-7.266,-10.089,238.47,-32.117,-4.698
0.45035420000021986,-16.722,-25.248,-5.61,-16.649,-669.772,62.051,12.997,-12.438,-9.869,-12.21,-3.41,-9.706,-4.755,-8.044,51.538,2.967,-46.433,21.21,-7.859,-18.777,89.027,-0.779,6.604,16.615,-1.623,-9.566,243.354,-24.4,4.016
0.4653892999999698,-13.119,-19.075,2.593,-6.386,-669.103,63.526,10.423,-12.425,-11.908,-12.71,-9.042,-7.647,-6.287,-8.036,51.999,6.038,-41.776,26.312,-7.338,-18.759,88.938,1.783,4.548,19.672,2.477,-1.36,250.796,-16.179,12.209
0.4654734999999164,-10.544,-8.81,-5.094,-5.355,-664.335,65.511,5.801,-17.024,-15.482,-14.747,-8.52,-4.565,-2.182,-4.954,51.947,7.569,-37.124,34.995,-3.233,-14.641,87.312,5.368,6.593,18.628,-2.649,2.74,255.156,-11.04,11.172
0.48070060000009107,-7.46,-8.289,-8.163,-4.837,-660.085,70.056,9.382,-8.81,-8.807,-10.634,-0.315,0.05,1.918,0.174,54.969,12.684,-35.037,38.034,-2.205,-13.09,83.638,2.288,7.099,14.511,-6.744,-3.41,260.024,-11.028,6.55
0.48076639999999315,-9.502,-10.842,-9.692,0.803,-661.474,73.573,4.762,-4.19,-5.212,-8.574,0.198,0.562,-1.158,-3.412,56.451,13.696,-36.027,32.873,-5.276,-17.688,81.505,-3.349,-2.13,8.861,-11.348,-8.53,261.3,-14.604,2.445
0.49534780000021783,-18.714,-14.418,-18.904,-6.37,-663.374,68.888,-0.366,-20.068,-15.965,-15.225,-10.561,-7.635,-4.23,-11.605,50.759,4.461,-42.139,28.229,-9.882,-21.256,77.838,-5.907,-8.788,3.729,-21.583,-13.645,254.379,-17.663,-5.242
0.5104297000002589,-24.843,-13.891,-20.934,-16.61,-665.272,65.233,5.782,-28.244,-17.998,-19.308,-16.698,-12.239,-2.177,-10.057,45.073,0.87,-44.146,29.738,-8.847,-21.235,74.686,-4.877,-1.095,7.312,-20.025,-17.729,251.563,-12.01,-5.749
0.5104924000002029,-17.133,-4.143,-12.204,-11.47,-665.119,71.828,4.751,-17.97,-6.197,-15.191,-7.972,-5.566,-0.638,-3.899,49.638,5.992,-38.978,34.831,-0.642,-19.164,79.734,1.788,10.177,19.087,-3.099,-11.052,257.972,2.347,5.528
0.5254522000000179,-8.407,3.033,-10.655,-1.725,-662.917,80.465,2.697,-10.268,-1.068,-9.54,-0.792,-1.462,0.388,-5.945,55.224,9.06,-36.378,35.309,5.507,-13.51,83.753,8.958,12.729,25.216,4.589,-8.479,259.251,13.103,14.231
0.5255188999999518,-9.423,-0.556,-18.329,0.838,-665.84,80.897,10.379,-9.745,-4.653,-10.555,-4.377,-3.51,0.9,-7.988,51.07,10.588,-37.878,32.2,7.038,-9.398,79.571,8.437,8.617,21.605,-1.563,-19.229,254.381,10.016,12.168
0.5404089000003296,-10.95,-2.605,-19.847,-1.212,-669.273,75.693,6.271,-11.784,-5.673,-14.643,-5.91,-2.994,1.411,-4.394,48.97,10.065,-37.328,33.192,7.031,-12.975,77.954,5.867,7.584,16.972,-8.222,-23.821,256.175,2.321,4.471
0.5404732000001786,-9.403,-1.577,-2.409,-3.772,-672.19,76.642,-1.933,-14.846,-4.643,-15.653,-4.367,-2.479,1.922,-3.877,54.044,4.932,-37.803,35.208,4.462,-15.011,79.413,2.275,5.527,12.857,-14.873,-16.625,265.141,-0.243,6.516
0.5554827000000842,-10.418,0.473,28.332,-6.33,-678.177,82.201,0.118,-14.832,-4.126,-14.101,-8.973,-4.013,0.895,-7.459,56.039,4.415,-39.815,36.198,2.921,-9.36,72.674,-2.338,-4.212,4.647,-24.592,-11.485,273.073,-2.291,28.026
0.5555671000001894,-7.846,6.621,47.771,-7.348,-675.45,83.656,-7.054,-10.718,-4.122,-15.623,-8.964,-0.935,3.456,-5.915,60.594,9.533,-37.726,41.797,5.992,-3.716,70.552,2.788,-6.257,4.642,-26.617,-1.74,280.484,-0.24,46.441
0.5697466000001441,5.482,18.909,55.408,-2.73,-660.43,86.133,-8.072,-6.097,1.518,-12.534,0.266,6.75,11.137,1.776,70.78,16.184,-31.54,47.39,10.084,-0.126,79.191,13.031,7.069,17.445,-14.807,13.119,291.474,14.105,49.981
0.5698167000000467,18.797,30.161,67.136,12.642,-650.036,94.757,16.015,-1.48,10.738,-3.812,10.0,12.379,17.274,5.36,75.32,25.902,-26.386,46.318,14.173,3.973,83.21,19.166,15.771,27.674,-1.472,15.668,303.478,29.46,60.177
0.5844634000000042,21.339,31.156,70.655,23.388,-652.459,97.223,24.196,1.595,11.752,0.29,15.625,12.879,13.67,-1.305,72.683,28.437,-30.97,42.174,15.183,2.944,80.565,21.196,13.706,27.134,-1.471,3.357,302.663,30.455,71.9
0.5845297000000755,15.17,21.391,54.19,14.655,-661.541,90.978,7.266,2.618,4.055,-6.37,8.437,4.669,4.947,-12.062,65.438,14.064,-43.747,32.91,7.483,-6.28,75.874,14.514,9.082,24.033,-9.666,-7.918,293.651,24.277,61.07
0.6004959000001691,11.569,16.759,40.304,10.03,-668.052,89.863,7.771,2.616,-0.56,-11.999,-1.305,-5.07,0.844,-15.124,62.299,3.292,-47.801,25.192,0.816,-10.885,69.138,5.791,5.487,22.472,-8.632,-6.885,296.431,21.179,49.738
0.6005560000003243,18.73,23.914,38.727,20.778,-667.896,97.458,16.984,3.638,2.003,-6.864,3.819,-3.528,5.454,-13.572,74.019,8.411,-42.118,30.802,2.864,-3.702,70.094,10.908,8.555,23.474,1.11,6.954,312.016,21.67,52.762
0.614529500000117,23.322,24.403,34.077,19.221,-670.814,98.385,11.844,4.146,6.099,-1.222,9.451,2.624,8.522,-12.534,82.655,14.038,-42.588,36.407,5.935,1.425,75.147,16.532,12.133,24.476,1.109,11.558,317.339,20.111,45.537
0.6145951000003151,15.101,12.595,23.797,2.295,-683.463,93.163,6.197,-0.469,5.068,-5.831,2.269,1.596,3.391,-11.497,73.863,11.975,-44.083,30.223,5.417,-1.138,68.411,9.856,5.973,18.816,-10.675,-0.237,309.85,12.919,29.61
0.6295824000003449,9.451,11.558,21.724,1.781,-688.928,93.07,5.679,-5.591,0.452,-7.875,0.73,0.57,4.924,-9.948,69.178,13.5,-37.379,33.267,6.436,0.913,63.732,9.334,4.43,16.748,-15.275,-4.847,310.564,12.394,30.605
0.6296480999999403,15.589,22.817,23.751,12.537,-680.554,95.539,-1.499,-7.635,-0.06,-2.744,5.852,5.693,12.092,-4.815,75.257,20.659,-31.706,45.016,8.991,4.498,68.792,15.472,11.598,23.903,-11.161,3.867,319.475,22.115,39.284
0.644643200000246,19.672,25.356,17.58,8.939,-674.238,93.906,-5.596,-9.676,-0.06,-4.278,5.846,7.736,10.543,0.825,73.644,23.2,-31.162,43.947,9.495,1.419,66.161,14.944,10.562,22.855,-12.687,6.937,321.205,25.679,37.707
0.6447089000002961,21.189,23.793,12.952,5.344,-673.564,95.861,2.606,-8.642,0.452,-6.835,11.476,10.29,11.044,5.435,74.595,26.25,-23.958,42.878,14.608,5.517,66.095,18.003,9.014,20.27,-14.211,8.467,321.396,23.092,34.596
0.6595962999999756,28.853,31.454,17.549,14.047,-665.206,103.963,4.14,-0.436,9.673,4.955,23.247,23.087,22.304,18.749,87.328,40.056,-7.541,57.692,23.815,17.806,79.861,28.231,21.813,31.008,-6.513,14.606,315.439,26.655,36.61
0.6596615000003112,34.459,30.398,14.458,12.496,-653.27,105.395,-6.622,3.662,15.811,11.61,25.786,29.724,25.868,32.563,89.803,47.701,1.176,64.807,24.304,17.789,79.781,29.228,27.426,35.588,-3.432,13.567,282.849,25.092,34.525
0.6745409000000109,28.277,14.999,0.099,-0.324,-652.616,100.679,-4.566,-1.464,9.648,1.352,19.612,20.473,16.108,22.796,82.028,35.358,-10.096,51.934,17.107,8.037,62.795,18.952,16.641,24.282,-11.626,5.869,250.29,13.796,21.17
0.689675200000238,17.49,7.811,-5.537,-5.446,-660.161,96.48,10.295,-3.0,8.101,-3.772,13.445,12.768,11.481,0.232,79.897,24.052,-26.48,40.612,14.016,3.93,55.56,12.273,10.988,20.159,-15.2,0.74,245.942,7.634,11.415
0.6915106999999807,11.838,6.267,-8.093,-5.441,-664.111,92.798,9.773,-1.46,11.679,-1.719,7.284,9.169,10.957,-6.428,75.719,19.417,-31.064,39.546,9.391,-0.172,52.431,12.261,13.539,21.676,-12.111,-4.896,253.893,5.065,10.379
0.7047078000000511,9.264,-1.424,-14.744,-10.046,-663.447,88.606,2.591,-2.995,9.106,-6.841,2.666,0.963,4.287,-4.372,67.958,10.176,-33.594,38.995,2.21,-3.758,42.645,9.687,11.476,16.531,-15.685,-7.453,245.954,0.961,7.807
0.7047711000000163,9.255,-0.911,-7.557,-7.987,-662.271,89.542,12.322,-2.48,7.56,-8.883,4.2,-4.161,3.77,-4.88,68.915,9.654,-36.635,37.931,5.794,-0.168,42.602,8.653,10.44,19.076,-15.669,-3.347,249.807,5.059,10.873
0.7201230000000578,13.344,11.386,7.307,4.316,-654.437,94.576,15.383,3.67,11.139,-4.776,11.368,3.528,11.451,-0.265,71.408,21.427,-31.475,44.553,17.571,5.468,52.293,17.354,16.065,29.816,-4.383,1.779,266.975,13.251,22.645
0.7201881999999387,17.429,18.034,8.324,9.435,-632.778,93.969,-2.051,4.179,11.64,-3.234,16.48,12.233,13.489,6.908,70.312,29.602,-24.783,51.681,21.14,9.561,54.803,25.533,21.684,31.323,-1.817,6.388,262.098,13.75,25.697
0.7347225000003164,19.973,18.016,8.828,5.839,-606.017,87.727,-6.147,0.588,12.14,0.868,18.513,17.856,13.475,9.462,72.803,37.77,-24.246,53.166,21.631,14.674,55.26,29.606,27.81,33.853,-5.401,12.017,246.979,18.859,26.695
0.7347815000002811,23.027,23.634,18.041,13.006,-588.505,91.226,10.765,7.248,18.788,7.527,25.154,25.523,21.659,13.551,76.828,46.954,-24.734,56.187,25.708,15.172,61.352,35.212,31.369,40.479,1.264,15.079,252.367,31.648,38.452
0.7496632000002137,24.029,29.245,19.56,28.874,-588.941,100.356,20.488,20.561,24.405,9.056,28.715,29.084,27.785,15.075,77.776,45.37,-25.222,61.766,25.17,12.595,60.779,33.127,29.801,40.439,4.849,14.039,260.824,33.153,40.975
0.7513766000001851,20.931,26.655,13.393,27.821,-600.135,96.67,23.029,22.589,24.38,6.998,21.514,25.469,24.683,10.449,78.211,39.689,-29.295,55.556,17.972,12.07,51.496,21.824,27.209,36.812,-1.816,9.927,256.465,23.899,31.2
0.764795900000081,15.275,20.993,8.769,16.01,-602.097,86.839,29.666,14.37,20.258,3.405,14.833,19.808,20.047,7.365,71.985,36.063,-35.926,43.718,14.368,6.935,45.81,18.216,24.62,33.189,-3.863,4.282,253.647,20.801,23.997
0.7648767000000589,11.161,19.947,1.588,16.506,-594.835,83.678,28.1,10.257,12.553,-4.283,13.793,13.64,15.929,4.283,64.741,28.855,-42.55,39.063,14.866,1.293,46.276,20.247,18.96,29.057,-6.421,2.74,266.201,22.829,19.362
0.7798009000002821,11.15,21.464,-1.488,20.076,-597.826,83.595,14.752,8.197,7.929,-7.865,11.218,10.04,11.302,1.205,65.188,26.264,-43.532,36.975,13.826,4.365,42.131,16.64,17.917,33.127,-9.489,7.348,298.722,21.782,18.318
0.7798636000002261,14.725,24.516,6.198,18.519,-602.864,83.511,9.614,5.628,8.946,-3.759,10.694,11.567,11.803,5.815,69.221,30.849,-37.853,38.475,19.96,7.947,40.552,22.771,28.657,41.803,4.353,14.513,331.211,26.883,26.496
0.7947714000001724,20.858,33.201,16.438,24.136,-594.064,88.551,16.264,11.77,14.573,-1.194,17.344,16.679,18.451,10.42,72.738,34.916,-31.155,49.195,30.699,13.062,49.733,37.605,41.949,48.421,20.743,22.696,334.466,41.201,36.716
0.7948350000001483,23.398,43.414,23.594,32.821,-588.347,93.073,15.736,18.418,16.607,-2.217,19.888,17.687,18.945,4.262,75.227,35.906,-31.636,53.244,29.643,17.147,50.708,37.056,43.444,52.983,18.16,24.722,323.373,48.844,44.876
0.8097978000000694,18.764,42.346,27.669,34.325,-594.418,90.418,8.548,12.252,11.98,-2.727,14.232,12.546,10.729,-0.353,72.59,31.772,-37.24,43.457,20.905,11.495,39.387,27.285,32.642,46.783,9.945,18.038,325.611,44.185,47.905
0.8116519000000153,19.258,39.23,32.252,40.438,-595.873,87.254,13.662,8.653,10.943,-3.237,11.657,8.947,9.182,0.672,69.444,27.129,-36.178,40.34,19.859,6.36,38.835,27.257,26.461,37.002,7.374,15.458,329.896,42.091,46.833
0.8248121999999967,25.898,46.875,38.367,48.595,-588.617,91.265,22.358,18.379,15.031,-2.721,11.645,12.012,13.783,0.159,75.01,30.688,-33.068,45.423,19.839,10.965,45.456,28.767,24.386,39.527,7.367,20.053,327.517,47.172,49.86
0.8248794000000998,25.873,48.878,34.231,42.911,-583.93,92.711,15.675,21.946,11.942,-6.305,9.072,10.463,12.233,-2.915,75.447,30.145,-40.207,38.717,11.11,9.417,41.312,22.591,16.164,36.413,7.871,16.959,325.653,43.539,47.761
0.8398887000003015,23.285,40.632,21.389,33.134,-584.883,84.934,9.0,13.215,6.807,-9.885,9.063,5.842,8.634,-4.449,69.736,20.894,-48.877,27.408,9.562,4.284,38.709,17.445,13.587,27.155,3.765,11.819,322.766,36.323,37.467
0.8399517000002561,30.947,42.128,21.367,36.175,-579.175,84.849,16.163,12.69,10.898,-4.239,15.201,11.984,11.7,-3.42,75.814,24.459,-46.266,31.479,17.237,7.866,43.281,22.038,23.819,34.813,4.786,18.98,322.955,42.434,38.454
0.8552833000003375,36.551,46.184,27.494,37.163,-572.448,91.424,18.196,19.337,15.498,3.45,19.797,18.12,13.225,1.706,87.009,33.656,-40.584,39.644,16.195,12.981,45.8,28.164,25.845,41.95,15.027,23.572,331.341,45.466,44.563
0.8698374999999032,30.367,36.404,19.781,26.88,-581.61,91.332,11.518,18.805,14.458,3.958,19.777,16.565,14.236,5.291,81.799,29.524,-39.519,38.58,11.568,13.481,42.68,24.037,20.696,29.101,13.475,15.351,332.035,31.588,34.272
0.8698942999999417,23.164,26.634,7.979,15.582,-597.934,87.655,6.896,11.102,11.882,-0.144,17.708,13.986,16.783,3.236,71.984,24.883,-39.992,37.517,14.118,11.93,35.465,16.329,20.163,20.875,5.265,8.676,322.481,20.798,19.894
0.884928200000104,16.993,19.435,1.823,7.37,-604.509,81.932,-2.845,0.845,5.21,-9.365,10.006,8.337,12.156,-1.378,70.375,22.297,-43.026,39.016,13.08,5.771,28.257,15.288,17.069,20.854,5.772,6.618,315.499,17.191,14.238
0.8849954000002072,5.705,6.096,-6.888,-0.322,-611.589,69.554,-13.601,-8.89,-1.967,-18.578,0.262,-0.38,4.459,-8.036,65.181,12.541,-47.081,34.879,7.943,0.642,26.18,11.686,11.416,13.661,1.156,2.0,309.035,6.415,10.126
0.8999812000001839,-1.473,0.454,-13.541,-3.908,-618.662,64.362,-9.489,-12.467,-1.453,-19.071,-2.812,-0.892,3.43,-9.565,56.919,7.918,-46.522,29.721,8.448,-0.383,22.567,4.502,10.38,9.548,-9.092,-1.075,304.116,0.774,8.066
0.9000436000001173,-0.959,6.601,-11.991,-6.978,-615.994,68.396,-11.016,-15.529,-2.476,-19.052,-3.834,0.133,1.89,-5.457,58.911,9.959,-45.963,28.154,4.853,-4.994,17.422,0.912,2.173,8.002,-6.521,-4.148,304.836,5.896,7.546
0.9149890000003325,0.067,11.718,-10.442,-5.946,-613.841,69.352,-23.813,-15.001,-7.597,-19.545,-4.342,-3.453,-2.211,-4.94,61.926,3.801,-48.991,28.126,-1.812,-8.063,18.429,-0.626,-6.538,4.408,-2.928,-4.144,304.531,10.501,9.075
0.9150552000000971,4.165,16.317,-5.308,6.355,-612.715,70.82,-20.203,-7.813,-5.54,-12.866,0.785,1.673,1.378,-6.984,61.864,6.359,-48.43,29.635,2.801,-1.394,21.997,3.473,2.69,9.014,-3.438,4.057,305.251,15.613,17.263
0.9299657999999908,10.821,19.374,4.431,10.959,-606.467,71.261,-5.838,-9.343,-4.51,-12.853,3.858,6.795,3.938,-7.489,66.926,15.062,-46.844,28.068,6.384,1.681,23.512,6.543,7.81,12.079,-0.873,6.615,308.532,18.672,24.93
0.9300390000003063,8.249,14.232,3.402,1.215,-609.446,66.579,-7.369,-18.555,-11.165,-23.599,0.268,0.128,-2.214,-10.556,69.933,6.85,-51.921,24.454,0.23,-2.932,22.464,1.926,-0.907,4.382,-1.384,-1.077,304.125,14.555,20.807
0.9451235999999881,5.167,12.681,-1.725,3.775,-612.423,67.537,-8.899,-15.462,-10.129,-19.989,2.317,-1.409,-1.699,-7.983,65.764,4.281,-52.893,27.503,5.865,-0.367,21.929,6.022,5.242,6.939,1.691,3.023,298.698,16.077,16.175
0.9451865999999427,11.309,16.767,4.937,16.579,-603.102,73.617,-3.767,-3.664,-1.41,-9.21,4.876,4.74,4.962,-1.315,67.235,14.523,-46.18,30.037,15.081,3.219,25.493,14.726,16.507,15.642,12.96,12.241,300.961,20.159,18.209
0.9600399999999354,11.81,16.238,10.567,12.976,-603.011,72.007,-6.837,-4.172,-3.458,-12.787,-1.276,-0.388,0.859,-8.486,70.242,6.312,-50.233,23.86,4.307,-2.932,25.468,6.002,9.831,11.015,12.947,7.618,299.123,10.918,16.653
0.9601033000003554,6.163,13.66,4.409,9.377,-612.142,72.447,-5.805,-6.73,-6.016,-14.311,-3.324,-5.51,-2.728,-15.65,67.61,-3.428,-56.33,24.348,-2.357,-4.466,21.856,0.873,7.259,7.418,5.762,2.488,296.262,4.247,11.001
0.9754814000002625,8.718,13.134,-1.231,17.052,-613.579,80.059,4.959,-0.575,4.749,-4.051,2.314,3.204,5.472,-3.852,71.129,7.846,-47.565,33.545,8.916,3.736,23.883,12.655,18.01,14.583,12.928,8.633,301.602,8.341,7.404
0.9755474000003233,6.148,7.485,-8.914,9.351,-618.6,79.467,0.856,0.45,6.793,-3.022,-0.762,6.275,7.515,0.251,74.644,7.838,-42.394,31.462,6.858,1.683,23.347,11.105,16.456,13.544,16.502,9.137,298.226,1.673,1.249
0.9901008000001639,-5.641,-1.231,-25.811,-11.151,-628.74,69.141,-10.416,-7.748,-6.021,-14.29,-8.958,-3.978,-2.738,-12.045,64.835,-6.002,-50.548,22.209,-4.932,-3.442,12.565,-0.177,7.73,5.333,7.776,-0.606,286.145,-11.137,-7.461
0.9901669000000766,-5.123,-4.304,-27.835,-12.677,-627.599,68.048,-1.696,-8.252,-8.577,-16.325,-4.85,-2.949,-2.223,-7.934,62.209,-2.922,-45.375,25.261,0.196,1.172,11.528,3.922,7.722,5.328,11.354,-3.68,289.445,-5.49,-5.917
1.0051167000001442,7.177,3.385,-11.413,0.144,-619.799,77.713,11.113,-1.072,-0.884,-8.112,2.839,7.3,6.488,6.931,71.88,7.327,-32.009,33.945,4.294,2.196,20.226,6.48,7.714,9.933,19.027,1.959,297.865,8.86,8.946
1.0051806999999826,8.195,14.652,-3.205,9.877,-609.446,77.636,3.417,-2.607,-2.932,-5.542,0.275,3.194,2.896,2.313,68.222,1.172,-38.637,28.276,-5.444,-4.466,19.693,-0.699,1.047,6.337,13.373,5.031,293.981,11.412,15.085
1.020168300000023,3.576,16.687,-5.251,12.429,-597.053,68.849,-5.295,-9.777,-11.126,-11.684,-4.336,-7.567,-4.28,-11.522,59.957,-9.075,-51.406,14.927,-13.123,-8.56,15.063,-2.748,-5.614,1.208,5.675,2.977,289.076,6.79,7.385
1.0202288000000408,9.207,13.084,-0.635,10.88,-594.919,69.292,-5.802,-9.255,-13.164,-14.234,-0.746,-7.047,-3.251,-14.584,68.094,-9.579,-51.355,9.277,-12.597,-9.064,15.56,-0.696,-5.609,3.768,4.132,3.486,292.373,7.808,7.378
1.0351042000002053,16.371,14.096,5.001,10.356,-598.935,71.272,-12.457,-7.197,-12.639,-12.171,0.792,-6.528,-3.76,-13.545,74.686,-5.471,-49.767,10.805,-8.486,-5.469,16.569,0.842,-1.505,6.838,1.054,7.069,295.667,12.411,13.006
1.0351715000001604,10.719,14.081,3.459,8.809,-599.873,65.566,-18.079,-13.337,-13.651,-16.257,-5.869,-11.645,-7.854,-13.531,66.415,-6.49,-49.717,13.868,-3.867,-1.365,18.089,2.378,-2.015,5.295,1.053,7.062,293.322,11.374,9.406
1.0501609000002645,2.511,9.457,-1.667,2.653,-606.958,64.475,-8.328,-15.885,-14.149,-20.339,-9.449,-12.145,-9.384,-13.518,62.25,-11.606,-45.057,18.977,-1.814,-3.925,15.51,0.839,-4.575,4.777,6.175,5.518,287.393,3.166,4.274
1.0502285000002303,0.972,-0.799,-10.375,-4.01,-617.109,67.997,-1.147,-10.746,-12.086,-17.757,-9.44,-13.158,-9.886,-15.041,63.212,-14.156,-43.475,22.544,-0.788,-6.995,9.347,-1.724,-0.984,2.211,5.657,3.463,283.519,-7.596,-1.878
1.065188500000204,-4.152,-12.581,-23.172,-11.178,-620.078,64.343,-4.22,-9.199,-10.537,-17.74,-11.48,-17.243,-8.34,-15.026,61.1,-16.191,-45.48,22.009,1.262,-4.939,9.337,-1.722,3.115,-1.378,3.602,-1.151,282.211,-14.761,-15.196
1.0801722999999583,-8.247,-13.593,-28.272,-16.29,-620.483,63.766,0.395,-7.653,-6.428,-19.259,-11.98,-13.127,-2.696,-10.4,62.063,-15.663,-42.361,21.987,3.31,-5.959,12.402,-0.183,4.649,5.284,11.283,-1.662,279.368,-14.234,-17.743
1.080240600000252,-2.091,-6.92,-25.17,-13.712,-617.301,68.313,8.08,0.04,-1.811,-13.604,-10.944,-9.016,-0.644,-10.39,64.563,-14.11,-40.782,18.892,2.282,-10.051,6.754,-0.696,5.669,10.401,17.419,2.438,278.064,-9.609,-11.577
1.0963700000002063,-1.576,-9.987,-26.681,-14.723,-612.585,65.171,8.071,-2.522,-4.371,-11.029,-12.982,-14.642,-6.791,-17.04,60.4,-19.732,-47.401,9.651,-6.429,-10.041,0.6,-5.306,-3.046,0.657,11.254,-2.688,276.761,-10.111,-17.201
1.0964489000002686,-9.772,-11.514,-28.192,-20.344,-614.022,59.47,7.039,-14.815,-11.026,-17.678,-15.018,-19.238,-9.858,-19.072,59.827,-26.884,-48.89,4.006,-13.595,-11.568,2.648,-11.96,-13.289,-4.979,6.632,-7.296,272.386,-12.663,-18.721
1.1102685000000747,-9.25,-3.305,-21.504,-16.737,-613.408,56.849,0.884,-20.948,-15.114,-22.783,-15.516,-19.219,-9.336,-12.905,62.841,-24.808,-43.206,7.588,-12.557,-15.655,4.182,-11.948,-11.739,-2.412,6.626,-3.19,270.064,-9.064,-8.968
1.1103336000001036,-7.703,-7.4,-21.994,-15.184,-607.159,51.157,-11.412,-23.488,-19.709,-28.396,-19.599,-19.712,-12.4,-11.868,58.68,-23.246,-41.114,7.581,-14.593,-17.176,1.104,-14.498,-13.264,-11.119,-4.652,-5.236,268.769,-12.129,-15.619
1.125272600000244,-12.819,-16.614,-33.243,-21.316,-608.601,50.594,-15.499,-25.514,-21.739,-30.929,-20.091,-19.18,-15.462,-16.466,59.133,-25.785,-42.097,6.036,-18.677,-14.597,1.103,-17.557,-20.935,-17.768,-15.918,-10.354,266.964,-22.363,-25.85
1.1269972000000053,-7.171,-12.499,-37.308,-18.733,-611.579,58.74,-17.533,-22.415,-23.254,-25.775,-15.46,-19.673,-13.91,-14.401,65.734,-24.222,-40.518,9.616,-13.535,-10.997,5.201,-7.294,-15.279,-8.016,-7.193,-3.683,267.721,-18.754,-17.627
1.1402940000002673,0.009,-11.462,-38.808,-18.202,-609.43,58.681,-26.225,-23.929,-27.329,-24.212,-16.47,-19.653,-14.408,-12.849,62.595,-23.685,-38.428,10.119,-9.936,-8.424,7.757,0.911,-7.067,-2.885,-0.525,0.419,264.892,-11.563,-20.171
1.14035610000019,-4.09,-17.598,-47.478,-24.844,-612.919,54.524,-23.125,-30.053,-26.277,-26.75,-17.99,-16.048,-14.393,-14.374,60.483,-25.199,-34.804,10.621,-10.95,-6.879,8.262,-3.701,-7.572,-6.469,-5.136,-4.192,261.041,-18.724,-36.032
1.155370700000276,-4.085,-12.458,-45.894,-15.598,-613.843,60.617,-10.294,-26.437,-21.128,-20.575,-10.287,-11.421,-7.207,-9.236,68.619,-17.489,-28.109,16.758,-3.255,-3.286,10.815,-2.16,-2.954,0.198,2.554,-2.139,268.465,-18.193,-29.336
1.1554360000000088,-2.032,-7.322,-34.065,-3.799,-607.082,65.168,-13.87,-24.361,-24.181,-17.993,-8.74,-9.36,-5.663,-7.69,68.038,-12.861,-28.081,14.18,3.921,-0.721,12.341,4.502,1.148,6.345,12.798,2.474,272.807,-9.465,-19.573
1.1703072000000247,-12.276,-16.024,-30.957,-12.505,-614.671,58.955,-25.639,-35.607,-31.329,-27.197,-18.465,-13.449,-13.342,-16.904,57.212,-21.045,-34.713,4.944,-1.206,-6.356,6.181,-0.626,-6.026,-2.882,4.076,-4.189,261.776,-16.116,-27.75
1.1703676000001906,-21.486,-20.107,-30.926,-18.127,-626.864,54.285,-23.564,-40.182,-29.248,-31.78,-19.472,-20.096,-13.841,-22.01,55.105,-27.684,-38.777,-1.208,-6.841,-11.985,-2.534,-8.822,-12.68,-11.589,-6.687,-13.406,254.854,-24.809,-25.673
1.1852880000001278,-20.952,-17.013,-26.797,-13.499,-621.114,55.768,-13.807,-30.921,-21.022,-26.625,-16.378,-20.076,-7.679,-19.426,57.612,-29.705,-42.324,-8.38,-8.883,-10.948,-5.606,-10.35,-13.692,-12.09,-8.217,-14.929,258.698,-19.661,-16.426
1.187107200000355,-19.394,-20.582,-30.868,-13.485,-614.346,61.347,-11.744,-20.644,-9.218,-19.426,-18.411,-14.933,-6.134,-15.821,59.091,-30.7,-42.794,-8.371,-7.337,-9.912,-2.526,-7.266,-13.166,-11.053,-10.77,-12.353,261.0,-18.105,-23.582
1.2009406000001945,-11.178,-18.512,-36.985,-10.398,-615.268,71.02,-7.633,-8.84,2.062,-8.649,-9.171,-8.77,0.019,-8.633,68.766,-22.985,-30.456,5.47,0.355,-5.292,3.112,-0.086,-4.443,-3.357,-6.661,-6.705,266.887,-18.086,-24.583
1.2010123000000021,4.715,-3.124,-30.288,-1.166,-602.87,79.658,1.084,3.977,4.109,0.582,5.183,0.46,9.753,-2.476,78.943,-11.179,-15.568,13.149,8.551,3.423,13.867,10.672,9.393,12.015,8.715,3.035,281.989,-6.285,-12.263
1.2154457000001457,14.444,7.637,-21.549,4.983,-587.41,83.677,3.132,5.509,1.544,2.63,7.739,6.095,9.231,-2.986,80.913,-8.094,-12.479,14.16,11.104,6.493,20.513,16.297,14.507,22.25,18.952,11.229,289.392,4.48,-10.202
1.2155133000001115,14.43,5.068,-23.064,10.101,-589.384,84.618,1.592,-0.644,0.517,-1.471,6.707,4.04,5.636,-1.446,79.296,-9.622,-12.467,20.294,8.019,4.95,17.419,13.719,6.296,18.129,14.835,10.193,282.955,1.913,-15.314
1.2308115999999245,4.682,-6.208,-34.312,2.919,-602.115,78.385,-0.459,-10.377,-8.192,-9.666,3.114,-0.063,1.532,-2.469,76.655,-13.199,-12.966,18.224,-1.21,1.871,8.692,4.484,-8.568,1.205,-1.574,1.474,277.037,-12.433,-25.545
1.2454147000003104,-8.131,-23.62,-51.184,-21.163,-616.882,66.524,-11.217,-25.736,-22.016,-20.927,-10.722,-11.333,-10.253,-12.201,68.893,-23.432,-23.712,3.861,-12.992,-7.865,-1.05,-7.816,-20.854,-17.24,-21.552,-9.798,272.149,-32.401,-48.061
1.2454766999999265,-17.856,-38.966,-64.452,-39.585,-632.147,59.285,-27.6,-38.005,-29.167,-27.566,-20.957,-24.13,-18.44,-19.873,58.066,-34.167,-35.471,-7.413,-20.664,-14.517,-8.734,-17.03,-28.518,-26.956,-37.412,-18.498,260.094,-48.762,-61.333
1.2605301000003237,-25.011,-45.587,-63.876,-45.693,-639.199,57.177,-31.158,-35.918,-28.625,-29.076,-21.961,-20.519,-13.81,-19.341,53.91,-37.719,-34.923,-10.48,-22.692,-12.965,-9.75,-23.161,-33.613,-30.003,-46.084,-22.578,253.173,-55.373,-56.149
1.2605954000000565,-28.06,-43.492,-53.053,-42.061,-637.535,58.144,-23.443,-28.71,-22.449,-26.485,-22.963,-14.351,-8.674,-15.223,56.417,-37.169,-29.253,-7.395,-20.108,-13.465,-11.277,-25.187,-34.091,-31.51,-48.087,-25.117,255.994,-55.83,-51.482
1.2745143000001917,-27.519,-40.374,-41.73,-28.186,-638.435,60.135,-20.345,-25.607,-15.766,-22.36,-21.916,-20.484,-9.689,-15.208,56.873,-38.156,-30.761,-3.802,-22.137,-17.037,-21.0,-28.748,-35.082,-34.552,-48.039,-31.239,252.152,-57.824,-47.332
1.27457910000021,-30.566,-42.896,-36.052,-20.986,-643.944,60.075,-23.399,-26.094,-18.312,-23.875,-24.455,-25.075,-12.754,-19.291,53.23,-44.778,-34.316,-9.946,-29.8,-20.607,-28.151,-35.379,-45.805,-42.203,-55.164,-35.819,237.555,-60.84,-39.6
1.2895508999999947,-32.072,-40.291,-32.43,-30.187,-647.911,58.99,-20.302,-27.093,-21.368,-25.388,-31.603,-24.537,-9.667,-16.71,54.201,-48.32,-31.72,-15.059,-28.745,-21.611,-21.975,-29.708,-45.247,-39.599,-55.621,-31.172,233.732,-51.045,-31.876
1.289616500000193,-21.794,-23.857,-23.689,-28.107,-642.14,62.005,-8.498,-22.967,-14.174,-19.727,-22.862,-22.464,-0.436,-9.521,61.832,-37.513,-25.029,-6.335,-13.859,-11.343,-9.145,-8.161,-20.611,-15.481,-35.585,-16.796,250.404,-28.452,-19.548
1.3044583000000785,-8.452,-11.538,-13.419,-13.222,-630.739,71.165,-0.293,-12.698,-9.549,-13.56,-7.47,-14.244,0.589,-10.537,69.967,-25.18,-21.417,-0.693,-3.087,0.964,0.598,6.704,-1.123,3.49,-15.057,-1.923,272.695,-16.129,-10.82
1.3194900000003145,12.556,1.281,-4.693,6.257,-607.46,89.456,7.384,2.686,-1.338,-0.731,15.071,5.244,1.099,-10.514,85.188,-5.674,-13.181,6.475,13.814,18.368,16.468,26.143,18.328,24.981,11.592,20.608,304.403,-1.252,-5.171
1.321182200000294,18.691,6.403,-10.836,6.763,-597.631,93.978,8.401,3.196,9.422,9.004,22.74,11.386,12.881,0.255,90.226,3.041,-4.971,18.252,22.51,23.985,19.013,33.289,21.895,27.518,14.655,21.612,302.561,5.41,-3.117
1.3346119000002545,17.136,5.884,-13.387,5.22,-594.984,92.347,6.344,4.217,8.388,5.921,24.767,12.912,17.479,0.767,87.574,6.112,-1.38,21.82,24.024,23.449,15.408,32.744,24.947,25.953,10.029,15.443,299.697,5.404,-1.577
1.334679800000231,8.922,-4.368,-16.447,-2.983,-598.487,87.644,1.727,0.115,-4.428,-6.893,12.447,9.313,6.191,-5.894,80.314,-2.091,-0.866,13.089,18.877,15.741,8.22,21.952,17.75,15.169,0.798,5.181,293.25,-0.749,-12.334
1.3496416000002682,5.839,-6.413,-15.918,-6.566,-599.938,85.507,6.336,-10.644,-6.985,-8.935,6.287,4.693,3.623,-1.277,79.209,-5.163,3.233,16.149,20.908,15.725,3.601,19.369,16.708,12.08,0.797,0.565,287.834,-0.748,-10.785
1.3497041999999055,1.735,-6.919,-12.316,-10.145,-605.486,84.909,5.817,-20.879,-8.515,-13.025,3.206,-1.972,5.669,-0.764,79.13,-10.793,1.18,19.207,18.325,13.148,-2.55,14.739,13.105,7.969,-1.253,-4.046,286.521,-5.358,-4.626
1.3650495000001683,-11.075,-19.72,-18.964,-22.943,-620.25,78.676,-13.144,-25.981,-17.728,-26.844,-12.166,-16.315,-6.12,-11.522,67.78,-30.763,-11.116,5.356,-0.649,-3.259,-15.867,-2.694,-7.913,-8.433,-18.158,-13.776,279.062,-19.697,-23.065
1.3651136000003135,-15.675,-21.237,-30.216,-20.358,-620.142,74.499,-18.254,-22.882,-17.71,-28.354,-16.765,-24.495,-13.286,-15.609,56.442,-42.003,-18.277,-4.384,-9.87,-8.379,-21.487,-7.302,-16.614,-12.523,-26.849,-15.812,272.123,-21.727,-36.874
1.3796247000000221,-0.802,-3.285,-25.575,0.667,-599.542,83.134,-1.842,-11.588,-6.934,-16.03,-1.891,-14.737,-4.051,-12.519,62.533,-29.665,-18.259,-3.355,3.46,2.9,-5.584,7.562,-2.765,0.298,-19.65,-6.062,277.999,-10.947,-25.054
1.381494400000065,16.105,9.526,-14.791,9.887,-585.622,91.76,0.721,-1.33,-0.267,-7.817,6.308,-4.988,3.125,-14.556,75.791,-17.34,-18.241,-2.327,14.215,12.631,10.303,20.362,7.484,7.982,-15.532,5.727,287.455,-1.202,-17.856
1.3947118999999475,23.773,14.127,-9.653,8.341,-585.549,92.693,-3.89,2.257,1.782,-3.711,10.4,-4.471,2.097,-19.664,79.301,-15.274,-16.686,-2.837,11.64,17.742,10.805,24.44,7.476,9.511,-16.541,8.283,292.29,6.996,-16.302
1.394800000000032,27.336,20.261,-4.008,14.992,-576.254,95.162,4.823,4.816,4.342,1.416,21.148,0.144,4.657,-19.132,81.271,-12.185,-14.107,-1.809,13.677,21.31,12.331,26.465,10.03,13.6,-10.377,7.762,287.9,13.137,-7.064
1.4096921000000293,34.993,25.876,3.169,22.662,-557.235,101.214,7.892,10.447,8.436,7.562,28.812,12.439,11.312,-10.404,89.386,-2.951,-8.458,4.853,24.934,25.899,18.979,33.098,18.217,20.246,-1.145,14.927,266.607,18.759,-0.397
1.424683400000049,40.594,26.875,11.875,23.664,-553.091,104.187,4.298,15.047,10.989,11.653,30.32,21.136,13.862,-0.147,95.445,8.323,4.358,15.094,31.057,34.07,19.472,42.799,26.396,26.374,2.955,21.572,261.217,26.425,7.288
1.424744400000236,34.918,23.774,18.523,23.128,-566.883,101.009,4.806,10.422,6.367,7.03,28.24,18.553,9.75,0.365,92.275,11.388,6.403,14.566,25.903,34.036,16.379,39.682,22.783,22.761,-1.147,13.866,293.744,23.325,12.404
1.4396836000000803,24.124,19.652,11.844,22.08,-574.513,92.711,1.727,-0.86,-0.811,-2.198,18.99,12.387,7.691,-0.66,83.474,3.692,-2.825,8.404,19.729,25.805,13.289,29.397,15.588,12.492,-5.756,5.655,309.332,12.543,1.633
1.4397404000001188,23.588,16.558,0.562,17.447,-569.328,86.47,0.189,-5.47,-2.347,-5.27,11.799,11.862,9.22,1.39,78.78,-0.922,1.276,8.396,21.246,25.267,7.64,27.318,20.183,11.967,-4.726,7.699,285.456,8.944,-7.59
1.4547897000002195,26.638,16.029,5.172,13.844,-568.246,86.384,5.312,-1.366,-1.32,-7.314,11.275,8.264,6.65,-5.784,78.189,-0.409,5.374,7.363,20.201,27.291,4.046,26.266,21.7,14.005,-3.184,7.691,278.511,11.497,-1.947
1.4548514000002797,25.074,21.136,13.364,18.953,-573.313,88.347,2.233,3.247,0.218,-9.868,10.239,0.572,3.057,-13.463,76.574,-7.581,-6.415,1.72,14.545,22.141,1.993,20.604,13.482,8.868,-5.743,5.634,295.651,16.608,2.666
1.4699161000003187,27.099,27.775,10.789,31.229,-567.104,92.357,0.181,7.342,4.316,-2.686,11.766,0.059,4.078,-12.937,77.522,-14.745,-8.97,-0.843,12.481,19.557,0.966,18.022,8.345,4.76,-11.372,7.165,293.818,21.715,3.175
1.469984199999999,31.17,25.186,12.827,34.272,-557.828,96.363,8.89,10.408,7.898,4.489,13.803,1.596,6.123,-15.998,78.981,-12.681,-0.764,-0.33,12.469,20.05,0.453,16.98,6.287,3.731,-16.484,4.597,283.79,19.132,11.369
1.4852092000000994,29.09,22.087,23.06,30.652,-558.807,96.267,11.955,10.398,7.378,1.923,13.789,1.594,7.654,-17.519,76.853,-8.058,-4.862,0.183,10.407,21.567,0.965,17.475,6.281,5.264,-18.004,5.104,288.117,18.088,20.579
1.485269799999969,32.134,27.7,27.136,33.182,-556.199,97.195,9.894,10.9,9.42,5.507,22.485,9.789,11.745,-8.28,79.337,-2.415,-2.808,0.695,14.495,28.718,7.624,25.654,13.959,13.456,-13.888,15.345,289.879,27.291,22.096
1.499864400000206,40.299,28.697,24.547,36.735,-544.884,102.733,12.958,17.037,12.484,14.723,32.708,20.538,13.783,-7.247,85.918,8.346,7.954,1.206,22.678,31.763,15.301,32.289,20.093,18.053,-6.702,17.379,288.564,28.289,16.95
1.4999290999999175,34.623,22.008,18.887,32.088,-544.852,103.143,10.383,19.581,12.472,12.659,28.065,19.493,11.72,-18.51,83.783,12.436,3.847,-1.869,20.606,26.608,11.187,29.183,16.487,15.986,-2.597,11.214,292.886,22.113,12.835
1.5149091000002954,22.293,18.4,15.794,24.883,-557.627,95.355,8.836,13.926,12.971,3.938,19.328,13.326,9.659,-20.541,79.601,1.666,-3.329,-9.551,14.95,25.044,1.442,25.055,13.397,14.433,-1.569,12.74,290.032,23.115,10.773
1.514969000000292,21.246,18.382,20.902,24.346,-564.242,91.674,18.049,10.326,12.446,2.909,17.259,8.189,8.624,-16.934,79.009,-7.558,-1.276,-13.64,13.91,26.044,0.416,25.03,11.846,11.345,-3.617,12.215,266.176,24.629,10.25
1.529909900000348,21.738,15.802,26.004,29.957,-557.53,94.656,22.129,10.316,7.311,3.931,15.705,5.107,6.054,-22.04,75.344,-6.013,-3.837,-12.602,13.896,22.944,2.465,24.493,13.371,11.333,-3.101,6.055,233.634,23.58,15.875
1.5299751000002288,18.13,14.762,23.929,29.415,-549.288,91.487,14.935,6.207,3.205,-1.196,11.591,2.028,1.437,-28.166,73.219,-6.519,-7.419,-13.102,10.808,19.847,-0.611,21.907,18.481,18.494,7.661,8.61,202.15,27.142,24.056
1.5449075999999877,19.648,14.747,21.856,21.189,-552.324,84.223,6.723,1.078,-1.409,-10.417,3.895,-6.683,-4.2,-27.113,72.121,-17.271,-6.387,-15.138,6.187,16.754,-5.221,20.86,18.975,17.963,11.751,11.676,203.484,28.652,23.52
1.544966800000111,24.24,18.83,20.809,21.68,-557.92,84.651,3.642,-1.997,-4.482,-12.455,0.817,-9.75,-5.22,-20.938,69.488,-20.84,-1.257,-8.975,7.205,17.249,-4.704,22.888,19.981,16.409,5.08,13.201,221.724,30.16,20.935
1.5599154999999882,29.338,24.447,20.276,30.88,-548.653,89.178,9.274,2.103,5.769,-4.246,11.062,3.067,2.47,-11.184,76.078,-6.987,11.552,3.842,18.981,24.404,2.473,29.013,27.645,27.663,10.71,23.434,226.113,39.352,25.524
1.5599789000002602,32.895,21.861,19.743,28.287,-539.395,91.138,12.851,11.323,13.96,1.394,17.711,9.212,11.177,-4.512,82.662,1.217,19.225,8.961,21.524,23.867,5.032,28.984,24.544,28.148,16.847,26.997,222.301,40.849,23.962
1.5749813000002177,22.104,12.105,14.601,17.501,-547.052,89.51,4.129,7.725,3.7,-3.219,7.447,-0.531,8.092,-7.07,72.846,-9.543,12.033,4.853,10.231,15.134,-5.731,15.635,9.15,9.164,-1.613,11.6,221.566,28.001,13.18
1.5750498000002153,9.274,6.458,6.901,13.897,-552.141,82.76,2.075,-6.627,-6.55,-8.851,-0.245,-3.604,0.399,-11.161,63.551,-17.73,10.996,-0.787,7.147,11.533,-14.947,4.861,1.968,1.47,-11.858,1.343,211.611,18.751,8.556
1.58997700000009,9.265,2.865,3.308,12.346,-546.978,79.091,8.221,-7.133,-4.494,-8.842,2.829,0.498,-0.114,-12.174,66.561,-12.59,16.108,-0.274,10.726,13.058,-13.908,8.442,5.04,8.129,-1.6,2.878,202.178,15.659,8.547
1.6059924000001047,10.28,2.35,0.743,9.26,-547.968,85.16,0.016,-1.49,-3.465,-5.759,6.413,-0.528,1.423,-12.675,67.519,-7.966,15.068,4.337,9.691,16.119,-10.82,16.119,11.183,10.682,-0.061,4.412,206.586,13.081,4.44
1.606051600000228,16.418,12.594,1.767,15.398,-543.321,91.735,-3.058,-0.464,-0.9,-1.143,13.066,3.059,5.008,-11.637,71.55,-2.835,16.077,6.382,16.341,22.763,-4.149,26.349,26.029,19.381,5.062,12.605,218.163,21.265,8.534
1.6200392999999167,34.844,26.926,12.012,29.728,-527.409,95.229,15.9,11.319,10.372,5.006,23.299,14.839,13.2,-8.039,81.725,7.926,16.061,4.839,26.059,29.4,6.101,38.105,37.786,33.706,24.525,27.961,229.215,41.224,23.895
1.620099400000072,38.908,31.51,21.221,33.796,-528.931,99.745,21.008,18.993,13.435,9.1,24.301,15.849,13.187,-8.031,80.106,10.48,8.361,2.785,20.397,28.859,8.144,36.018,34.674,29.574,22.963,28.958,235.134,46.306,28.482
1.6349644000001717,27.086,26.867,17.102,28.639,-548.894,97.596,5.617,6.678,7.274,6.017,14.542,5.075,3.44,-12.634,72.854,-0.289,7.328,-0.804,13.717,23.707,0.452,22.15,24.393,17.761,7.571,18.683,236.948,33.964,17.182
1.6366310000003068,29.108,23.767,9.4,31.172,-556.03,91.863,6.636,6.159,6.242,1.4,12.479,0.971,-0.662,-17.745,75.343,-5.924,7.833,-7.463,15.24,21.634,-3.135,17.517,18.221,18.768,8.076,13.541,260.789,31.369,13.067
1.6501771000002918,37.788,26.305,16.05,38.826,-551.375,96.894,15.339,18.448,8.798,5.497,21.175,8.142,1.9,-19.264,77.317,0.229,2.189,-7.456,14.2,24.686,-2.107,19.036,17.691,19.262,11.654,14.04,293.316,40.559,18.689
1.6502693000002182,39.287,31.401,30.379,40.324,-553.385,106.018,13.787,12.282,8.789,12.151,25.765,15.819,7.533,-12.584,79.288,8.426,9.359,0.748,15.723,28.247,0.456,20.042,19.21,14.119,10.618,16.587,307.88,40.006,21.232
1.6651003000001765,41.297,33.931,30.349,42.333,-558.467,108.474,14.798,4.585,7.243,12.652,24.202,15.291,13.674,-3.35,88.431,12.516,21.645,6.895,21.855,29.756,1.481,24.632,18.166,15.13,11.119,19.132,295.789,33.818,18.649
1.6651650000003428,37.157,27.238,15.974,40.241,-566.618,106.829,13.246,9.192,3.65,9.053,24.178,11.689,10.074,-1.298,87.318,9.942,19.062,4.839,20.296,30.239,-4.156,24.096,16.099,9.992,4.448,13.99,293.956,26.1,8.897
1.680056500000319,24.825,15.427,5.199,24.319,-577.835,102.111,1.45,3.035,0.06,6.482,23.129,13.215,4.941,-3.346,77.496,5.321,17.506,2.273,16.178,27.135,-12.349,15.874,14.546,-2.314,-1.704,4.755,296.736,14.291,-4.432
1.680114499999945,23.263,10.801,2.12,12.0,-582.38,96.373,-3.675,-6.702,2.109,4.426,19.008,15.763,11.083,-2.318,78.956,6.341,24.661,5.857,18.723,25.571,-9.263,16.371,16.068,-1.287,4.958,4.238,290.292,9.666,-7.502
1.6950771000001623,26.314,11.815,-4.03,11.475,-582.822,95.253,-8.282,-7.208,2.619,1.348,17.452,12.161,11.072,-1.803,83.488,5.31,23.1,7.9,19.216,26.57,-4.643,19.941,20.663,6.399,7.002,9.356,287.952,11.705,-4.933
1.6969951999999466,19.115,8.729,-8.636,8.902,-588.899,94.645,-14.421,-6.688,-1.482,-0.702,15.897,5.489,2.352,-6.412,77.257,-3.405,13.343,0.72,14.074,21.932,-10.786,16.335,19.105,2.294,1.872,8.322,289.713,8.62,-4.928
1.7101769999999306,19.608,9.233,1.106,11.967,-592.409,94.038,-1.087,-2.583,2.618,3.397,13.832,1.897,4.911,-11.529,76.667,-8.012,9.743,-3.892,12.523,20.886,-13.849,17.855,15.5,5.366,8.018,9.339,290.961,15.271,1.225
1.7102404000002025,31.884,24.08,14.937,27.837,-584.132,100.092,15.82,7.666,11.837,10.053,16.892,1.895,7.98,-14.079,83.763,-5.443,9.733,-2.351,16.097,27.525,-7.175,27.571,24.194,21.754,19.793,21.112,298.354,33.186,16.081
1.7252072999999655,36.975,34.815,21.07,38.055,-575.863,105.115,11.194,12.269,12.85,11.58,21.486,2.406,3.874,-15.602,83.679,-6.462,6.65,-8.496,16.593,25.96,-5.631,28.568,31.854,24.294,23.871,28.264,301.642,40.838,22.725
1.7252699000000575,37.963,33.243,28.734,41.091,-574.775,103.985,11.695,14.818,11.812,13.106,22.489,3.428,6.431,-17.123,82.571,-6.455,1.008,-16.684,12.99,22.348,-8.699,25.466,25.162,17.61,23.335,22.088,295.705,41.309,25.776
1.7405413000001317,42.536,33.722,39.976,43.611,-576.762,109.004,28.589,20.439,16.411,21.802,28.102,10.597,9.499,-16.081,89.66,0.723,1.007,-11.545,16.563,30.01,-6.641,32.1,27.186,24.252,27.923,22.066,302.582,47.416,35.996
1.7406032000003506,44.03,35.225,39.936,42.543,-577.722,116.067,31.122,22.98,18.444,26.391,32.685,18.271,9.489,-11.967,93.157,7.895,9.203,-3.336,25.768,35.616,-2.536,38.728,38.43,31.912,34.043,30.24,312.525,46.856,39.034
1.755213299999923,42.449,28.53,33.236,46.087,-576.119,111.853,22.382,25.006,17.401,20.217,32.14,17.228,13.578,-8.369,91.527,8.399,14.829,-0.259,26.255,33.531,-3.558,36.64,35.83,27.27,32.472,28.161,304.016,38.1,27.724
1.7568771999999626,37.796,19.792,32.69,47.578,-579.129,103.032,23.896,22.932,17.896,16.61,31.083,13.625,14.077,-6.823,91.947,5.829,13.789,3.327,23.155,34.522,-8.678,34.042,31.183,20.07,24.242,22.497,296.54,28.84,18.475
1.7702868999999737,33.66,13.625,33.17,31.136,-588.796,103.441,26.434,15.736,18.903,16.594,31.052,17.197,10.477,-3.23,90.831,9.41,19.923,6.398,29.279,36.537,-9.694,35.033,36.275,16.976,23.706,21.963,301.366,20.102,16.407
1.770350199999939,39.261,13.099,30.575,21.371,-588.72,108.973,18.211,21.356,21.958,15.552,30.509,22.303,12.003,1.896,89.203,17.085,30.662,13.564,35.398,36.5,-3.536,39.608,40.85,21.058,31.879,22.453,302.602,20.082,16.391
1.7853060000002188,44.858,20.77,29.008,31.596,-578.397,109.376,12.045,27.995,20.911,15.025,30.991,18.694,12.503,1.894,92.7,15.531,27.557,18.161,30.752,36.464,-1.996,42.643,43.37,24.623,32.872,24.992,299.737,29.284,19.96
1.7853786000000582,39.177,24.848,26.417,33.101,-578.331,105.681,14.082,16.184,13.718,10.911,26.349,7.917,5.831,-3.743,92.095,6.806,14.722,9.434,19.962,30.28,-9.678,34.915,35.642,17.938,22.593,24.455,299.438,30.279,21.477
1.8003292000003057,34.527,23.799,22.292,25.896,-586.462,106.087,17.142,9.507,11.143,3.216,18.638,3.299,1.727,-5.789,86.368,2.701,14.195,1.74,12.258,22.565,-15.304,23.61,21.262,9.211,15.398,16.233,297.089,25.126,15.821
1.81529589999991,30.394,21.726,22.27,29.456,-592.536,105.981,13.026,15.646,10.107,-0.374,12.984,-0.803,-1.349,-4.246,85.257,-3.449,20.329,3.275,8.659,18.956,-21.949,18.975,18.167,5.616,17.944,10.582,290.644,21.514,12.219
1.8153563000000759,18.581,11.97,25.834,28.914,-606.288,97.166,5.328,2.822,1.387,-5.497,6.311,-13.61,-9.032,-8.852,83.122,-17.791,13.136,-5.438,1.478,11.252,-37.296,7.686,15.075,-1.05,18.438,4.424,281.644,13.296,13.743
1.8303908000002593,9.853,2.737,30.419,18.639,-618.489,92.97,4.298,-13.574,-6.299,-9.077,2.206,-20.256,-14.659,-16.016,74.33,-28.531,1.852,-17.728,-10.306,1.507,-46.993,-6.154,0.203,-7.197,11.76,-7.876,269.58,8.159,17.828
1.8304588000000876,12.405,6.32,32.437,20.158,-612.235,100.05,3.782,-4.339,-1.682,-2.408,7.327,-13.064,-10.545,-16.0,72.206,-26.454,0.313,-18.222,-12.857,3.043,-44.384,-2.05,-2.359,-6.165,8.162,-6.332,262.65,14.299,23.958
1.8453810999999405,18.54,12.461,30.356,27.822,-601.377,103.024,0.192,10.01,6.517,5.791,16.541,-3.829,-1.313,-12.91,80.843,-15.669,-0.199,-19.229,-2.086,12.261,-39.217,13.834,10.451,1.014,12.252,7.507,270.072,20.432,26.495
1.84544249999999,25.694,12.961,33.399,29.331,-601.8,104.457,5.827,13.074,13.171,8.859,25.234,3.347,4.836,-13.409,89.984,-2.845,-1.736,-18.697,9.699,21.471,-29.444,29.702,21.712,12.796,17.875,15.184,290.807,23.486,23.907
1.8607523999999103,30.279,12.948,33.366,28.277,-598.637,111.013,14.531,14.597,16.231,13.973,30.332,12.053,8.417,-14.421,93.992,3.305,1.852,-12.531,15.837,28.109,-22.242,39.918,30.399,17.906,18.882,18.755,297.688,21.413,18.76
1.8608165000000554,23.589,7.3,15.402,24.663,-591.891,107.828,7.344,13.046,13.653,12.935,24.666,10.504,9.433,-14.406,88.263,0.74,3.899,-12.518,14.797,25.519,-30.417,31.681,24.733,7.642,9.129,16.175,277.923,7.559,3.372
1.8753814000001512,12.294,-1.417,1.042,15.417,-595.397,95.937,-1.373,10.471,10.566,4.213,16.957,2.296,6.35,-13.879,79.978,-3.359,1.334,-15.067,9.659,16.785,-43.194,15.768,10.364,-3.124,-6.249,3.863,267.399,-4.744,-12.512
1.8754397000002427,12.794,-3.977,7.701,9.766,-601.974,94.817,5.801,11.485,10.555,4.721,17.452,2.806,3.782,-11.816,82.972,-3.355,5.943,-9.417,7.6,16.256,-44.175,15.24,10.866,-8.244,-10.341,-2.288,276.353,-4.227,-9.938
1.8904225000001134,16.368,-4.997,14.353,15.391,-597.786,99.333,9.893,9.937,9.52,7.79,16.922,8.951,5.828,-7.706,88.012,0.746,15.671,-3.26,9.642,21.362,-43.106,15.225,13.929,-11.822,-5.208,-2.286,274.54,-7.296,-5.318
1.8904882000001635,13.79,-7.554,9.216,23.061,-592.577,97.696,2.199,3.779,2.851,0.61,11.782,6.381,4.285,-1.551,81.264,1.258,22.828,4.428,9.12,19.804,-49.211,6.5,6.743,-11.298,-5.203,-6.894,266.58,-12.412,-11.972
1.9045082000002367,11.727,-5.497,6.133,16.378,-596.083,93.5,-6.0,-4.934,-6.374,-9.125,7.16,-2.335,-3.916,-0.012,77.596,-4.891,27.416,10.571,5.524,13.637,-56.334,3.42,4.174,-9.75,-4.685,-8.424,266.826,-9.838,-18.62
1.9045719000000645,12.227,-4.467,7.151,7.652,-598.561,89.821,-9.58,-13.126,-12.515,-11.677,5.103,-7.456,-9.548,-2.574,80.593,-9.497,26.876,6.975,2.445,12.598,-58.327,3.416,5.195,-10.765,1.979,-4.318,265.022,-9.828,-19.114
1.9194760000000315,11.703,-5.999,5.095,13.28,-593.352,86.657,-10.595,-12.6,-12.502,-10.128,4.586,-6.423,-10.051,-3.083,76.414,-12.561,22.238,3.382,1.93,12.073,-56.732,-0.173,2.116,-7.168,-3.658,-2.264,263.22,-8.794,-15.509
1.9195349999999962,8.105,-5.993,3.04,17.365,-593.271,84.521,-10.585,-11.051,-14.027,-13.192,3.557,-10.516,-11.578,-4.105,69.677,-20.746,17.093,3.891,-0.633,7.451,-61.798,1.364,0.577,-4.087,-19.023,-3.799,265.006,-1.1,-8.833
1.9344976000002134,2.974,-7.012,9.697,10.688,-599.85,80.85,-10.574,-13.089,-19.136,-18.814,-2.082,-18.19,-14.64,-9.224,70.632,-24.311,12.977,-0.724,-2.682,6.419,-67.884,5.973,2.625,-6.644,-15.418,-3.283,257.569,2.999,-1.14
1.9345615000001999,6.045,-3.419,24.544,11.189,-595.151,83.331,-7.49,-4.367,-11.944,-12.648,-0.543,-13.048,-11.039,-9.215,75.685,-17.114,15.014,-2.773,4.493,11.535,-59.619,12.115,10.82,-2.539,0.991,4.405,256.799,7.607,12.181
1.9495689000000311,18.334,3.244,32.205,20.4,-582.773,94.006,1.227,9.47,3.437,-1.364,10.216,-2.277,-2.831,-2.546,79.707,-10.437,19.097,-0.208,10.124,15.11,-51.363,18.763,16.444,3.099,4.576,10.549,263.202,16.821,22.415
1.9496337000000494,22.414,1.192,26.537,23.965,-576.043,98.523,4.812,15.096,8.044,-1.363,15.841,-0.225,2.295,-2.031,81.677,-7.865,13.955,-6.356,3.454,15.095,-54.385,17.72,9.256,-1.515,-1.064,7.977,235.275,12.193,13.684
1.9645285000001422,20.855,-3.932,20.875,19.843,-568.294,95.351,2.758,18.155,7.524,-0.337,17.362,4.386,4.342,-5.615,83.644,-1.71,9.842,-12.497,-0.648,15.592,-51.257,14.628,8.222,-2.538,-1.575,7.456,202.764,0.91,5.473
1.964595299999928,22.883,-4.953,14.194,13.163,-563.628,91.669,7.366,13.526,10.59,4.274,16.32,7.967,2.801,-4.585,82.536,0.854,12.906,-10.435,1.914,14.039,-51.206,14.613,12.312,-0.486,-3.623,7.961,220.492,0.397,1.369
1.9799731000002794,14.151,-9.559,2.909,9.051,-573.31,85.43,9.92,-0.32,2.895,-6.489,4.521,-6.897,-5.399,-7.654,69.646,-10.93,7.258,-15.548,-5.772,4.804,-68.573,3.328,-1.02,-10.732,-10.279,-0.756,253.059,-4.214,-11.44
1.9800381000000016,3.378,-13.135,2.394,9.042,-579.397,81.758,0.689,-0.832,-8.379,-15.704,-4.193,-16.112,-8.468,-12.257,62.916,-20.141,-0.434,-18.606,-12.939,-0.836,-75.677,-5.897,-8.192,-17.381,-11.806,-7.415,247.683,-12.919,-14.502
1.9946429000001444,11.572,-6.975,11.613,10.058,-572.67,87.824,-2.898,7.366,-4.272,-5.954,7.594,-2.264,-2.311,-7.634,75.149,-9.362,10.325,-7.317,-2.167,9.411,-62.281,7.429,9.747,-3.019,-1.035,1.301,230.529,-5.734,-2.193
2.009631899999931,19.245,-3.381,12.626,8.511,-568.511,90.298,1.203,4.285,-0.169,-2.362,18.345,5.423,-1.285,-1.479,82.758,2.942,21.073,-1.162,7.569,19.135,-56.071,18.18,16.91,7.742,9.724,10.522,243.619,0.932,-1.678
2.011303400000088,13.59,-4.915,7.49,4.916,-558.208,83.547,-6.995,-0.843,-6.829,-9.02,13.204,1.832,-3.845,-2.502,77.04,2.939,15.929,-6.796,3.462,13.481,-61.65,10.477,6.135,-0.462,1.517,5.9,247.474,-9.827,-8.336
2.0246731000002,13.577,-4.398,3.384,0.813,-531.01,81.415,-19.796,-1.354,-7.335,-7.986,11.653,3.879,0.257,-0.962,74.402,3.449,16.938,-0.642,0.385,9.369,-63.126,7.393,5.104,-8.146,-12.316,-1.79,223.66,-16.99,-10.377
2.0247426000000814,15.1,-6.443,-6.353,0.812,-516.647,77.747,-20.801,-5.451,-6.815,-9.003,11.642,3.363,-1.28,2.112,67.667,4.982,24.606,9.605,0.897,8.847,-66.649,9.435,5.611,-8.651,-12.304,-2.301,211.141,-17.485,-20.101
2.039692400000149,2.277,-17.195,-16.08,-1.75,-529.45,64.862,-21.292,-13.643,-16.542,-20.777,-1.69,-7.399,-12.037,-1.988,56.841,-5.269,19.458,3.448,-5.251,0.641,-76.828,4.302,-0.542,-11.204,-10.243,-1.274,212.467,-25.152,-33.913
2.0397541000002093,-1.823,-21.276,-12.478,-1.236,-534.044,62.235,-21.271,-13.117,-17.55,-21.268,-4.762,-6.879,-12.025,-4.548,58.321,-9.362,14.315,-2.703,-2.172,2.177,-76.751,6.859,5.094,-9.655,-10.745,-1.273,208.668,-22.566,-28.244
2.0547099000000344,15.085,-5.373,1.879,16.696,-508.919,77.542,-6.905,3.802,1.423,-5.366,13.686,7.472,3.356,7.752,67.484,11.652,27.109,9.082,17.297,19.594,-61.305,24.271,21.995,2.65,2.074,5.901,212.558,1.023,-6.186
2.054774500000349,26.34,12.051,16.222,29.487,-486.893,87.711,13.082,21.729,16.278,8.984,25.968,19.248,15.136,17.478,75.101,29.571,35.279,18.807,28.039,25.722,-49.461,36.03,34.268,14.43,16.416,17.166,220.542,15.879,7.652
2.0697033999999803,26.314,15.625,21.841,26.383,-489.48,86.086,27.414,22.732,16.262,11.537,23.38,22.815,14.609,12.338,82.199,28.005,28.583,15.202,25.449,24.159,-49.924,39.068,40.894,22.1,23.06,21.247,216.223,13.814,10.206
2.072085700000116,29.874,18.171,23.868,35.579,-490.528,87.025,27.898,22.71,16.758,9.476,25.918,20.23,11.008,6.69,83.141,26.952,24.456,8.015,25.424,27.209,-49.874,40.053,43.414,28.226,32.771,23.787,208.322,20.46,16.344
2.0847373999999945,28.819,20.202,21.283,38.105,-479.279,86.938,13.014,22.687,12.643,5.368,27.429,13.038,5.874,5.146,74.861,25.9,20.333,2.884,19.763,20.522,-48.799,34.89,36.711,25.124,30.176,25.301,196.331,26.075,18.377
2.084803499999907,18.544,9.423,12.552,12.963,-479.312,75.068,1.218,8.32,0.335,-3.346,15.619,2.779,-2.329,-1.006,68.126,12.554,11.604,-3.267,8.985,9.23,-56.948,28.195,27.965,14.34,12.728,18.615,179.228,15.29,9.649
2.0997700000002624,17.501,6.852,9.466,9.877,-483.443,69.357,-0.321,1.651,-3.764,-5.904,9.968,-1.323,-5.913,-4.591,66.521,6.394,11.592,-5.313,12.562,11.783,-61.501,28.679,26.912,13.814,13.227,16.035,178.537,13.226,8.615
2.099833900000249,21.582,17.092,12.53,31.384,-476.3,77.997,-9.542,8.822,0.338,-2.312,15.081,1.24,-2.321,-3.562,67.991,13.048,14.654,-1.721,14.086,13.82,-56.829,29.163,24.324,19.435,21.923,21.142,183.994,19.873,12.705
2.1158261000000493,16.95,9.902,9.444,22.643,-479.922,75.87,-14.143,2.153,-3.248,-4.359,11.992,2.264,-1.294,-3.046,67.923,12.522,13.103,0.329,2.801,7.146,-58.821,20.425,16.615,14.805,14.729,15.998,177.15,10.631,8.081
2.115888000000268,12.834,-3.428,7.385,4.69,-490.713,64.523,1.753,-1.948,-4.782,-6.404,7.881,2.261,-2.829,3.104,65.294,10.973,18.725,0.841,1.774,7.651,-66.96,15.281,14.549,8.13,14.202,9.834,176.973,-0.138,4.999
2.1298068000000967,11.285,-0.35,14.55,13.394,-488.173,68.557,7.899,9.325,0.346,-5.373,10.435,3.796,-3.339,10.786,61.643,15.06,24.854,1.353,3.821,10.205,-68.43,12.192,13.51,3.511,15.725,8.8,181.406,-2.699,4.994
2.131522600000153,5.126,-3.936,11.462,17.479,-494.345,72.587,-4.917,3.68,-5.29,-15.102,4.277,0.206,-5.897,4.627,61.069,9.41,17.145,-2.747,-6.941,3.023,-69.898,1.934,2.738,-5.714,2.389,-0.943,174.565,-13.967,-6.282
2.1449482000002718,3.071,-15.715,5.815,6.703,-510.244,62.781,-8.498,-12.205,-14.506,-25.333,-4.437,-4.917,-12.551,0.012,63.569,3.253,13.029,-4.793,-7.446,0.971,-69.316,1.932,1.711,-5.708,5.461,-5.04,175.415,-21.126,-12.423
2.1598306999999295,5.63,-9.04,12.469,4.135,-506.148,61.181,-1.317,-8.606,-12.442,-19.672,-2.383,-1.838,-15.1,8.721,65.042,11.447,22.237,2.896,4.856,8.654,-61.05,15.762,14.517,8.13,25.435,11.871,181.9,-11.371,-3.701
2.1598978000001807,-0.011,-4.932,9.895,3.619,-502.055,64.706,-3.365,-6.549,-12.942,-20.165,-3.917,-6.96,-15.597,7.688,61.391,9.386,23.752,6.479,4.852,7.109,-65.087,14.209,14.502,8.634,19.774,12.884,171.984,-10.847,-1.648
2.1748473000002377,-3.598,-14.661,-0.873,4.127,-509.238,60.03,-15.145,-15.764,-20.101,-24.243,-9.037,-16.687,-17.631,0.508,57.231,-3.943,17.068,-2.749,-0.789,-1.095,-78.854,2.924,6.803,-2.133,6.434,-3.011,164.64,-18.521,-6.77
2.1749103000001924,-0.008,-11.573,7.325,11.808,-505.143,63.557,-20.253,-10.112,-12.397,-10.386,-0.318,-8.985,-13.515,4.606,57.686,0.159,17.564,-2.746,5.36,2.492,-73.652,8.557,10.895,-1.106,11.551,-0.446,170.623,-12.867,-3.689
2.1898645999999644,-1.545,-7.463,9.367,3.087,-506.687,71.178,-8.45,-0.881,1.448,-2.179,4.805,-1.292,-5.304,6.138,59.678,5.282,20.108,4.429,7.916,9.662,-64.357,14.696,13.958,0.432,13.076,7.239,169.427,-10.292,-4.198
2.1899298000003,-2.055,-12.578,-4.475,-12.286,-522.062,67.52,4.879,0.145,5.033,-5.763,0.702,-7.438,-2.738,-0.016,59.106,-2.408,14.964,-2.235,3.297,6.578,-67.367,10.583,12.407,-6.229,6.916,1.084,170.283,-17.454,-13.415
2.204927900000257,5.631,-0.783,-0.372,2.584,-513.855,73.088,4.874,11.928,12.2,5.001,7.873,-3.332,2.388,5.107,61.608,-0.356,15.462,-4.282,6.88,6.572,-64.738,15.183,17.005,0.438,9.983,5.181,180.871,-7.703,-12.889
2.2049913000000743,10.749,8.952,5.264,16.413,-494.386,86.847,8.967,20.113,23.458,15.242,18.112,7.942,10.07,15.861,65.133,8.865,23.131,6.48,14.046,15.274,-58.525,22.852,21.087,8.634,12.534,15.935,182.227,5.625,-7.753
2.2199565999999322,14.324,-3.352,-9.599,1.54,-494.916,81.637,22.791,8.309,20.361,10.616,18.606,8.446,12.11,16.357,65.58,11.418,25.157,5.962,17.105,17.308,-60.004,22.317,22.602,3.502,12.009,11.82,178.971,0.496,-13.893
2.2200213999999505,22.507,1.262,-13.175,2.051,-488.786,78.994,22.256,10.35,18.804,14.704,25.76,17.659,17.733,16.853,71.662,26.264,27.181,2.37,25.285,19.34,-49.697,30.492,31.801,8.622,20.194,11.808,182.378,3.057,-14.904
2.235276899999917,31.193,21.241,0.67,23.566,-471.903,96.334,10.963,27.246,29.544,21.349,36.492,34.036,26.424,20.935,82.349,45.705,34.326,10.564,34.482,30.592,-34.791,41.732,36.38,22.446,26.322,23.58,181.171,22.009,-2.594
2.235340300000189,33.724,21.732,5.793,25.591,-472.456,100.848,9.415,24.145,29.002,15.18,30.82,31.44,23.836,20.401,83.804,44.122,33.267,9.529,31.885,32.098,-34.756,39.129,32.246,21.911,24.246,25.093,175.867,31.209,3.556
2.249934200000098,36.252,23.759,10.91,26.078,-472.495,96.649,12.479,17.973,20.263,17.214,29.765,26.285,18.689,21.406,83.208,41.005,30.16,5.933,29.292,26.943,-31.135,37.041,33.238,21.377,28.32,22.506,169.031,33.227,4.577
2.250006199999916,40.314,35.518,20.633,42.446,-459.215,107.311,16.053,29.738,25.879,26.931,37.42,32.919,22.257,27.02,88.247,47.624,35.253,19.247,35.923,29.477,-22.907,40.59,37.815,26.991,37.514,28.119,152.468,38.317,9.184
2.2650054999999156,36.687,25.749,16.002,35.743,-463.367,105.666,18.598,32.27,28.927,20.756,28.161,23.665,19.673,22.382,84.061,37.842,31.632,22.814,30.764,25.349,-33.13,31.327,32.655,20.816,34.915,24.505,139.508,34.18,7.638
2.2800648000002184,23.843,10.354,7.276,10.605,-484.42,87.118,13.457,16.869,16.09,5.879,10.714,4.686,6.846,8.015,69.12,16.287,15.719,2.811,13.827,14.053,-45.905,16.439,17.253,8.5,20.535,8.599,138.856,23.387,0.458
2.2801300000000992,16.647,7.782,9.831,10.082,-489.059,85.494,12.419,7.63,8.389,0.75,10.191,0.07,2.228,0.835,62.391,7.049,10.067,-6.413,8.69,10.965,-45.347,10.275,3.403,2.344,11.293,1.418,132.057,16.191,-2.104
2.280171899999914,18.167,5.213,11.87,19.293,-480.885,92.068,17.529,9.672,15.553,6.384,13.767,1.095,6.324,2.883,64.377,6.53,14.156,-1.796,7.657,8.393,-46.838,3.605,0.838,-6.368,10.257,-0.12,122.704,9.003,-3.639
2.2950682999999117,19.686,6.745,5.71,14.663,-479.38,88.902,13.413,14.785,17.587,11.501,11.704,0.069,8.367,3.905,63.801,4.987,12.092,-6.405,-1.573,3.774,-50.378,-4.596,-0.187,-11.997,6.661,-5.756,127.192,8.482,-4.148
2.2951272000000245,21.203,11.349,9.803,13.624,-480.95,88.301,4.178,15.795,10.397,9.44,12.717,4.167,8.871,3.388,63.737,5.494,11.568,-9.985,-2.083,8.381,-47.253,-2.542,-5.31,-10.448,3.068,-5.238,130.138,16.67,5.078
2.3100415000003522,24.768,10.825,24.65,21.807,-474.321,91.287,1.613,11.681,11.923,8.919,18.34,11.848,12.449,10.045,68.284,13.173,19.241,-0.753,9.19,17.082,-40.546,5.145,0.843,-6.852,9.725,1.94,129.496,20.24,19.93
2.3101016000000527,32.94,20.036,30.773,32.031,-463.088,95.806,4.685,18.329,23.182,19.668,28.568,22.595,19.608,21.306,76.413,31.603,31.005,14.617,21.476,26.798,-26.673,17.436,21.847,6.475,23.547,10.135,142.686,28.416,25.545
2.3251036999999997,43.666,32.823,26.644,41.733,-459.551,103.395,10.316,29.582,29.819,28.358,38.785,36.917,28.298,27.432,84.533,47.965,42.245,26.385,37.336,39.579,-10.253,34.837,37.194,25.424,37.868,23.445,156.888,44.782,23.983
2.3251727000001665,44.647,28.18,20.47,37.081,-467.801,101.755,10.818,24.429,27.74,26.28,38.234,42.003,32.368,27.405,87.01,49.454,43.227,27.384,44.471,42.101,-6.656,40.437,40.743,29.497,42.954,30.081,155.194,43.712,20.373
2.3401183999999375,36.405,20.979,13.789,24.236,-475.018,95.505,9.27,14.671,26.688,25.229,33.073,37.862,30.287,24.304,83.337,45.306,33.45,20.696,35.205,35.911,-10.748,32.2,38.653,21.271,35.226,20.83,151.965,27.787,10.618
2.3554354000002604,36.881,21.983,8.14,21.138,-474.543,100.533,12.334,20.291,30.247,28.278,32.527,34.238,30.769,22.23,80.18,43.724,29.83,20.163,31.583,32.802,-10.225,28.069,35.028,19.2,30.58,17.223,155.4,23.661,1.898
2.3555012000001625,36.844,17.35,6.083,20.092,-476.63,98.383,11.297,21.808,30.729,23.127,25.835,27.544,28.689,22.208,78.563,33.946,31.337,22.192,33.601,29.183,-12.776,28.041,32.432,19.181,32.086,23.353,154.22,25.174,-2.202
2.355540999999903,26.049,12.722,-0.071,13.412,-487.424,86.501,2.577,10.515,24.039,13.37,17.1,17.783,16.877,19.624,71.824,20.08,25.671,15.51,22.809,21.981,-20.961,18.791,28.813,11.99,27.444,16.67,147.405,18.489,-9.372
2.3700172000003477,22.437,14.759,-2.12,15.448,-492.06,85.903,3.599,6.919,18.379,11.819,15.546,11.617,11.225,12.944,64.58,14.425,21.547,10.884,14.077,19.398,-23.501,10.063,23.661,6.342,27.928,8.969,142.647,16.933,-10.9
2.384954900000139,30.099,19.355,8.128,22.092,-488.494,91.452,13.329,13.572,21.435,15.394,13.993,9.044,14.799,11.395,68.102,15.435,23.062,13.947,19.186,21.427,-18.867,13.127,24.662,11.459,37.634,15.62,140.968,26.65,1.407
2.3866901999999754,34.167,25.483,19.391,24.632,-491.079,94.435,15.365,17.144,26.024,18.452,16.029,13.133,15.297,15.994,75.718,19.518,23.039,14.445,21.216,25.504,-13.213,20.286,27.711,17.595,39.646,18.166,128.531,33.796,12.676
2.4001427000002877,37.719,29.556,23.982,29.73,-497.76,102.025,13.813,17.127,28.047,22.532,25.746,20.293,18.868,19.052,77.692,26.158,23.528,9.308,18.633,28.041,-6.027,21.291,26.147,16.553,32.434,16.61,109.447,35.299,17.786
2.400203500000316,43.829,30.039,24.47,35.848,-496.75,109.095,12.774,19.672,28.531,28.657,30.331,22.322,26.021,19.545,82.225,28.182,24.017,6.225,20.152,28.012,-0.898,20.757,25.096,16.024,31.889,21.205,108.313,37.313,21.867
2.4150744000003215,45.834,32.57,23.934,39.911,-490.106,107.961,10.2,24.263,29.015,32.727,32.35,25.885,25.483,21.062,88.802,30.715,22.968,10.829,23.718,32.083,0.64,23.81,26.095,21.131,33.394,23.233,121.013,41.374,19.284
2.415133700000297,49.375,33.562,25.447,42.945,-485.005,105.292,13.264,27.312,28.986,32.182,38.978,33.544,25.97,24.115,87.177,39.906,28.581,20.552,26.768,38.199,5.762,26.86,29.143,24.184,32.849,25.259,124.478,41.845,17.728
2.4300944999999956,52.399,33.016,27.983,39.316,-483.495,102.113,21.96,22.162,26.908,27.539,38.427,34.023,29.018,23.579,86.065,43.452,32.138,23.093,30.839,36.623,13.441,30.42,34.237,26.721,35.377,29.332,123.841,37.705,22.833
2.430155900000045,48.761,36.057,27.955,35.178,-484.036,101.498,21.938,19.066,23.295,25.975,35.827,32.964,24.89,20.994,91.614,40.335,26.471,18.972,34.395,36.074,15.989,32.951,37.277,32.33,41.49,28.278,129.865,39.716,23.835
2.445022400000198,50.761,38.583,29.464,40.266,-482.015,107.032,14.231,23.658,26.345,29.535,40.914,36.005,22.304,20.973,91.01,43.368,25.42,21.514,36.922,42.186,16.998,34.455,39.289,36.908,42.473,30.811,135.37,48.898,25.348
2.4467194000003474,55.833,36.495,32.508,45.349,-479.484,106.413,12.68,20.048,32.467,30.53,40.873,34.944,25.868,24.026,85.796,46.399,28.98,27.128,38.422,42.144,19.03,35.957,43.86,39.433,33.721,37.44,132.673,49.362,27.372
2.4601737000002686,45.532,30.311,27.865,39.668,-480.029,96.573,16.766,9.782,28.848,26.401,34.684,31.323,26.354,24.001,84.686,41.741,25.365,23.515,36.846,36.466,17.474,35.409,41.767,41.443,31.638,32.792,124.856,39.578,18.635
2.4602410000002237,34.215,24.645,22.202,36.554,-480.574,92.378,15.724,12.333,24.209,25.862,34.65,31.804,25.303,21.416,83.064,40.163,22.778,17.343,32.199,33.868,17.457,31.275,35.065,35.766,47.488,25.587,121.145,35.953,13.493
2.4751510000000962,40.841,27.694,27.302,47.276,-480.606,97.408,10.073,22.567,32.894,32.496,38.714,33.822,27.327,21.395,80.932,44.221,24.805,16.301,29.605,35.371,22.05,28.17,36.567,29.583,56.15,27.611,136.906,44.626,23.726
2.475230400000328,50.534,40.474,34.96,57.475,-475.002,107.045,15.699,28.692,42.082,39.636,44.823,37.886,30.886,21.885,85.974,45.201,24.268,16.285,31.112,38.41,28.176,30.703,39.092,37.238,47.384,32.706,168.532,55.852,29.338
2.490552100000059,53.557,46.581,31.851,55.368,-463.256,108.987,25.929,33.787,39.479,42.67,51.438,43.484,33.416,25.962,91.524,48.23,25.268,16.269,32.106,39.396,32.246,34.259,35.979,45.91,44.775,36.772,196.54,59.382,24.698
2.4906181000001197,55.041,41.924,21.573,50.702,-459.207,100.681,18.731,32.216,33.291,40.578,49.337,43.953,32.871,28.498,88.358,52.793,27.804,15.74,27.463,34.234,32.726,31.663,34.406,38.691,45.243,33.149,211.713,53.688,20.062
2.5052209000000403,53.449,40.345,17.453,47.578,-465.92,96.482,6.417,19.888,29.672,33.878,44.677,40.323,26.69,22.321,82.634,47.105,24.19,13.163,23.337,29.589,30.132,24.459,27.712,28.406,33.415,23.382,214.063,50.56,16.456
2.5068937000000915,50.321,44.916,19.997,37.284,-466.991,96.898,12.558,11.672,25.544,29.746,44.12,36.696,21.54,14.102,83.064,38.86,17.506,10.588,23.826,29.047,32.151,21.873,17.95,27.866,27.234,23.871,212.312,55.12,18.489
2.5202852000002167,54.882,47.945,21.002,37.247,-457.302,92.19,20.23,18.32,26.031,32.79,42.539,33.586,22.031,12.039,80.419,39.334,14.927,10.065,22.778,27.993,36.729,21.851,19.982,28.863,31.817,27.945,216.71,55.578,19.495
2.5203490000003512,57.901,44.823,16.882,49.505,-451.21,90.049,15.087,24.962,30.103,34.806,43.009,34.577,24.058,14.076,74.704,38.27,16.449,12.105,17.12,26.94,35.668,20.292,25.085,28.321,30.248,23.307,221.104,46.813,10.766
2.5352952000002915,51.695,35.044,11.23,42.795,-454.345,92.52,14.559,22.375,28.024,30.673,45.015,34.542,21.985,17.648,76.166,34.646,19.507,15.166,17.615,27.426,35.12,18.735,19.936,29.318,28.169,22.771,218.834,39.081,3.583
2.5353595000001405,45.496,27.837,8.145,27.383,-459.526,89.354,20.18,17.742,23.897,25.519,37.285,27.335,16.328,17.63,77.627,36.66,17.438,16.688,21.696,25.862,37.647,18.716,21.453,30.825,33.264,25.822,219.64,38.53,6.653
2.5502621000000545,45.45,33.444,12.235,36.577,-457.017,87.215,21.185,18.237,25.923,23.444,28.539,21.672,14.774,14.027,71.914,34.062,14.347,17.184,21.674,24.811,37.609,20.747,28.604,31.819,34.767,24.259,223.518,43.614,10.233
2.565360999999939,43.868,38.022,20.42,47.299,-455.535,89.689,25.262,22.317,27.434,22.909,31.072,22.163,16.297,15.55,69.28,28.392,16.894,18.703,19.603,24.274,35.522,23.288,24.99,33.836,33.196,25.26,223.807,46.132,12.272
2.5654248000000734,36.652,29.787,21.424,37.518,-463.277,86.014,26.774,22.294,23.82,22.886,32.065,22.141,15.256,16.559,67.674,29.389,16.365,16.636,18.559,21.688,37.023,18.141,18.817,31.241,33.675,23.185,227.17,39.939,11.747
2.5804763999999523,35.591,26.171,16.28,35.431,-465.887,80.292,15.988,16.124,20.722,21.838,28.959,20.07,12.167,10.907,62.996,29.359,10.713,12.008,14.954,19.105,40.06,12.488,21.872,28.136,29.543,14.965,228.992,34.776,7.125
2.5954097000003458,43.752,33.829,16.776,46.667,-455.175,81.236,8.8,14.059,22.751,22.841,33.029,23.123,12.667,10.383,64.982,29.33,11.214,14.558,15.451,22.672,44.119,20.16,25.949,33.743,30.538,23.147,228.25,42.425,12.753
2.595474000000195,48.319,36.357,23.419,48.669,-446.011,84.229,15.451,21.73,25.29,26.917,38.119,28.223,16.753,17.033,70.552,36.473,16.839,21.203,21.584,27.26,51.247,28.337,28.484,40.369,41.778,33.883,238.268,49.043,24.011
2.595517199999904,43.147,34.271,21.346,46.059,-447.614,82.096,20.559,22.733,23.727,28.427,35.519,27.683,16.736,15.991,69.969,36.949,16.309,20.157,22.074,25.184,53.245,22.161,30.505,38.792,44.298,26.676,247.251,42.846,19.376
2.611397200000283,41.567,35.262,11.079,45.501,-452.802,79.452,20.538,17.587,21.142,24.3,35.484,26.63,14.158,10.34,69.899,33.326,12.195,16.551,19.491,22.597,53.192,18.04,25.864,36.192,35.544,24.088,242.393,41.266,9.111
2.611456999999973,44.087,33.177,7.481,38.283,-453.374,79.885,21.03,18.594,22.146,21.714,38.522,29.165,15.168,10.33,71.879,40.465,11.67,16.534,23.057,25.648,57.749,25.194,22.764,37.693,29.361,32.261,243.688,47.373,9.614
2.6253472000003057,34.822,24.435,7.474,30.048,-457.019,76.219,14.349,16.526,20.586,20.667,33.361,27.599,17.714,9.295,66.171,39.912,11.658,13.444,20.473,23.573,54.618,23.12,22.741,32.532,23.696,23.007,251.641,38.104,7.043
2.62540910000007,19.418,16.726,-2.78,23.87,-474.492,66.921,6.65,6.263,13.394,12.962,19.495,19.887,14.623,6.212,58.421,23.99,8.061,10.869,13.792,17.402,44.317,11.826,16.058,23.278,18.549,9.664,245.242,22.697,-2.186
2.64162400000032,17.349,16.197,-17.634,18.723,-488.875,67.366,15.865,9.331,16.454,7.826,12.815,16.793,11.022,11.841,57.85,19.356,8.565,13.42,16.852,16.36,46.322,10.277,15.018,25.304,24.166,14.778,244.484,22.674,-8.844
2.641700000000128,18.356,16.18,-21.715,16.655,-488.386,74.984,25.071,23.666,24.122,12.941,16.389,15.752,12.548,17.977,59.329,23.947,12.143,13.919,17.86,17.368,51.911,12.828,23.712,32.963,27.216,16.812,255.511,24.188,-14.983
2.655557399999907,12.19,10.017,-22.205,15.614,-490.971,70.298,18.386,21.081,18.975,14.465,15.86,13.175,10.998,14.373,57.733,18.288,8.032,10.831,9.645,13.252,46.223,9.229,25.737,32.418,22.578,10.647,251.669,17.504,-19.066
2.6556218999999146,15.252,7.445,-26.794,14.061,-497.14,64.08,13.244,10.301,11.784,9.328,10.721,12.137,6.377,7.186,58.187,11.609,0.339,8.771,11.173,10.165,48.226,10.245,25.712,30.848,29.728,13.198,248.856,17.999,-15.973
2.6703984999999193,23.946,14.098,-25.23,18.146,-491.52,68.114,16.305,11.316,13.309,7.782,13.784,10.588,4.833,3.08,61.203,11.086,-2.735,4.664,13.211,9.643,56.375,12.796,31.321,35.941,39.944,17.284,263.976,26.178,-9.297
2.6704539000002114,22.385,21.256,-14.959,26.325,-482.32,69.583,15.264,13.866,12.783,7.774,19.406,6.991,4.316,0.003,60.629,10.562,-4.781,1.073,6.025,9.121,56.319,8.685,28.216,42.052,39.392,18.291,264.737,32.812,-2.628
2.6844272000003,28.51,25.333,-8.284,32.446,-474.153,69.001,12.687,12.315,13.283,10.328,22.46,12.619,7.386,1.028,61.593,14.138,-6.314,4.146,8.581,12.698,61.386,9.701,21.528,44.572,39.865,24.933,256.275,40.976,4.547
2.6844843000003493,39.753,24.283,-9.812,30.364,-465.994,74.055,9.088,13.327,16.343,13.391,25.512,19.779,11.989,5.638,67.167,20.271,-4.258,7.215,13.183,14.734,68.496,14.302,22.531,40.941,37.263,26.445,265.753,40.935,5.567
2.699504100000013,28.954,14.525,-14.413,20.088,-468.602,69.883,-0.655,10.24,8.13,7.742,23.437,12.075,7.366,4.607,63.002,15.64,-4.254,2.085,2.924,9.084,60.743,6.091,15.849,29.629,20.32,17.709,268.561,25.012,-2.635
2.699567399999978,15.093,6.826,-16.96,15.969,-476.33,63.665,-1.679,6.644,3.511,3.636,16.241,6.427,4.797,4.09,54.229,8.452,-2.2,2.083,-1.69,6.001,56.072,-0.575,7.123,23.964,13.64,13.593,260.095,15.766,-9.805
2.7145101999999497,20.713,8.356,-11.308,22.613,-476.366,68.725,7.544,12.273,12.217,8.756,14.688,14.105,10.428,11.259,57.761,13.567,7.536,11.302,7.021,11.118,61.651,7.622,15.826,30.088,24.384,14.604,264.958,20.873,-7.746
2.714571800000158,17.619,6.298,-6.686,19.517,-482.037,65.582,10.098,11.236,12.717,7.722,14.673,15.116,8.881,14.321,59.753,17.14,10.602,14.877,4.965,10.595,60.053,5.565,19.396,29.033,22.311,11.003,265.718,16.241,-8.251
2.729888800000026,1.207,-3.954,-14.364,4.128,-493.851,56.807,8.551,6.614,6.557,-1.507,6.462,6.392,2.212,9.696,49.447,8.925,4.956,10.252,-6.311,2.387,52.82,-9.297,6.569,17.221,11.53,2.795,253.157,2.393,-19.513
2.729947700000139,-3.917,-10.61,-23.571,1.562,-497.968,59.824,9.055,11.73,10.136,-4.579,-0.717,2.287,2.21,7.125,45.811,1.232,4.439,11.266,-9.379,-1.201,47.644,-15.948,1.439,11.569,12.031,-5.405,247.781,-2.22,-26.154
2.744527500000004,-6.474,-12.137,-20.986,8.221,-497.982,59.764,9.558,14.28,9.614,-5.087,-4.815,-0.789,0.158,7.118,44.741,-1.331,5.971,15.865,-8.857,-2.737,42.474,-17.981,3.487,11.045,14.068,-8.473,244.459,-1.194,-21.517
2.7595225000000028,-13.64,-10.587,-11.744,10.774,-493.385,52.02,13.135,9.143,4.481,-7.644,-6.859,-3.35,-4.453,7.111,38.036,-3.891,3.916,17.899,-8.336,-5.808,42.431,-21.037,-0.103,11.034,10.468,-7.952,239.604,-2.729,-17.909
2.761311400000068,-5.43,-1.868,-5.584,17.936,-478.547,57.603,16.196,14.769,10.624,-4.05,-1.217,2.801,-1.374,8.641,41.584,1.748,6.474,22.492,-2.692,-0.679,51.098,-12.819,3.484,15.121,12.507,-4.87,245.512,1.884,-11.231
2.774627000000237,10.457,10.942,0.569,27.651,-469.872,64.206,16.18,23.463,15.737,2.102,10.567,10.483,3.75,9.144,51.276,13.53,10.566,27.08,4.995,8.031,61.805,0.001,14.239,20.229,15.568,2.307,254.488,12.641,-1.486
2.77469020000035,11.471,14.005,1.081,28.648,-472.476,62.605,16.676,19.341,12.135,2.612,12.606,13.034,5.283,9.647,50.201,15.565,9.018,26.541,7.552,7.511,64.305,2.563,16.786,24.307,17.089,8.452,258.844,17.239,-3.021
2.7896709000001465,5.312,7.843,-5.58,25.034,-471.491,63.054,13.073,12.15,9.561,-1.489,6.446,13.021,3.229,12.199,47.589,11.451,9.009,26.514,5.495,4.429,60.142,0.511,12.671,26.845,21.683,7.931,256.536,16.197,-8.141
2.7897342000001117,2.233,7.835,-4.55,17.836,-464.36,57.868,7.424,12.65,7.502,-5.074,5.415,9.934,0.664,12.187,49.078,9.391,9.0,28.024,4.977,6.474,58.545,4.609,14.707,28.867,26.784,11.51,247.058,18.742,1.088
2.8046118000002025,4.28,12.951,-1.472,11.158,-463.383,49.613,11.003,14.687,7.495,-5.069,7.458,7.362,2.712,9.613,46.98,9.381,4.893,26.972,6.509,4.931,59.511,8.191,21.352,30.887,29.319,16.109,246.811,24.359,7.747
2.804672700000083,3.763,7.814,-10.692,12.684,-471.117,53.15,10.48,14.16,12.098,-2.502,5.402,7.355,4.247,8.579,45.908,7.835,2.326,22.334,2.404,-0.71,55.353,-0.015,18.257,29.832,28.265,9.433,251.687,21.261,-1.994
2.819657100000313,-2.9,-0.39,-15.804,13.696,-473.719,54.121,6.371,13.121,12.086,-0.962,2.835,7.348,2.193,8.571,46.375,5.265,3.861,18.726,-1.697,-1.221,48.638,-7.187,10.042,24.679,24.138,1.226,245.8,13.555,-7.628
2.8213567000002513,-0.848,4.733,-4.517,11.121,-460.95,49.969,20.709,15.669,14.635,2.625,7.443,11.439,7.314,11.636,44.279,8.846,6.419,20.756,2.916,4.415,52.175,0.505,15.155,26.191,24.114,6.861,244.017,16.615,-2.497
2.834725100000014,11.96,13.95,4.196,19.307,-450.755,58.116,35.545,21.801,23.842,8.257,15.12,17.575,11.918,14.186,50.382,16.01,6.412,22.784,8.036,7.485,59.296,8.701,22.825,32.825,30.238,15.051,250.946,25.82,2.116
2.8347914999999375,13.998,14.448,1.631,26.972,-457.477,64.205,26.801,23.829,21.257,6.712,14.592,13.459,5.758,9.048,58.529,13.432,1.795,16.102,5.466,5.94,57.699,6.131,19.728,32.28,31.232,15.548,252.744,26.307,2.626
2.849778000000242,7.324,10.335,-1.957,18.748,-462.655,54.92,14.991,15.608,7.916,-0.467,7.918,3.712,-0.396,2.379,54.884,7.271,-5.379,10.963,2.387,3.885,53.031,6.637,19.196,30.711,26.078,16.557,255.053,21.67,1.087
2.8498403000003236,10.902,8.788,-1.955,11.557,-456.557,49.742,14.463,8.42,5.346,-4.052,5.861,1.659,-0.395,4.426,49.706,7.776,-6.398,14.025,4.946,6.955,54.002,13.803,23.787,35.803,27.077,19.614,255.31,22.673,1.086
2.8651150999999118,17.039,9.804,0.096,18.206,-450.465,55.327,16.498,14.559,12.001,-0.462,14.564,8.829,2.167,10.569,54.78,12.891,1.293,18.622,12.626,12.584,59.584,20.961,29.399,41.915,36.783,23.693,251.981,28.285,5.695
2.8651755000000776,23.17,14.405,3.682,24.847,-448.99,62.957,20.068,26.328,15.575,9.272,26.333,23.678,10.874,13.633,64.459,24.662,9.488,25.264,21.322,19.231,66.697,31.699,41.665,50.07,45.968,30.329,260.438,33.38,11.837
2.879809800000203,33.393,18.489,4.191,26.359,-447.004,70.578,19.535,27.326,18.633,15.923,33.991,35.437,18.035,15.156,71.567,36.932,11.016,31.898,26.936,25.359,70.728,40.377,51.357,58.729,49.508,35.422,269.399,33.347,13.875
2.881661599999916,36.946,16.421,3.674,26.333,-448.094,75.631,11.831,22.176,23.738,16.419,34.469,34.889,18.017,17.19,73.032,36.383,13.054,33.403,30.496,27.383,70.145,38.799,47.72,58.67,50.483,33.85,266.056,31.264,11.812
2.8948090000003504,28.199,10.77,1.109,22.208,-454.306,75.555,13.869,21.641,24.739,17.427,31.873,30.756,18.512,20.247,72.447,34.298,19.189,33.882,29.953,24.794,65.464,34.15,42.549,51.952,49.408,30.23,266.815,29.184,6.677
2.894866699999966,22.024,6.148,-5.04,12.452,-459.999,70.869,25.126,20.595,20.615,15.361,30.817,30.725,19.518,23.813,71.862,35.8,22.243,33.336,22.238,20.671,57.714,28.48,41.482,44.215,43.723,26.613,262.962,22.494,2.059
2.9098621000002822,19.952,2.556,-6.059,10.903,-455.953,63.626,27.662,17.5,19.058,10.222,27.2,27.621,15.912,23.277,66.155,32.178,18.123,27.667,19.142,17.064,50.484,22.816,39.391,39.56,40.606,20.951,246.817,16.837,1.545
2.9248388000000887,13.272,-1.033,-5.029,14.478,-453.448,61.513,21.487,16.458,19.039,7.138,18.976,20.933,9.236,17.106,59.941,23.437,12.981,22.004,17.586,13.461,45.311,20.232,35.253,38.496,40.565,17.344,245.033,16.82,0.519
2.9248983000002227,3.525,-8.717,-14.758,4.217,-468.876,57.353,15.317,11.319,7.749,-2.603,6.661,8.617,0.518,9.404,55.782,10.093,4.259,13.785,3.736,5.763,36.044,10.99,24.972,31.798,30.791,15.79,245.301,10.143,-6.142
2.939834300000257,-3.138,-11.782,-15.767,-7.57,-481.215,45.0,14.278,1.061,-3.017,-14.896,-3.079,-4.712,-6.655,4.271,49.067,-4.774,-2.917,5.575,-5.489,-0.39,26.274,1.245,16.238,24.593,23.075,13.213,230.711,3.473,-6.648
2.9398928999999043,4.549,3.599,5.253,10.881,-466.389,48.029,20.411,3.622,6.72,-8.221,1.022,-1.633,-1.525,9.39,51.067,-0.67,3.233,10.692,7.324,6.27,29.834,11.49,25.955,33.278,37.397,17.298,232.017,17.814,8.728
2.954936099999941,17.865,21.014,21.129,38.535,-447.992,64.887,21.927,18.987,20.033,6.132,12.804,10.664,6.673,18.602,59.725,12.138,11.939,19.903,16.538,15.485,35.952,24.286,36.175,42.466,48.63,25.478,245.105,30.604,20.502
2.9550287000001845,15.286,18.432,13.423,37.984,-446.519,63.798,13.709,21.53,13.865,3.052,14.328,7.579,2.568,12.948,58.128,8.54,4.243,13.223,7.813,9.834,30.793,16.577,23.331,32.178,36.799,19.817,236.151,18.79,11.773
2.969962099999975,9.123,10.729,7.262,27.7,-444.536,54.512,15.232,11.775,7.191,-2.074,11.753,3.985,0.004,1.152,55.509,3.92,-4.471,5.525,2.682,3.164,26.151,10.413,15.624,24.461,28.565,10.575,225.156,13.136,6.638
2.970025600000099,18.847,14.304,14.94,27.672,-437.943,62.655,23.413,14.837,13.844,5.1,21.475,17.814,8.201,6.787,62.625,16.724,6.292,14.741,13.437,14.432,32.785,21.161,29.44,33.146,35.196,19.274,233.128,23.369,16.877
2.9852868000002672,26.001,15.827,15.437,24.57,-441.092,68.227,17.755,18.408,14.855,7.657,29.138,27.53,11.779,18.051,66.149,27.466,19.606,25.485,24.695,25.688,38.388,24.726,32.485,36.186,35.673,26.939,239.042,20.272,14.811
2.985349000000042,16.753,7.102,3.126,19.935,-447.31,61.499,4.417,8.656,7.668,3.551,20.912,22.379,6.131,19.057,62.497,24.365,14.975,21.873,19.547,18.49,30.665,17.017,16.571,23.855,24.367,16.154,234.192,9.493,-2.11
2.999937100000352,8.027,1.459,-5.586,19.915,-444.814,58.876,1.339,5.573,5.611,3.547,15.255,15.184,3.564,13.403,55.774,14.606,3.69,10.068,7.232,7.713,19.363,9.828,11.943,14.609,14.097,7.941,227.298,6.41,-5.694
2.9999981999999363,8.019,4.531,-4.556,14.772,-442.832,58.817,8.51,12.228,8.167,2.519,15.24,9.534,1.511,7.242,49.058,5.37,0.612,1.861,4.663,8.218,16.27,8.281,21.153,19.206,17.669,14.081,220.411,6.916,1.484
3.0150401000000784,9.036,7.088,-0.453,9.634,-449.562,56.197,14.137,10.166,8.671,-0.045,11.127,7.475,0.485,4.673,52.083,5.365,1.124,2.884,11.319,11.796,16.766,14.933,27.792,31.482,34.045,19.702,219.678,13.056,1.483
3.0151052999999592,7.49,4.007,0.06,9.625,-454.235,54.604,15.659,5.033,8.15,-0.557,8.554,9.517,0.997,8.767,55.105,7.921,-0.414,5.955,14.894,11.272,15.212,22.09,33.912,36.061,43.745,20.195,220.483,16.117,-0.568
3.030002599999989,0.822,0.417,-7.113,6.029,-455.83,50.451,15.131,7.589,4.043,-4.655,4.447,2.335,-4.127,7.221,48.902,0.228,-4.512,0.826,11.805,8.187,13.66,20.531,36.439,31.927,40.115,18.125,214.627,8.416,-0.055
3.030069899999944,-3.789,1.442,-12.741,4.998,-463.571,45.277,14.604,6.045,-2.621,-11.823,-6.316,-9.45,-12.32,-0.983,45.779,-9.506,-11.168,-7.372,3.596,3.055,9.548,12.826,26.669,28.821,35.464,14.521,212.363,4.822,-3.129
3.045002000000295,-1.224,4.002,-6.068,10.629,-462.083,45.232,12.54,0.403,-5.692,-14.373,-8.871,-9.953,-14.869,-3.031,46.758,-13.082,-12.694,-8.901,-2.555,0.491,4.928,8.714,17.421,28.28,33.891,12.969,213.688,10.452,-2.614
3.045063200000186,-1.223,3.998,2.647,14.204,-452.399,45.699,9.966,0.915,-6.711,-12.309,-2.715,-4.82,-14.855,0.558,45.175,-12.045,-6.533,-5.819,-2.04,1.515,4.411,7.169,18.428,25.177,30.271,12.956,209.376,9.93,4.561
3.0599999000000935,-4.808,-2.666,-0.942,11.116,-459.632,45.653,2.271,-0.11,-10.29,-12.297,-3.224,-5.328,-13.815,2.094,45.129,-8.446,-1.916,-4.788,-2.551,0.489,2.869,2.551,14.823,23.103,29.216,8.845,206.605,1.21,3.532
3.074960899999951,-6.852,-13.934,-11.699,0.346,-474.541,44.583,-13.1,-11.893,-15.403,-14.846,-5.27,-6.347,-12.264,1.58,43.035,-10.487,-4.475,-9.906,-7.671,-1.049,-0.208,-1.55,7.124,19.494,25.601,3.201,206.398,-8.525,-9.791
3.076796000000286,-6.333,-18.531,-14.761,-5.802,-469.968,43.001,-19.747,-15.98,-12.826,-15.343,-4.24,-4.291,-13.277,0.553,41.455,-13.038,-7.545,-13.995,-6.127,1.514,1.842,0.501,9.678,14.351,17.891,3.198,203.63,-9.028,-14.392
3.0768505000000914,-0.179,-9.291,-9.623,4.45,-460.789,46.545,-7.432,-4.693,-5.129,-10.205,-2.187,-1.726,-12.239,-0.472,51.147,-4.828,-6.0,-8.346,1.564,5.611,7.475,6.648,15.304,17.411,20.435,9.342,204.964,2.764,-4.644
3.090066499999921,9.043,1.989,-6.54,14.18,-464.427,52.646,7.432,0.947,-3.074,-6.609,1.401,-0.187,-6.591,0.553,59.293,-1.75,-5.482,-5.776,4.636,7.655,11.566,13.814,17.85,27.127,31.173,15.993,209.882,11.47,4.07
3.106246000000283,8.521,0.962,-11.144,7.506,-468.573,52.593,7.937,-4.689,-4.608,-7.627,1.4,-2.748,-8.122,2.09,54.623,-9.432,-6.501,-9.868,5.144,8.672,14.116,20.46,25.005,30.686,35.24,19.563,211.721,12.483,3.553
3.106311200000164,3.39,-5.186,-15.744,-1.211,-467.08,52.028,6.905,-3.66,-1.017,-5.57,0.886,-1.721,-10.163,4.649,52.519,-6.349,-3.421,-3.198,11.799,11.224,14.615,25.05,34.714,32.705,40.328,22.105,213.046,15.545,-0.549
3.106352499999957,9.534,-1.595,-11.117,1.864,-462.002,55.562,13.558,8.127,5.131,1.608,11.644,8.527,-1.443,11.305,59.639,5.953,5.292,10.125,22.033,19.41,18.698,29.636,38.777,39.844,51.558,27.206,215.907,20.652,-0.036
3.1201553999999305,19.771,10.702,-1.885,15.182,-449.245,64.216,21.741,16.316,12.299,9.803,23.928,18.252,8.292,16.929,65.727,13.119,16.557,14.725,29.696,28.612,26.364,38.315,45.911,45.952,63.29,33.326,219.277,29.341,10.21
3.1350600999999187,21.288,20.425,0.167,26.438,-437.012,73.886,21.207,16.299,19.459,16.454,23.391,20.283,11.87,15.375,68.223,15.667,19.102,16.248,33.765,29.096,29.412,43.4,55.086,50.005,66.3,36.367,221.107,41.095,18.397
3.1368285000003198,18.705,22.966,-2.395,26.411,-434.526,75.349,16.575,15.771,17.39,16.95,19.782,17.701,13.395,11.773,65.081,11.553,12.423,14.182,31.169,23.944,26.309,37.209,49.908,46.369,55.988,32.744,216.788,43.103,13.256
3.1501585000000887,16.125,21.406,-3.417,24.336,-439.215,74.249,15.022,18.829,13.786,13.859,19.762,13.073,11.845,11.761,61.942,1.296,5.751,7.508,25.503,20.334,21.671,26.413,35.001,33.002,41.075,25.539,209.911,37.424,7.095
3.1502214000001914,14.572,19.336,-3.926,23.799,-442.874,77.761,20.642,17.273,17.871,11.283,16.156,6.912,11.321,10.213,58.806,-1.267,4.208,7.5,19.842,17.24,15.502,19.215,26.257,22.211,34.886,19.878,208.164,33.801,6.063
3.1652202000000216,13.02,16.755,-4.947,17.115,-445.505,72.047,28.818,8.034,18.365,4.612,6.406,0.245,10.285,6.104,53.624,-7.926,0.618,5.956,12.65,12.099,11.388,13.048,19.059,17.578,29.728,13.198,193.611,27.619,0.934
3.165285600000061,10.446,14.176,-8.016,11.975,-452.232,61.729,25.203,2.903,7.589,-4.614,-1.797,-5.903,0.028,-0.05,53.058,-22.263,-6.043,-5.833,4.44,8.501,11.377,6.375,9.306,12.437,20.989,8.062,161.142,25.03,-3.166
3.1801461000000018,9.411,15.187,-13.131,13.5,-455.878,62.692,10.321,3.413,-0.104,-7.683,-3.332,-9.483,-8.169,-7.222,54.03,-24.802,-9.623,-10.438,2.387,7.98,12.39,8.418,10.833,12.425,23.017,13.177,128.706,31.153,-2.65
3.180207899999914,12.987,18.758,-11.069,10.925,-447.225,64.166,5.188,-0.177,0.921,-9.725,-1.792,-8.961,-7.648,-4.141,50.39,-18.117,-7.564,-3.255,7.507,11.046,14.939,15.069,20.556,18.048,30.167,20.849,129.089,35.732,-0.086
3.195204399999966,20.659,18.739,-3.885,9.889,-438.581,63.59,13.38,-3.763,2.457,-11.252,0.259,-5.366,-6.616,2.523,56.487,-14.513,-2.434,-1.715,13.647,18.207,22.097,16.591,22.585,19.566,32.698,19.803,142.28,35.696,7.599
3.1969154000003073,27.298,19.233,-1.832,13.466,-437.63,71.211,15.928,1.364,3.479,-3.556,6.919,0.787,-6.097,-0.041,68.726,-7.838,1.667,-0.689,16.195,24.337,26.173,17.087,23.587,23.645,38.813,19.271,142.138,37.198,14.764
3.210302899999988,24.197,20.238,-1.318,13.452,-434.119,72.164,5.666,4.436,5.013,2.083,11.01,4.885,-1.993,-1.578,66.096,-2.195,3.715,8.021,17.204,23.8,23.585,21.68,31.248,29.769,47.483,22.838,134.824,37.161,13.724
3.2103698999999324,17.001,18.681,-1.317,15.488,-427.537,66.457,-3.049,-0.691,5.008,-1.506,7.925,5.392,-1.478,7.133,59.882,-3.73,7.81,12.624,18.723,20.19,21.0,20.122,32.754,28.203,48.461,20.766,134.177,33.537,12.174
3.2253186000002643,16.984,17.125,-5.414,16.497,-425.572,69.464,-3.558,-1.203,6.027,-0.992,10.479,7.948,-0.965,12.249,61.871,-1.677,14.462,13.124,17.68,23.244,23.028,13.954,29.647,26.638,46.875,18.184,130.969,33.504,15.235
3.225383899999997,20.041,17.108,-4.384,5.21,-424.122,70.419,3.105,2.385,7.558,3.108,15.592,12.039,3.135,11.212,61.297,1.399,18.034,17.209,18.175,27.319,26.079,15.477,31.667,30.709,51.951,20.215,122.128,35.519,17.782
3.2406765000000632,18.996,13.505,1.256,4.18,-425.235,65.738,13.348,-0.179,7.038,2.08,13.527,13.564,3.132,10.176,62.773,2.934,15.966,18.729,23.28,24.73,30.664,21.609,37.783,33.24,58.559,22.244,123.031,32.922,16.739
3.2407403000001977,19.489,8.881,-2.844,15.446,-434.544,67.209,15.384,2.382,6.007,2.078,11.976,13.038,1.079,9.142,65.271,6.517,14.413,15.636,25.306,25.218,36.781,25.174,42.868,35.769,57.989,25.295,130.08,28.279,10.575
3.2552771999999095,17.421,6.823,-10.013,10.82,-439.232,65.605,6.659,8.015,6.001,2.588,11.964,9.951,1.078,9.132,58.546,3.437,13.887,12.547,20.67,29.291,33.158,25.661,39.751,35.22,51.271,24.758,133.024,25.689,5.953
3.257087599999977,11.768,4.254,-5.905,3.125,-433.157,58.88,10.239,5.446,3.945,0.024,8.878,6.355,-1.484,9.123,54.389,-4.763,9.774,8.436,19.112,24.139,24.416,18.463,31.515,29.55,46.609,17.048,149.797,22.077,11.07
3.2703521000003093,13.293,5.275,-5.386,11.319,-426.064,61.382,22.012,6.465,4.966,2.586,10.919,9.422,-0.458,5.528,57.921,-1.173,7.203,7.403,19.605,19.504,26.44,12.809,30.459,26.959,46.562,18.568,175.775,21.03,11.572
3.2704140000000734,17.89,7.831,-17.676,11.307,-425.638,64.907,15.33,11.582,10.084,5.145,14.494,16.073,6.202,7.572,56.838,5.489,10.782,12.006,17.536,25.632,31.537,17.919,32.477,28.469,47.54,25.722,178.673,22.034,-1.248
3.285344299999906,15.311,5.261,-24.319,-1.512,-426.75,60.744,9.167,7.472,10.074,1.553,11.918,17.081,7.733,13.712,53.708,2.922,13.333,11.994,17.006,25.094,28.944,19.951,28.346,24.342,46.468,21.598,166.199,21.5,-4.32
3.3003778000002058,10.685,2.695,-20.196,-2.022,-425.298,55.048,18.379,2.853,4.941,-1.522,8.32,10.917,3.115,10.624,53.654,1.382,13.319,8.396,16.989,17.384,26.353,11.734,28.318,20.219,40.786,16.453,162.959,19.429,2.856
3.3004406000000017,10.162,2.692,-23.762,0.029,-420.262,49.869,10.164,3.363,0.325,-4.082,5.238,4.246,-2.012,3.954,48.99,-0.157,9.72,5.826,11.337,17.367,23.766,6.087,27.777,16.613,30.499,15.412,158.185,13.774,-3.806
3.3153642000002037,13.738,2.177,-29.374,-6.119,-417.28,49.307,-8.802,0.286,-2.237,-3.566,5.745,5.266,-5.596,5.999,48.941,-4.767,6.124,3.771,11.326,18.886,21.693,8.642,22.114,13.01,29.444,14.372,152.392,13.248,-10.975
3.3154176000002735,26.532,13.446,-15.512,2.084,-409.178,58.479,1.966,7.97,3.913,8.733,20.596,15.507,1.582,12.653,62.212,7.533,14.827,10.427,21.048,22.966,35.503,18.367,30.801,24.78,46.321,24.604,162.485,29.629,4.405
3.3304431999999906,39.825,32.9,-2.176,25.136,-393.4,66.106,17.845,20.257,11.594,17.946,32.359,24.201,10.802,16.226,69.834,22.895,23.522,19.638,24.613,32.165,47.763,28.595,46.14,41.661,60.107,37.387,174.106,42.919,16.696
3.330507099999977,34.15,31.33,-12.933,26.648,-398.13,60.404,7.069,8.966,2.873,5.633,19.518,18.029,2.594,12.624,61.055,9.552,11.203,9.372,15.367,24.448,36.444,19.345,36.872,31.374,47.751,28.64,165.223,32.63,4.897
3.3444970000000467,18.234,12.856,-25.727,2.03,-428.47,50.098,-1.648,-6.412,-8.913,-8.718,3.617,2.129,-9.704,5.439,52.797,-11.462,-0.592,-4.982,6.643,9.054,21.551,-0.142,20.441,9.313,28.236,14.267,154.299,17.228,-7.916
3.3445623000002342,15.655,7.207,-23.653,-7.706,-440.849,47.486,2.453,-2.307,-3.781,-6.147,5.663,-1.459,-7.132,5.434,53.769,-9.914,6.069,-1.903,6.124,13.656,23.066,0.883,21.446,10.841,29.232,14.253,158.243,14.649,-10.982
3.359474300000329,20.762,11.299,-20.043,8.696,-430.162,51.025,-1.136,5.38,2.883,1.031,9.756,7.764,-1.49,8.502,53.203,-2.219,11.186,4.247,12.778,21.327,29.191,10.616,27.06,20.564,35.863,17.825,159.622,17.708,-9.946
3.3595338000000083,17.667,11.8,-16.436,17.909,-428.195,50.461,-1.647,6.911,3.905,1.542,9.234,10.318,-0.976,6.444,52.125,-2.73,9.638,6.804,16.351,18.744,29.674,9.068,29.082,19.518,34.802,17.807,151.777,19.74,-6.35
3.374953800000185,16.113,10.763,-9.248,12.255,-428.792,53.485,8.601,10.491,12.098,4.615,13.835,9.795,1.586,6.95,58.221,-0.678,14.239,11.92,16.335,20.262,30.669,9.059,31.614,18.987,37.329,17.789,150.089,19.72,-2.246
3.37501629999997,22.244,12.289,-7.189,14.805,-420.678,62.14,13.715,16.116,16.696,11.782,18.432,15.933,5.171,12.579,62.261,5.983,19.348,14.47,17.343,24.853,32.688,13.148,32.095,22.041,40.366,17.259,155.574,20.213,-1.219
3.3895307000002504,24.784,14.839,-6.157,24.524,-420.77,64.64,17.288,21.222,11.044,12.283,19.951,17.966,6.19,12.566,61.686,9.563,15.742,12.919,16.813,23.803,34.704,10.061,29.501,19.97,38.276,17.754,157.468,21.729,0.832
3.389594400000078,23.734,15.848,-2.053,21.938,-424.96,60.989,19.832,18.64,9.496,9.197,20.955,13.85,4.647,6.406,62.649,8.529,10.604,11.881,14.235,24.804,35.182,6.977,25.373,16.364,37.725,16.199,155.773,20.683,3.393
3.404557400000158,25.76,16.857,-0.514,18.33,-417.875,62.465,8.541,11.449,8.975,8.163,20.934,15.885,2.081,6.912,61.05,9.033,11.105,11.869,15.758,26.316,35.147,7.483,21.762,17.372,37.175,15.671,155.105,24.249,2.365
3.4195715999999265,29.833,21.451,-0.001,24.459,-407.211,63.939,-1.714,15.536,2.818,7.13,22.45,19.968,2.079,11.003,59.452,14.147,16.73,15.956,17.791,25.265,37.161,11.061,26.863,22.99,37.138,21.803,154.95,32.934,6.973
3.4196335999999974,32.364,25.016,-0.513,23.922,-400.144,60.802,-1.199,16.033,-0.259,5.586,22.94,15.849,1.565,8.431,62.978,13.62,16.713,15.427,16.236,25.24,38.661,14.124,32.984,25.016,37.613,26.904,152.234,33.413,9.527
3.4345922000002247,30.283,18.331,-6.148,12.628,-399.231,53.056,-6.321,-0.377,-5.382,2.507,15.745,7.637,-4.585,2.275,60.354,2.336,6.962,5.166,15.195,21.629,34.523,9.499,26.291,19.868,35.014,21.754,144.397,25.695,1.833
3.4346534000001157,24.617,11.652,-10.241,9.029,-402.93,47.368,-12.463,-6.012,-10.499,-2.107,11.119,3.531,-8.166,1.76,54.146,-3.302,3.881,2.599,14.668,17.508,32.44,5.391,23.703,20.873,34.979,20.708,138.105,23.62,2.856
3.4495779000003495,25.617,14.202,-9.718,14.655,-401.503,53.468,-6.815,6.289,-4.853,0.457,18.28,7.113,-3.035,5.344,57.165,3.362,11.562,9.769,16.19,21.589,36.506,14.608,35.975,30.586,40.58,24.273,140.016,26.67,11.05
3.4514186999999765,27.641,14.188,-13.807,11.054,-401.614,58.025,-1.685,7.307,-1.775,5.58,18.774,9.155,-1.495,4.827,58.645,6.432,9.501,7.71,19.248,24.642,36.981,18.179,37.476,29.019,40.027,22.712,141.925,27.156,6.941
3.464635199999975,17.879,4.44,-20.453,-1.252,-412.995,49.77,-3.22,2.177,-4.334,1.476,9.533,4.535,-5.08,1.236,50.39,0.278,-1.267,0.53,14.105,18.469,30.797,8.427,25.655,17.207,32.814,19.103,136.148,23.03,-2.288
3.4796917000003305,14.787,0.849,-18.383,0.798,-414.631,50.233,7.029,13.446,4.379,3.011,12.598,7.092,1.073,0.722,48.802,0.278,-0.753,0.017,11.018,16.914,31.278,7.906,27.166,19.751,34.319,20.621,133.45,18.909,0.276
3.4797551000001476,28.093,12.119,-7.606,23.339,-400.384,64.015,22.391,30.338,17.695,18.377,25.393,22.454,10.294,5.332,59.0,12.573,8.982,4.628,18.179,26.119,39.444,14.558,37.385,31.002,39.92,24.186,142.538,25.55,10.01
3.4950840999999855,31.651,19.28,2.135,31.513,-400.496,67.025,20.32,29.796,17.677,21.945,26.904,24.994,8.234,7.889,63.551,15.122,9.997,4.623,17.648,25.58,36.331,8.396,29.151,25.848,37.318,21.601,148.031,29.11,16.147
3.4951507999999194,14.201,9.014,2.133,12.013,-422.125,57.224,12.102,16.958,6.901,6.042,9.971,2.939,-2.533,1.733,53.754,-4.873,-1.284,-4.603,2.261,12.235,21.437,-6.981,10.167,6.354,26.01,9.284,139.174,14.224,10.496
3.5096913000002132,0.354,-1.241,-4.017,3.805,-436.56,51.531,15.164,6.183,-6.426,-5.748,-6.945,-15.507,-13.289,-6.978,42.942,-23.824,-8.967,-12.795,-9.524,3.513,14.244,-17.733,4.009,0.2,21.886,-0.972,125.715,7.038,3.825
3.5097522999999455,3.94,2.859,-2.988,17.633,-431.513,50.968,15.661,1.566,-11.03,-7.279,-4.889,-13.442,-17.886,-7.483,43.923,-23.8,-6.396,-9.709,-7.977,2.997,15.766,-17.715,8.103,8.909,25.45,3.128,122.515,18.814,11.506
3.524789900000087,11.108,6.954,0.089,13.517,-423.909,51.941,4.887,-1.51,-8.97,-8.296,4.338,-7.281,-14.282,-2.353,49.515,-18.141,-2.804,-6.625,-3.871,2.994,17.288,-11.55,9.12,8.9,22.351,7.223,129.052,19.307,16.105
3.524861300000339,11.097,1.824,-5.547,-1.354,-426.559,53.426,-1.778,-4.07,-11.01,-7.775,2.797,-8.298,-11.706,-1.326,48.953,-15.049,-2.801,-10.205,-1.818,4.528,20.856,-10.514,7.061,2.231,11.057,3.117,133.022,7.505,2.257
3.539798900000278,11.086,-0.227,-10.152,3.259,-433.817,53.373,-1.776,-6.115,-13.561,-4.182,2.794,-4.704,-14.256,-5.935,49.929,-10.935,-3.823,-8.145,-0.279,9.647,25.959,-9.479,5.517,4.791,5.923,4.651,132.889,4.936,-5.43
3.5398652000003494,14.149,1.31,-3.994,9.403,-435.944,56.393,-2.799,-5.084,-8.424,-0.079,8.939,4.01,-12.193,-6.442,55.514,-7.338,-5.356,-4.551,4.332,11.686,27.47,-4.346,8.073,9.397,8.479,10.282,134.805,6.98,4.822
3.554751000000124,16.184,3.358,7.28,8.881,-430.898,61.972,-0.234,3.63,-1.243,6.069,14.053,9.642,-4.496,0.737,58.533,0.866,0.797,-4.034,9.963,14.236,33.59,0.269,16.775,11.437,19.229,10.784,134.158,11.584,13.014
3.55482290000009,21.291,12.576,16.495,22.705,-418.171,63.447,5.401,12.336,4.393,14.772,21.723,15.78,2.681,7.396,61.036,14.185,14.116,4.167,15.076,21.907,45.852,8.978,27.516,22.696,34.067,16.408,132.999,25.405,18.124
3.5698013000001083,25.368,19.736,14.429,31.391,-408.532,66.97,2.322,12.324,7.463,18.856,28.362,24.473,5.752,11.487,66.098,21.343,20.25,16.97,18.135,22.909,49.392,17.166,30.05,32.407,38.643,24.589,136.965,31.527,23.741
3.569859400000041,19.195,18.179,7.755,19.577,-412.222,71.001,-3.828,6.676,3.869,14.738,21.673,19.838,2.673,11.476,66.031,15.687,16.131,14.392,17.092,17.763,42.682,11.001,24.385,26.227,34.506,18.417,134.779,24.836,22.18
3.584850600000209,10.979,14.063,6.722,11.36,-424.105,67.344,-3.312,4.108,-2.283,10.113,13.455,8.035,-2.965,3.268,59.305,5.937,12.529,5.668,9.39,13.135,39.054,1.769,18.213,16.979,30.373,10.201,129.008,20.712,14.986
3.5849154000002272,8.406,7.901,2.105,11.349,-437.001,65.228,-4.333,4.616,-0.231,7.541,11.904,5.978,-4.499,0.19,57.709,2.345,9.955,5.663,4.77,9.023,38.502,0.742,14.096,12.351,23.171,10.191,132.978,16.081,9.335
3.5998930000000655,5.836,-1.328,-6.094,9.288,-448.347,67.724,-2.792,5.123,6.429,7.021,9.331,8.533,-3.47,9.412,61.75,1.318,9.945,5.145,5.278,7.989,38.464,-1.82,13.57,9.265,18.537,9.669,137.968,7.355,7.277
3.5999572000000626,4.806,0.21,2.109,17.476,-446.874,66.632,10.531,6.143,6.935,7.014,7.785,5.451,-5.516,11.452,60.664,-0.733,12.496,1.041,6.297,11.568,42.524,-0.794,15.093,11.817,20.055,9.659,136.805,9.397,12.393
3.6159797000000253,6.338,5.845,13.89,23.094,-438.742,62.979,19.742,9.723,2.317,5.983,6.752,2.884,-8.584,0.169,53.943,-2.269,5.824,-2.546,4.242,7.97,44.531,2.281,13.029,11.806,15.936,12.723,135.644,15.536,14.942
3.61604269999998,3.77,3.278,7.728,13.337,-439.328,61.379,13.574,12.787,-0.759,2.391,3.672,0.319,-9.6,-7.515,53.377,-6.877,-5.453,-11.765,-3.96,1.302,40.9,-3.357,7.893,1.548,4.65,8.1,131.41,9.372,6.218
3.6299988999999186,4.791,4.299,3.11,17.934,-428.643,62.342,13.561,10.725,1.291,2.901,6.742,-1.218,-7.542,-4.946,56.397,-11.993,-4.423,-19.95,-9.079,3.35,42.396,-4.378,5.323,0.009,4.133,6.555,123.082,6.801,3.138
3.630059000000074,9.909,14.541,15.402,34.31,-407.722,66.891,17.133,7.128,3.851,8.533,13.395,2.882,-4.46,-0.843,53.267,-8.395,1.73,-14.807,-1.385,4.883,48.501,2.799,9.416,12.817,17.449,14.745,121.422,18.065,13.381
3.646072400000321,6.825,15.551,19.997,26.079,-412.949,65.799,6.358,6.096,1.798,10.574,10.82,4.416,-5.993,-0.842,50.14,-2.752,-1.346,-10.694,4.764,2.317,46.916,0.747,16.067,15.366,23.067,15.243,125.911,19.584,16.441
3.646133000000191,2.208,5.289,13.317,10.171,-432.516,59.073,-3.895,0.967,-2.814,6.465,7.223,1.338,-8.548,-2.89,53.164,-4.286,-3.394,-11.196,1.173,5.901,44.307,-2.84,17.075,7.666,17.92,6.518,135.519,9.831,9.252
3.6600100999999086,7.329,1.698,13.304,16.309,-437.719,61.576,0.208,-3.132,-2.811,4.921,9.777,5.435,-5.978,2.748,56.697,-3.257,6.343,-0.426,5.27,12.043,51.435,4.847,19.108,11.756,21.489,9.585,147.166,10.846,11.805
3.6749542000002293,12.444,8.356,18.414,25.002,-441.892,66.125,0.207,0.969,0.778,6.453,11.305,11.065,-2.898,10.942,58.689,5.456,15.046,11.87,14.487,13.568,59.068,9.966,27.798,21.991,32.226,17.773,153.679,16.983,19.99
3.675010200000088,7.821,5.786,16.858,20.878,-455.795,61.448,-6.965,0.969,0.264,4.91,8.732,6.955,-5.457,7.345,62.729,5.963,13.494,6.735,7.812,11.505,57.985,6.369,25.208,19.407,30.144,15.194,158.136,14.404,19.457
3.689996699999938,2.178,-4.978,11.206,14.71,-465.073,58.313,-6.958,-7.742,-4.347,0.294,4.112,1.313,-9.55,2.727,61.129,-2.753,7.845,-1.469,-1.929,7.395,53.316,1.752,10.839,9.654,21.917,6.981,158.49,8.754,14.315
3.6900587000000087,4.225,-3.436,11.195,16.232,-463.071,59.279,-1.828,-6.197,-4.342,-0.731,3.084,2.336,-9.028,9.384,56.457,-4.287,10.911,1.094,1.659,4.826,53.775,0.214,10.828,9.644,22.92,6.974,155.258,8.745,12.764
3.7050140000001193,10.369,6.813,22.454,25.95,-450.825,59.732,4.834,4.568,-2.801,4.905,8.203,6.945,-4.408,12.961,62.036,1.353,17.56,5.192,8.829,11.481,60.894,7.386,22.6,18.344,24.946,12.603,160.226,14.372,17.874
3.706676400000106,11.895,7.831,31.141,32.071,-442.69,61.209,9.952,5.588,-1.774,8.999,12.294,8.987,-4.404,7.312,65.048,2.376,13.444,2.625,8.308,14.031,62.882,13.014,22.065,18.326,20.31,12.078,166.213,17.432,25.541
3.7200925000001916,9.322,3.213,27.524,26.404,-443.272,59.099,3.794,0.459,0.79,10.015,12.794,3.855,-9.01,6.281,56.786,-0.7,2.673,-3.525,3.689,8.382,58.721,7.878,15.383,9.086,13.63,6.43,156.313,10.242,25.003
3.7201582000002418,10.849,6.283,24.423,27.915,-433.094,59.552,-4.406,3.532,3.863,13.078,16.367,2.314,-4.903,6.274,57.242,-0.187,1.645,-6.596,0.612,8.373,61.223,7.357,14.343,4.978,7.469,8.986,151.034,7.158,16.781
3.735457000000224,14.425,10.375,24.91,33.01,-422.927,65.64,-3.89,7.115,1.81,17.676,20.449,8.972,-1.312,0.633,64.357,4.936,2.668,-9.663,2.148,12.976,65.261,9.912,13.816,4.461,5.924,13.075,163.178,13.811,14.715
3.7355163000001994,15.947,9.853,20.787,23.243,-429.677,64.038,-3.886,5.571,2.32,18.171,20.429,11.012,-5.921,0.632,61.731,8.005,-2.458,-12.215,5.22,12.963,64.683,7.853,16.364,6.506,11.554,11.525,169.675,15.334,19.311
3.75011510000013,18.493,13.941,22.303,21.683,-430.784,61.924,-1.32,10.176,10.003,19.69,23.994,14.587,-1.304,8.316,61.669,13.12,3.693,-4.006,9.825,17.048,71.791,18.091,26.082,18.282,20.252,16.637,172.067,17.368,22.366
3.750175300000137,19.499,18.026,26.892,36.006,-425.23,69.547,10.464,19.388,16.14,22.231,28.581,23.794,7.918,13.943,69.804,19.255,20.083,7.781,15.963,24.203,78.891,27.807,33.74,26.461,28.941,22.768,180.092,24.523,22.856
3.7650815000001785,14.869,10.836,19.18,29.822,-439.15,66.916,16.089,18.856,14.075,20.16,23.43,18.647,2.787,11.88,66.148,13.6,18.526,5.212,11.849,18.032,70.103,15.996,29.096,18.75,30.961,14.548,180.424,19.887,17.197
3.7668768000003183,11.78,1.603,10.964,12.886,-454.08,58.14,9.925,13.714,9.45,16.554,16.746,6.333,-2.851,2.646,57.885,2.828,7.236,-2.99,2.103,8.792,61.836,8.807,22.406,14.12,26.831,7.361,178.194,10.646,9.495
3.7802331000002596,13.305,4.163,14.539,20.558,-452.089,65.254,5.817,11.651,8.416,18.586,17.754,8.888,-0.286,-0.43,61.413,3.338,10.303,-4.012,2.613,12.369,67.922,16.996,25.97,18.717,24.755,14.526,184.164,11.66,8.974
3.7803014999999505,13.804,7.233,15.037,29.759,-455.223,69.799,4.274,9.078,8.92,19.592,18.249,9.904,-3.872,4.181,62.889,4.359,10.293,-9.131,4.147,13.382,69.903,16.466,26.457,15.624,24.218,17.073,186.541,11.648,8.452
3.7952291000001424,12.766,2.102,11.948,21.532,-461.428,65.119,2.733,9.069,9.936,19.06,15.669,2.722,-6.942,1.615,61.802,-0.256,0.549,-15.269,2.606,9.27,67.784,14.913,17.721,11.51,22.657,11.421,185.842,8.05,8.444
3.7952932000002875,15.314,4.15,16.547,20.486,-457.892,72.226,8.878,13.67,12.487,23.14,21.289,9.892,0.749,2.126,68.4,6.916,3.11,-8.594,9.264,15.92,75.401,24.632,22.314,16.622,22.122,16.02,192.317,11.628,14.071
3.810200700000223,18.885,10.293,17.555,25.076,-458.459,75.74,12.455,10.071,12.475,26.703,25.366,16.029,1.773,9.296,68.844,13.057,9.254,-4.487,12.328,24.101,78.912,26.656,31.001,16.605,20.051,20.102,195.71,12.129,13.032
3.8102606000002197,16.305,3.111,9.853,15.829,-465.685,65.93,2.197,-0.186,7.339,17.967,16.631,4.23,-5.913,3.139,62.627,1.261,2.585,-13.192,6.681,17.93,70.636,17.408,19.187,8.392,11.322,11.373,189.879,4.432,3.285
3.8251733000001877,11.678,-3.553,10.355,13.764,-469.318,65.865,0.145,1.864,6.819,11.289,13.541,2.177,-4.37,-4.548,65.638,-0.277,1.045,-14.716,7.698,12.789,69.541,15.342,12.508,6.846,8.236,7.263,189.689,-0.183,1.233
3.826840600000196,19.351,5.16,21.616,31.169,-465.262,78.606,15.514,20.305,19.62,26.135,27.872,17.544,5.88,6.215,72.233,18.166,11.291,-4.455,16.4,23.534,80.742,24.035,29.401,13.5,17.962,16.99,201.283,6.99,9.428
3.840256500000123,28.553,12.327,26.717,39.335,-462.236,85.7,19.597,30.019,28.822,38.404,39.627,26.235,8.948,9.282,73.697,25.32,11.792,-2.401,19.457,30.683,87.833,31.184,37.569,17.585,26.653,22.096,210.815,14.667,17.104
3.8403219000001627,19.303,3.094,15.42,21.877,-475.093,79.979,5.745,13.595,19.572,27.095,29.853,19.549,3.816,-3.022,75.673,13.512,2.558,-11.108,11.241,21.431,81.598,23.98,21.65,11.419,19.967,14.389,206.506,6.456,12.988
3.8553352000003542,4.939,-7.668,2.084,6.998,-496.648,66.579,0.616,-2.3,8.794,16.309,12.405,9.284,-0.798,-4.044,71.499,3.764,-1.03,-15.195,0.471,10.651,70.245,10.636,10.869,0.137,11.237,5.153,197.59,-6.358,2.217
3.855398900000182,5.446,-4.074,6.181,15.188,-492.565,64.463,4.202,7.436,12.884,22.44,12.393,8.762,-0.285,3.645,62.206,6.322,5.631,-10.569,4.057,13.714,70.175,15.749,22.129,4.235,20.96,8.222,198.93,1.845,5.288
3.870665800000097,9.539,5.151,13.347,23.882,-470.043,75.157,3.685,17.674,19.018,26.516,20.577,14.389,0.74,5.69,62.656,12.464,10.236,-4.923,13.275,18.311,78.814,29.053,35.94,20.625,37.845,19.484,205.391,14.138,16.554
3.8852882000001046,7.48,4.122,5.649,17.711,-469.061,73.033,3.682,10.484,12.339,20.855,15.434,8.227,-3.872,3.123,65.667,6.816,1.516,-11.578,6.601,11.121,77.199,24.925,31.293,20.092,35.758,17.928,203.136,6.44,12.439
3.8853468000002067,7.985,-1.006,-1.529,11.545,-484.985,65.275,3.166,6.888,4.642,16.223,10.295,-0.491,-8.479,-0.979,61.503,-3.95,-8.219,-24.887,-3.139,7.011,70.974,17.216,22.04,7.264,21.378,8.689,198.835,-3.813,0.643
3.9003717999999026,7.977,-2.029,-2.04,10.509,-491.16,73.407,2.138,8.93,6.687,17.744,16.432,3.096,-7.446,0.047,61.954,-1.896,-5.649,-28.448,0.962,11.615,72.952,20.272,23.043,5.72,17.258,9.705,202.734,-2.785,0.13
3.900436599999921,4.383,-4.589,-5.112,3.839,-488.62,72.821,2.648,4.823,7.705,18.238,15.904,3.605,-6.414,1.072,64.966,0.667,-6.668,-28.42,0.449,9.554,71.854,14.617,17.384,3.153,16.728,7.646,193.31,-4.319,2.179
3.9154465000001437,5.403,-5.609,-2.033,3.835,-484.033,60.453,0.596,3.281,2.574,15.658,10.252,-1.009,-9.481,-8.663,63.364,-4.969,-13.322,-33.002,-6.211,5.446,66.147,8.967,7.121,-2.998,10.564,-2.096,160.841,-6.876,2.69
3.915512300000046,12.57,4.131,10.265,19.2,-474.84,69.102,-0.429,11.987,4.621,17.692,16.39,5.652,-8.959,-10.704,68.423,1.184,-10.747,-29.383,0.967,12.613,74.278,21.766,13.774,2.64,10.553,5.079,136.09,2.352,8.835
3.930378400000336,20.242,14.373,18.964,28.915,-471.803,84.914,4.695,16.073,12.813,25.359,25.595,15.38,-2.803,0.578,75.015,12.966,-4.076,-20.132,11.212,21.309,87.524,35.064,25.543,11.347,19.764,19.418,154.909,13.621,17.023
3.930440399999952,24.321,18.969,23.043,26.324,-474.405,82.268,5.715,14.52,13.825,27.895,26.082,16.901,-1.263,2.114,74.94,11.928,-2.535,-20.112,10.177,21.8,86.411,34.516,24.493,14.922,23.331,20.936,171.66,16.681,19.567
3.945413500000086,21.735,17.413,23.02,26.81,-469.832,78.599,3.66,19.629,11.249,25.306,26.056,13.298,-3.311,-2.499,72.816,7.305,-2.02,-22.653,6.58,19.729,81.714,31.92,19.857,16.444,18.184,19.378,158.169,14.615,19.548
3.9454717000003257,14.541,7.15,15.312,24.734,-467.313,76.471,7.754,22.171,10.726,21.182,21.931,6.625,-2.283,-1.984,66.595,4.224,-6.629,-24.68,2.475,15.099,77.022,27.79,17.788,6.694,16.117,17.309,148.277,7.941,15.43
3.9604833000003055,8.378,-3.104,10.174,13.439,-476.068,69.735,10.82,10.366,9.691,15.013,12.175,2.52,-2.793,-3.007,58.332,-1.928,-10.209,-30.803,-1.113,8.936,70.797,21.614,16.234,-1.51,16.101,7.558,151.714,-1.289,8.242
3.9605513999999857,7.345,-3.101,8.627,8.815,-476.616,69.153,6.199,4.208,9.169,15.51,12.676,5.591,-4.839,1.095,61.347,-2.95,-3.538,-29.747,3.498,9.952,74.825,23.642,18.267,8.738,16.085,9.087,151.05,-4.361,3.11
3.9744909000000916,10.924,-0.536,3.495,16.49,-466.918,72.67,3.119,14.45,13.258,20.106,18.298,7.635,-2.273,8.778,66.409,2.176,1.588,-22.033,7.081,13.016,79.873,28.742,22.347,13.852,21.192,19.324,148.85,-2.308,2.595
3.989873500000158,12.45,-3.097,3.492,19.035,-467.476,69.011,5.677,19.046,13.245,15.475,15.206,4.041,-0.734,4.159,63.781,-1.413,-1.999,-22.011,3.488,11.466,75.182,26.664,19.763,8.203,27.318,15.207,153.824,-2.818,3.617
3.9899371999999858,10.901,-1.045,12.71,14.406,-466.496,70.991,13.356,12.367,10.67,14.435,14.679,3.012,-2.782,1.081,62.693,-4.998,-3.022,-21.477,3.997,11.454,76.132,25.1,17.694,11.781,26.779,11.605,170.064,0.259,7.2
3.989978600000086,17.55,9.715,21.406,21.564,-449.123,79.63,23.589,17.477,18.344,25.179,24.91,10.694,1.831,10.813,66.728,1.667,2.104,-12.234,10.14,16.054,79.642,30.198,23.824,17.404,27.776,20.303,202.17,12.042,15.902
4.004476999999952,26.242,19.951,26.508,37.936,-439.453,81.599,27.152,29.755,26.01,29.252,31.033,17.856,9.002,13.364,69.736,10.375,7.225,-6.074,14.229,18.599,76.488,35.803,28.923,16.875,35.946,21.307,231.681,21.251,22.033
4.004534500000318,21.092,19.419,25.457,36.873,-447.722,82.542,24.051,24.603,18.299,23.075,27.416,14.252,6.943,6.691,67.617,10.365,8.242,-5.555,15.239,19.093,75.387,35.255,24.283,17.882,37.447,16.163,230.937,22.767,18.938
4.019582400000218,13.387,14.277,15.698,24.541,-452.398,85.021,23.002,13.82,13.158,19.978,21.753,7.577,2.326,2.073,63.963,3.694,3.111,-8.111,11.638,16.0,72.238,25.998,17.087,10.18,25.114,14.097,217.386,19.67,8.672
4.0196459000003415,17.984,16.824,9.022,29.127,-452.97,86.473,19.393,16.367,20.83,19.446,21.219,9.619,2.836,-0.49,67.997,0.617,-0.478,-12.714,8.04,10.861,67.043,19.312,11.434,-0.589,14.33,9.473,220.755,18.114,5.078
4.03455810000014,25.651,25.004,12.087,42.93,-454.054,90.997,13.738,24.548,25.419,22.5,26.321,11.146,6.931,5.146,75.614,4.715,5.158,-10.14,14.18,13.924,73.636,24.416,11.423,5.047,16.877,10.488,231.805,24.243,11.733
4.034622200000285,27.674,28.053,13.612,41.351,-448.989,94.492,16.798,26.572,24.369,27.088,28.344,11.647,9.486,12.313,74.514,6.759,6.177,-3.982,20.313,21.082,81.247,29.515,16.535,10.677,20.447,18.674,228.5,29.854,13.77
4.049564100000225,26.11,19.316,2.327,24.915,-450.589,85.176,21.392,18.861,20.759,17.328,22.68,11.636,4.353,3.079,66.755,-0.932,-2.538,-10.638,15.17,15.426,74.505,25.899,13.444,-0.604,8.643,13.02,216.488,19.066,1.973
4.064653800000087,17.374,7.513,-15.094,3.886,-465.508,75.357,9.588,0.912,13.054,6.039,17.022,4.452,-3.848,-7.683,60.54,-9.128,-6.122,-18.824,10.031,7.213,67.771,23.312,4.209,-8.8,-2.124,2.761,204.488,2.653,-10.324
4.0647210000001905,9.16,6.481,-21.226,-3.803,-467.092,79.893,-5.279,-6.774,13.04,9.107,14.955,-0.163,-3.844,-1.527,57.406,-10.144,-0.48,-10.608,13.608,13.354,66.678,26.362,10.353,-1.107,6.587,7.369,199.673,2.138,-9.289
4.079632100000254,13.762,13.647,-10.447,11.058,-456.891,86.473,-5.786,6.041,17.638,13.197,14.941,6.497,0.258,3.085,64.521,-6.547,4.643,-0.352,16.156,18.464,65.587,31.971,23.662,7.091,18.364,14.022,210.232,12.894,-1.083
4.081361000000015,16.822,14.658,-3.776,19.244,-463.094,81.776,0.88,7.571,13.01,10.622,15.438,4.441,-2.304,0.52,71.628,-8.59,2.589,-3.425,12.553,12.297,64.497,29.89,21.077,7.596,19.37,11.446,219.756,16.98,1.992
4.09472790000018,9.12,10.545,-8.895,6.417,-472.877,77.083,1.904,-3.195,10.948,11.124,14.398,-4.273,-6.4,2.057,65.409,-15.754,-2.536,-8.545,6.905,9.211,58.797,20.126,14.396,4.515,18.326,8.361,212.363,14.402,-0.059
4.094794399999955,10.648,14.12,-6.837,6.411,-463.183,83.154,1.389,6.03,22.207,14.186,14.383,2.904,-1.783,6.153,64.319,-14.713,2.077,-3.925,9.46,14.837,55.152,20.106,17.968,6.56,19.332,10.402,212.663,16.949,6.601
4.10967090000031,20.883,22.303,3.928,26.896,-452.985,87.681,7.536,21.906,27.308,17.246,20.004,11.098,2.318,6.147,72.452,-7.014,8.735,2.738,16.11,17.896,60.732,26.746,17.95,8.09,16.751,13.465,226.283,22.567,13.766
4.109732700000222,14.203,21.256,1.363,28.406,-462.266,79.909,17.262,9.588,14.473,11.593,17.423,2.89,-3.32,1.53,68.793,-9.569,1.554,-3.924,8.41,13.268,58.11,18.522,7.686,-2.677,6.489,7.304,219.909,18.446,4.531
4.125741100000141,3.942,12.526,-10.422,8.91,-475.636,71.12,11.609,-7.84,0.626,-3.788,4.598,-5.31,-11.001,-5.131,61.04,-19.805,-8.694,-16.216,-3.894,9.156,47.293,6.208,0.506,-14.457,-4.789,-2.95,203.295,9.206,-5.207
4.12581020000016,15.209,12.001,-9.387,0.192,-474.136,74.635,-2.235,-2.709,5.749,-2.759,5.618,-0.694,-6.38,-2.565,66.614,-18.761,-4.074,-15.687,0.208,11.196,50.32,12.35,5.116,-7.783,0.339,-1.41,211.801,12.783,0.433
4.139668400000119,25.44,18.137,-3.23,6.852,-470.588,81.733,1.354,4.466,17.526,10.051,17.908,3.918,0.799,2.049,74.744,-13.107,1.565,-8.499,6.356,15.283,56.93,19.51,10.234,0.422,14.683,5.764,224.909,17.893,4.019
4.141589000000295,20.292,14.532,-10.911,7.357,-474.216,79.602,8.525,-1.174,14.435,7.992,17.377,1.352,-3.812,-3.589,76.719,-13.094,-3.56,-9.515,1.739,15.268,51.75,14.88,8.175,-5.214,12.107,5.246,217.0,9.166,-4.694
4.154790000000048,20.271,7.345,-20.634,0.178,-474.254,74.399,-0.705,-1.685,9.297,5.423,14.286,-0.698,-5.858,-5.122,78.179,-14.617,-7.142,-11.555,3.786,13.204,50.161,18.451,7.142,-5.721,2.874,4.728,212.684,6.595,-9.3
4.154858100000183,26.399,10.412,-19.589,-1.359,-470.194,78.423,-6.34,8.051,17.485,16.688,19.395,4.938,1.833,0.006,78.613,-11.017,-4.574,-10.007,12.492,17.289,56.771,31.24,14.307,2.994,7.994,12.408,224.255,15.298,-4.68
4.169712899999922,23.298,12.963,-19.569,0.691,-477.408,82.443,-3.772,6.506,19.004,16.159,18.351,8.007,3.368,-1.531,77.51,-7.419,-4.569,-8.972,12.991,23.419,57.739,33.258,17.879,3.504,9.01,15.982,228.641,11.184,-3.651
4.169779400000152,20.714,8.339,-22.111,-2.383,-487.689,77.238,-4.793,-4.771,12.325,8.458,14.746,4.925,-0.734,-4.603,78.457,-8.949,-6.614,-8.451,10.929,22.884,55.119,27.589,15.299,-1.111,0.804,10.843,223.802,3.489,-9.795
4.184727800000019,26.841,8.331,-20.04,-0.844,-481.054,78.185,3.921,-4.254,17.436,14.597,20.879,7.994,-0.221,0.012,81.965,-7.403,-4.045,-8.442,12.455,22.348,56.601,26.537,16.309,4.013,4.39,11.344,224.09,11.682,-12.347
4.184795600000143,30.912,12.933,-21.044,7.866,-468.277,87.328,11.089,6.508,21.517,20.218,27.006,13.109,0.804,1.549,85.469,-0.736,-3.017,-5.872,13.98,24.375,53.983,28.56,19.366,8.108,11.558,15.431,225.916,14.232,-8.748
4.19963480000024,26.27,10.871,-26.659,5.297,-469.858,86.216,-6.852,3.428,15.86,15.075,23.393,8.997,-1.759,-4.088,85.383,-3.809,-8.137,-3.305,11.404,20.252,47.269,28.019,15.761,0.927,5.399,11.83,224.153,2.435,-10.789
4.201256600000306,20.097,7.787,-23.558,-3.93,-476.048,78.446,-14.018,-10.92,11.746,10.961,18.247,3.865,-6.368,-6.133,80.687,-14.563,-9.666,-6.375,4.733,16.646,44.148,22.356,9.597,-3.172,0.782,7.72,221.879,1.92,-12.315
4.214687700000013,22.638,11.877,-16.875,-0.852,-475.572,76.318,4.952,-10.909,6.611,8.389,18.228,5.398,-9.435,-3.565,80.094,-13.524,-4.533,-5.344,2.166,18.166,42.567,17.722,8.051,-0.607,2.318,10.273,225.244,12.164,-2.056
4.229729000000134,27.738,14.939,-18.395,5.296,-477.146,78.803,-0.689,0.373,4.043,8.893,18.722,5.393,-7.889,-4.586,82.576,-10.437,-4.528,-0.216,5.238,18.66,42.012,19.754,9.067,-2.144,-1.782,11.288,232.703,11.127,2.557
4.229789900000014,24.637,11.85,-22.987,3.754,-486.403,80.774,-23.23,1.397,12.236,12.982,16.142,1.801,-6.856,-7.656,83.518,-17.599,-9.647,-4.826,3.184,17.105,41.458,20.247,5.984,-4.703,-7.416,10.764,236.569,5.993,-7.692
4.2450542000001406,20.514,5.179,-25.526,2.213,-494.626,80.693,-12.96,-3.728,13.248,9.383,13.052,-0.25,-8.899,-8.673,80.873,-21.68,-10.662,-9.945,-0.918,15.551,34.244,12.542,-0.169,-6.747,-8.433,9.729,235.82,7.524,-12.808
4.245117299999947,22.03,-1.487,-28.062,-2.4,-496.693,77.538,0.373,-2.699,6.575,6.3,14.064,-1.786,-7.353,-10.201,77.206,-19.609,-13.725,-10.959,-2.966,12.461,27.037,5.869,-1.706,-12.376,-9.962,3.571,237.121,4.955,-11.77
4.2597076000001834,19.447,-4.559,-29.571,-10.594,-493.122,75.411,-9.362,-0.647,10.667,8.855,15.074,-1.272,-6.321,-12.24,75.079,-22.663,-16.785,-18.633,-5.013,10.4,28.547,5.351,-1.192,-12.876,-8.415,-0.018,233.81,-3.247,-14.832
4.259768100000201,14.304,-5.067,-28.516,-8.534,-482.895,71.75,-7.303,-1.671,11.681,4.748,13.01,-1.783,-9.901,-11.715,75.004,-25.714,-11.645,-21.176,-3.983,11.414,28.006,5.858,-1.191,-7.74,-4.308,3.568,221.281,-5.805,-15.33
4.274800700000014,8.654,-10.185,-23.877,-3.403,-476.264,69.117,5.0,-2.182,3.472,0.132,9.923,-8.442,-12.965,-9.654,70.318,-27.225,-11.634,-11.421,-2.442,8.841,20.294,3.803,-0.677,-12.855,-4.304,0.49,213.375,-6.312,-14.802
4.274867600000107,-1.088,-14.785,-21.804,-6.473,-483.985,68.023,-3.202,-3.204,0.907,0.644,2.229,-16.118,-16.538,-11.182,61.027,-36.932,-18.794,-13.971,-10.124,2.684,13.101,-4.398,-4.263,-22.064,-5.836,-7.195,215.723,-13.99,-21.447
