Timestamp,Cz,Fz,Fp1,F3,C1,C3,T7,C5,CP5,CP3,CP1,P1,P3,O1,CPz,Pz,Oz,O2,P4,P2,CP2,CP4,CP6,C6,T8,C4,C2,F4,Fp2
0.0,-15.046,-11.79,38.518,35.746,-18.236,-12.261,70.894,-12.225,-3.413,2.498,-13.112,-24.183,-10.248,-3.523,-12.068,-27.291,7.966,-12.082,-14.577,-1.639,-52.868,-23.825,-26.951,-36.295,-11.071,-10.319,34.983,51.884,12.235
0.0023861999998189276,-16.055,-16.389,37.455,26.489,-17.705,-13.786,71.335,-12.213,-6.483,2.495,-12.586,-20.573,-7.163,-6.594,-13.081,-23.165,5.397,-13.607,-12.513,-1.125,-50.253,-21.24,-23.851,-34.21,-9.523,-7.748,67.736,48.758,7.612
0.014968899999985297,-10.916,-13.299,33.319,30.561,-16.151,-9.674,78.436,-19.373,-0.329,4.542,-11.549,-17.99,-7.669,-12.222,-13.068,-19.043,5.391,-16.155,-11.476,-0.099,-50.203,-18.657,-23.827,-33.663,-14.125,-10.301,83.549,52.296,9.653
0.01503599999978178,-13.979,-14.31,36.359,36.678,-15.11,-9.664,80.919,-18.329,-0.329,6.075,-9.488,-18.997,-9.71,-12.723,-11.006,-19.537,4.873,-16.138,-11.977,0.926,-48.104,-19.151,-20.729,-37.728,-21.283,-9.267,80.904,51.219,10.668
0.03008479999971314,-19.6,-20.444,39.397,36.129,-18.169,-14.265,77.252,-11.65,-3.402,4.019,-14.089,-18.978,-8.163,-9.124,-12.531,-21.054,-1.279,-14.073,-15.551,0.925,-47.031,-22.718,-23.27,-36.666,-21.262,-10.794,86.459,49.118,7.584
0.030151800000112416,-13.433,-21.96,42.431,36.093,-21.737,-13.226,69.49,-10.614,3.774,4.528,-16.637,-17.935,-7.643,-7.065,-14.568,-20.008,-3.327,-10.473,-14.511,-2.15,-42.885,-22.183,-29.907,-33.043,-17.142,-12.833,100.205,51.631,13.724
0.04491909999978816,-11.883,-19.377,49.049,36.057,-22.227,-5.528,64.81,-14.702,4.794,8.622,-11.497,-20.478,-8.148,-5.521,-14.041,-21.525,0.262,-9.438,-11.422,-3.685,-36.183,-22.16,-26.291,-37.621,-20.199,-12.307,106.764,49.53,19.346
0.044979199999943376,-18.019,-17.82,47.463,40.119,-26.303,-0.912,71.405,-13.15,-3.407,6.564,-11.486,-23.531,-9.676,-11.151,-13.515,-26.627,-3.324,-15.064,-18.583,-3.169,-38.196,-29.311,-29.85,-44.243,-30.425,-18.443,105.633,41.283,8.568
0.05992179999975633,-16.976,-19.852,42.805,46.227,-34.986,-7.571,83.629,-8.526,-6.99,0.409,-18.647,-27.606,-14.79,-22.411,-14.014,-33.773,-12.03,-20.172,-26.761,-6.752,-42.256,-33.38,-44.165,-46.248,-36.542,-24.572,106.552,39.193,1.899
0.06166750000011234,-9.274,-17.271,50.959,43.619,-35.464,-12.687,86.619,-6.469,-4.422,5.02,-14.017,-26.042,-12.726,-21.876,-10.926,-32.202,-9.969,-14.516,-23.661,-7.769,-35.041,-29.76,-43.096,-41.079,-29.333,-19.424,112.593,46.326,14.193
0.07501270000011573,-2.605,-5.47,61.666,44.6,-24.67,-2.94,80.385,3.272,3.78,13.212,0.342,-13.208,-1.442,-8.534,-4.767,-17.825,-2.274,-3.231,-14.928,2.484,-23.223,-24.607,-30.758,-32.328,-19.57,-12.233,121.702,58.063,23.912
0.07507829999985915,4.57,0.171,58.019,54.29,-18.497,6.284,78.256,9.416,9.411,15.76,3.927,-6.535,1.121,-4.427,0.361,-7.561,-2.272,-0.154,-9.79,6.58,-13.978,-17.411,-27.141,-26.661,-20.575,-8.122,133.876,62.616,20.302
0.09004490000006626,5.59,-4.44,50.788,52.186,-27.188,3.717,84.325,-6.475,0.18,15.232,-1.712,-11.651,-3.491,-10.058,0.873,-13.189,-4.319,-2.203,-8.243,0.426,-5.768,-12.782,-25.065,-24.072,-21.579,-4.015,143.476,59.479,21.819
0.09010970000008456,-1.076,-4.436,54.324,43.937,-36.382,3.201,81.679,-18.251,-5.967,11.631,-2.223,-13.689,-2.975,-7.999,-1.69,-16.762,-0.728,1.385,-9.26,0.426,-4.225,-17.38,-23.503,-20.974,-15.922,-4.011,144.357,59.42,28.457
0.10538349999978891,-8.247,-5.968,56.831,44.405,-38.395,1.66,65.716,-9.012,-0.326,5.471,-4.782,-15.212,-3.997,-5.429,-3.737,-15.208,-0.215,3.433,-11.3,2.475,-6.782,-24.023,-28.09,-25.564,-17.955,-9.13,142.163,55.262,24.842
0.10544709999976476,-14.386,-15.184,48.065,38.725,-47.578,-9.1,57.453,-10.54,-6.473,4.441,-12.462,-21.345,-10.141,-12.596,-9.369,-20.316,-6.363,-3.23,-15.899,-1.626,-5.751,-26.048,-31.648,-33.736,-26.646,-14.757,142.021,43.936,15.596
0.11998629999970944,-17.958,-16.706,41.869,31.514,-61.875,-12.677,63.543,-24.361,-13.639,6.486,-13.474,-21.323,-11.668,-15.145,-12.434,-22.857,-10.455,-6.301,-17.932,-2.137,-3.184,-26.534,-29.567,-33.19,-26.62,-16.791,143.416,41.842,14.556
0.12847529999999097,-13.842,-12.078,44.389,38.143,-64.375,-7.541,64.505,-19.726,-6.453,4.943,-7.825,-20.79,-9.607,-12.056,-4.736,-18.224,-11.981,-2.196,-12.791,-0.598,2.455,-25.483,-27.488,-28.546,-21.47,-14.725,151.47,50.51,18.64
0.14093499999989945,-8.193,-10.529,45.369,44.252,-59.188,-5.996,57.78,-9.46,-4.398,5.962,-7.817,-23.843,-9.085,-14.093,-1.146,-20.767,-9.92,0.88,-11.242,-2.647,11.162,-21.872,-24.899,-25.956,-19.912,-11.637,162.589,55.07,23.232
0.14100099999996019,-6.135,-4.371,50.447,45.233,-55.542,-2.917,59.771,-8.939,-3.369,14.665,-6.272,-16.647,-4.977,-11.005,-5.243,-19.722,-1.713,4.978,-11.743,0.43,17.811,-17.239,-18.214,-18.245,-15.281,-5.477,171.136,62.187,29.869
0.15009580000014466,-1.006,2.293,61.667,53.897,-47.29,2.209,72.007,-3.807,9.955,21.823,3.98,-4.335,0.663,-1.261,-0.627,-4.845,4.949,10.096,-4.046,8.626,27.014,-11.074,-8.462,-11.054,-5.532,3.237,177.624,70.834,34.45
0.15015779999976075,1.557,-0.27,57.507,53.843,-40.07,0.67,79.62,0.296,9.433,19.752,8.587,-4.33,2.712,-1.259,3.472,-1.254,5.968,10.086,-3.018,7.593,35.697,-9.526,-7.942,-16.679,-6.551,1.697,179.496,64.616,31.854
0.16509039999982633,-1.006,-1.807,48.74,46.617,-42.079,-0.355,75.954,-0.729,-0.311,17.683,2.431,-8.937,3.734,-3.82,-3.191,-10.474,5.962,9.051,-9.162,1.95,35.149,-16.177,-16.643,-25.371,-17.815,-5.989,173.681,57.379,26.699
0.1800797999999304,1.044,3.318,55.864,55.279,-41.013,5.281,68.193,1.321,6.35,22.788,1.403,-7.391,4.755,-0.23,-0.627,-8.415,4.932,10.067,-6.592,1.948,35.113,-17.697,-20.725,-24.321,-20.359,-5.471,174.532,62.957,25.647
0.18014809999976933,0.018,2.802,57.857,60.859,-41.996,8.349,68.125,-2.267,9.929,23.79,6.013,-8.408,1.164,-3.816,5.009,-7.382,1.341,6.47,-6.585,1.946,38.152,-16.143,-21.216,-24.809,-18.289,-6.49,179.481,60.845,25.622
0.19517469999982495,-11.253,-8.984,44.479,46.454,-58.348,-1.393,74.717,-9.949,-1.351,11.983,-2.19,-16.084,-5.498,-12.009,-4.729,-20.182,-2.247,2.365,-17.337,-3.691,34.528,-24.836,-27.343,-34.518,-29.03,-13.656,173.666,46.952,16.375
0.19523979999985386,-16.364,-16.147,42.898,39.748,-70.585,-12.15,71.568,-9.427,-6.985,3.262,-13.971,-21.704,-10.103,-7.386,-13.946,-24.26,-4.806,6.974,-18.857,-7.274,37.567,-31.471,-27.315,-38.07,-38.222,-13.642,172.467,40.245,8.161
0.2101767999997719,-10.2,-13.569,52.076,42.782,-70.002,-10.089,61.763,-13.516,-5.954,6.333,-13.445,-21.17,-10.605,-4.817,-8.809,-19.113,-2.24,12.09,-13.202,-4.705,44.702,-26.829,-22.677,-34.958,-29.987,-12.604,182.541,39.692,14.813
0.21025109999982305,-9.166,-16.63,49.463,35.054,-80.691,-8.542,62.214,-24.773,-9.534,5.814,-10.357,-22.173,-11.107,-14.034,-5.727,-23.704,-0.701,4.905,-17.8,-5.725,41.583,-28.851,-26.753,-37.997,-25.346,-19.251,183.383,39.652,22.995
0.22549249999974563,-11.718,-20.711,43.778,31.433,-91.369,-13.144,60.102,-23.211,-10.037,0.685,-12.909,-24.2,-13.657,-16.069,-8.795,-26.242,-4.798,-1.759,-20.344,-9.817,43.079,-32.408,-28.263,-40.008,-31.469,-19.232,178.077,44.224,19.386
0.22556260000010298,-6.071,-13.006,45.271,41.135,-83.08,-8.008,44.161,-14.479,-4.904,5.808,-8.797,-21.614,-14.668,-12.467,-6.737,-19.556,-7.355,0.804,-16.737,-6.221,54.306,-24.691,-21.575,-32.796,-31.437,-9.991,183.022,48.79,19.367
0.24011019999989003,-2.479,-7.358,44.713,39.045,-77.874,-1.852,38.481,-10.878,-5.411,11.437,-2.128,-20.056,-10.555,-16.553,-2.119,-19.536,-8.885,-0.734,-21.331,-1.604,55.277,-23.642,-24.115,-31.226,-30.381,-11.006,186.425,48.741,24.47
0.24016819999997097,-7.087,-14.01,41.083,27.223,-81.895,-7.998,54.836,-10.867,-10.529,5.79,-3.151,-20.036,-8.495,-17.561,-3.142,-22.078,-12.974,-6.881,-24.384,-4.677,54.197,-32.328,-33.312,-38.367,-34.961,-19.192,178.554,45.106,20.347
0.2551152999999431,-10.154,-16.558,39.505,28.22,-78.227,-10.039,67.077,-17.517,-11.03,3.223,-6.222,-17.967,-11.561,-11.395,-4.675,-18.47,-10.4,-2.263,-17.699,-5.697,61.315,-30.246,-29.693,-41.403,-36.463,-19.173,173.764,35.327,13.155
0.25518149999970774,-8.094,-14.492,41.514,36.389,-74.05,-8.492,58.813,-19.548,-6.921,7.831,-6.728,-15.899,-12.061,-10.872,-1.085,-15.89,-4.242,3.887,-17.169,-0.568,64.327,-22.019,-18.392,-36.751,-36.939,-14.543,176.152,31.706,12.629
0.27014729999973497,-5.525,-13.965,43.522,37.377,-72.951,-13.607,43.897,-10.307,-5.377,6.798,-5.184,-16.396,-7.951,-13.422,-1.083,-15.874,-5.774,-0.728,-18.177,-0.055,67.337,-19.435,-15.3,-30.054,-39.976,-14.528,176.488,40.384,14.154
0.2702131000000918,-9.618,-15.488,40.405,33.754,-72.878,-12.056,40.779,-14.395,-7.933,5.254,-3.13,-16.379,-9.992,-9.823,-6.205,-15.346,-6.793,-2.776,-13.035,-3.129,72.393,-20.953,-19.896,-31.048,-39.936,-17.075,171.189,38.294,11.578
0.2851237999998375,-15.243,-24.694,36.266,28.597,-80.49,-8.458,49.96,-29.238,-10.487,7.811,-4.663,-15.851,-12.544,-9.301,-5.687,-16.868,-2.688,2.862,-15.072,-5.175,69.247,-26.567,-24.999,-39.727,-40.921,-19.62,168.456,22.886,1.32
0.28519079999978203,-15.228,-30.305,38.791,23.445,-82.459,-14.597,49.91,-25.622,-9.964,6.778,-7.22,-15.835,-9.457,-11.853,-2.607,-18.9,-3.71,1.322,-22.229,-7.219,67.64,-29.102,-29.585,-43.785,-50.614,-21.649,167.263,17.74,-6.366
0.3001801999998861,-14.701,-20.541,42.851,23.934,-72.13,-15.095,43.713,-16.888,-9.954,5.747,-8.238,-19.917,-9.448,-14.403,-8.24,-24.004,-12.415,-6.876,-25.28,-8.749,70.134,-28.561,-35.19,-47.84,-56.711,-23.164,158.387,23.358,-1.236
0.30025019999993674,-23.395,-18.983,36.148,24.935,-73.595,-14.055,45.718,-27.629,-14.043,3.18,-15.914,-28.094,-18.148,-19.511,-18.99,-34.739,-21.112,-14.554,-32.94,-14.888,61.867,-37.241,-42.84,-58.551,-55.629,-29.289,146.445,20.261,0.814
0.3152040999998462,-33.618,-31.772,28.427,19.274,-77.108,-29.41,45.16,-35.286,-21.201,-8.094,-25.632,-35.239,-25.302,-21.541,-25.631,-42.389,-24.165,-19.662,-40.592,-25.119,53.608,-46.938,-47.408,-57.98,-61.209,-35.92,138.102,12.044,-6.871
0.3152685999998539,-34.097,-31.228,30.96,18.743,-57.563,-42.701,38.967,-26.029,-22.717,-12.185,-27.656,-35.716,-25.276,-19.983,-29.192,-40.809,-23.116,-18.618,-38.502,-27.143,58.678,-44.842,-46.336,-48.7,-64.222,-32.298,130.791,13.569,-5.328
0.33019659999990836,-25.866,-18.389,37.589,31.532,-39.574,-33.949,43.539,-16.269,-14.497,-0.902,-20.456,-30.557,-19.616,-18.938,-26.601,-34.108,-19.507,-12.452,-31.291,-19.431,65.279,-37.112,-38.605,-47.627,-51.35,-23.044,133.734,23.289,5.949
0.330275299999812,-20.204,-15.297,38.576,37.136,-48.244,-20.083,50.668,-16.766,-8.335,5.759,-14.288,-24.379,-14.985,-14.308,-16.841,-28.951,-15.389,-10.903,-26.137,-15.313,67.263,-32.465,-31.394,-43.481,-43.102,-20.971,144.871,28.389,6.967
0.34560989999999947,-25.307,-22.454,32.39,17.631,-68.176,-23.649,43.445,-27.507,-14.474,-1.931,-17.859,-25.379,-19.069,-10.708,-15.287,-31.484,-13.837,-13.965,-27.135,-18.884,67.196,-34.994,-34.436,-37.29,-52.792,-26.586,143.19,22.725,1.325
0.36027039999999033,-31.942,-30.116,25.698,-0.318,-77.842,-36.433,33.155,-36.189,-21.12,-8.077,-28.088,-31.501,-22.636,-18.894,-23.469,-39.137,-16.897,-13.439,-31.206,-19.378,64.567,-39.569,-39.013,-43.912,-59.912,-30.145,135.362,18.604,3.373
0.36033150000002934,-26.275,-25.987,28.746,12.49,-73.665,-30.761,33.122,-24.882,-14.951,-1.409,-23.961,-30.445,-16.978,-22.461,-23.445,-36.536,-17.392,-10.864,-30.663,-15.772,66.039,-33.894,-34.363,-41.819,-55.241,-26.529,136.763,24.22,9.005
0.37530789999982517,-21.125,-17.765,36.914,25.798,-73.079,-15.873,37.7,-15.636,-8.788,6.277,-15.228,-26.316,-14.399,-15.267,-16.762,-31.377,-15.838,-15.464,-30.12,-15.756,70.584,-27.713,-34.329,-35.117,-46.989,-24.453,139.188,24.709,10.533
0.37699380000003657,-28.789,-23.894,34.828,12.452,-82.74,-22.517,44.834,-29.452,-14.415,2.172,-22.385,-31.925,-20.533,-17.3,-20.331,-38.005,-18.896,-21.596,-34.188,-19.839,68.977,-35.37,-43.003,-46.353,-39.257,-30.577,137.512,16.487,10.01
0.3902683999999681,-34.908,-32.067,27.621,3.218,-87.78,-34.278,49.4,-35.57,-20.036,-7.564,-31.072,-39.578,-24.611,-22.406,-26.458,-46.677,-20.926,-21.575,-35.691,-21.868,69.42,-38.921,-40.399,-47.844,-45.366,-32.595,141.985,14.421,7.438
0.3903365000001031,-33.336,-28.962,27.081,11.924,-89.742,-30.658,41.666,-24.776,-19.503,-10.63,-28.479,-41.588,-25.611,-18.798,-24.895,-49.704,-20.393,-21.553,-38.217,-24.92,69.351,-35.296,-37.285,-38.062,-66.325,-28.464,140.306,11.333,-0.254
0.40534219999972265,-40.475,-34.568,29.103,7.302,-90.677,-33.188,33.94,-29.362,-21.533,-10.619,-31.012,-45.132,-28.147,-17.242,-27.944,-51.191,-21.397,-21.532,-44.326,-29.506,61.597,-43.457,-51.592,-49.807,-70.87,-33.047,126.334,-1.998,-5.377
0.4054028999998991,-51.193,-46.316,27.025,-2.952,-77.266,-43.401,37.492,-39.067,-24.073,-13.17,-35.592,-44.062,-26.581,-17.225,-37.138,-48.066,-16.765,-14.85,-40.696,-28.452,59.486,-45.975,-55.127,-54.88,-55.43,-38.649,119.035,-4.046,-4.347
0.4202989999998863,-47.043,-43.709,24.948,4.736,-61.307,-40.796,35.405,-31.343,-21.488,-13.157,-30.946,-35.821,-22.969,-15.158,-38.637,-40.846,-9.576,-9.712,-32.458,-24.837,65.062,-36.195,-38.678,-36.382,-47.689,-33.999,121.99,4.155,-4.342
0.4203597999999147,-42.385,-41.103,24.923,8.829,-59.197,-38.706,25.636,-26.189,-21.466,-11.095,-30.402,-36.298,-24.995,-18.217,-33.476,-40.805,-14.177,-11.239,-34.987,-26.862,64.484,-37.184,-35.565,-35.834,-47.642,-31.404,120.843,-3.533,-5.875
0.434276200000113,-49.003,-47.722,24.898,-0.913,-58.625,-45.328,28.684,-34.36,-25.543,-11.596,-36.52,-43.434,-28.044,-20.248,-33.955,-46.399,-22.36,-12.765,-38.026,-29.909,63.908,-41.757,-45.776,-45.019,-44.52,-35.983,115.087,-15.313,-8.943
0.4360814000001483,-49.466,-45.113,24.361,-0.912,-53.443,-44.258,34.291,-37.911,-29.104,-14.146,-34.946,-42.878,-27.504,-19.203,-35.97,-44.816,-23.874,-15.826,-32.865,-28.342,66.405,-37.617,-42.144,-40.363,-40.377,-33.898,115.997,-9.15,-9.446
0.4493643000000702,-38.146,-35.846,28.435,10.872,-49.804,-37.041,30.158,-32.75,-28.05,-13.107,-29.276,-37.712,-28.501,-21.233,-30.811,-39.648,-22.314,-14.273,-28.221,-23.703,67.363,-31.432,-28.782,-38.274,-32.14,-27.204,125.614,3.155,1.322
0.44943019999982425,-32.472,-30.687,38.141,15.471,-42.582,-33.93,31.665,-23.496,-22.387,-7.971,-26.173,-34.601,-26.935,-18.65,-26.169,-35.51,-19.217,-5.55,-25.632,-21.118,71.395,-25.253,-23.63,-30.551,-22.886,-23.591,132.661,9.811,13.104
0.4644565999997212,-35.514,-30.144,39.127,14.944,-39.465,-36.458,41.367,-19.886,-20.827,-8.475,-27.171,-34.054,-24.859,-14.533,-31.266,-36.499,-18.686,-7.594,-27.143,-24.683,72.348,-26.252,-31.291,-20.274,-27.474,-25.104,127.405,11.851,11.554
0.4645172000000457,-39.064,-35.75,31.916,15.441,-45.574,-43.081,42.351,-28.576,-26.954,-16.151,-33.292,-39.655,-28.933,-20.154,-37.895,-44.659,-28.401,-19.369,-35.313,-31.318,63.054,-38.009,-42.018,-36.136,-40.767,-32.251,118.569,5.691,7.956
0.4805482000001575,-44.148,-40.837,30.347,10.303,-42.966,-46.112,32.574,-35.719,-29.489,-21.258,-38.894,-46.788,-33.514,-22.695,-39.394,-49.738,-37.082,-19.35,-40.4,-33.848,59.405,-42.582,-45.05,-49.932,-47.898,-36.83,121.012,-0.974,7.948
0.4806078999999954,-52.301,-41.308,26.73,0.558,-38.313,-45.554,22.296,-34.147,-27.922,-22.262,-40.392,-50.327,-32.456,-22.673,-44.99,-51.225,-34.996,-17.793,-42.409,-35.351,58.321,-45.101,-48.591,-44.759,-51.437,-38.33,122.428,-5.072,-0.769
0.4943957999998929,-57.372,-47.927,16.458,-4.053,-46.984,-48.07,21.761,-37.187,-30.456,-24.801,-41.888,-53.351,-30.887,-26.749,-50.58,-58.858,-34.448,-22.899,-46.465,-40.439,45.455,-55.814,-57.251,-54.448,-57.02,-43.415,111.034,-15.313,-8.965
0.49612919999981386,-59.876,-53.002,15.929,-3.537,-51.035,-51.096,29.936,-42.272,-33.499,-27.338,-42.359,-53.81,-30.856,-23.136,-51.042,-62.898,-37.488,-20.827,-47.956,-42.96,41.311,-57.807,-58.219,-63.615,-59.525,-46.445,103.239,-18.884,-4.346
0.5099863999998888,-63.915,-50.9,19.499,-9.168,-44.324,-56.168,27.345,-42.742,-34.49,-29.36,-46.927,-53.244,-33.387,-20.551,-54.065,-57.2,-36.426,-17.22,-48.42,-41.38,49.979,-54.163,-52.013,-54.33,-54.855,-45.374,106.209,-15.279,-4.341
0.5100489000001289,-65.9,-53.411,12.82,-16.332,-42.231,-61.234,18.096,-43.724,-38.042,-31.892,-50.979,-55.24,-36.94,-29.24,-58.109,-59.192,-33.828,-21.813,-48.372,-43.388,47.879,-58.72,-52.473,-57.349,-51.726,-47.378,109.689,-21.411,-13.046
0.5244975000000522,-60.711,-54.894,11.782,-9.143,-37.065,-51.952,21.664,-41.119,-37.492,-29.298,-43.756,-51.086,-33.829,-27.674,-51.391,-61.182,-31.232,-18.205,-43.713,-42.32,43.221,-54.563,-49.859,-60.878,-43.99,-45.794,113.678,-26.001,-8.422
0.5245609999997214,-54.503,-46.13,22.529,0.6,-28.319,-42.166,28.302,-33.393,-32.843,-26.195,-39.101,-42.838,-29.696,-18.424,-42.118,-51.899,-25.566,-9.99,-40.083,-34.593,48.813,-44.774,-39.051,-45.448,-30.113,-37.039,119.2,-15.728,1.32
0.5394102999998722,-55.473,-40.961,24.043,-4.011,-30.852,-47.759,25.712,-37.458,-35.372,-29.243,-44.697,-44.332,-33.765,-22.504,-42.076,-50.823,-25.54,-18.177,-41.58,-34.046,49.789,-48.316,-38.5,-42.841,-29.059,-35.977,119.593,-8.028,-1.755
0.5543804999997519,-58.491,-45.531,18.896,-5.544,-36.457,-51.298,28.248,-45.106,-37.898,-29.214,-43.116,-47.361,-35.781,-25.556,-48.694,-57.944,-29.101,-26.868,-44.099,-40.672,45.128,-53.391,-47.17,-52.02,-37.227,-43.626,120.498,-13.143,-8.414
0.5544426999999814,-56.896,-48.047,20.414,0.609,-31.809,-47.148,36.417,-37.376,-34.787,-26.623,-38.462,-45.777,-31.646,-21.944,-51.719,-56.862,-25.998,-22.23,-45.592,-41.144,43.546,-51.8,-49.685,-49.918,-35.14,-44.094,124.476,-20.302,-8.917
0.5695046999999249,-53.253,-46.462,23.98,1.121,-24.093,-49.15,34.331,-31.191,-31.678,-29.158,-39.448,-43.17,-30.078,-23.971,-49.618,-52.194,-24.435,-16.06,-44.01,-37.004,44.015,-49.699,-46.561,-51.405,-33.056,-40.976,124.351,-20.282,-8.396
0.5695671999997103,-48.589,-38.218,28.567,8.804,-15.36,-44.49,33.272,-35.77,-27.548,-25.03,-32.748,-37.491,-25.949,-22.923,-45.47,-45.994,-26.972,-11.434,-36.281,-33.381,46.532,-43.502,-42.928,-53.403,-38.146,-38.374,113.469,-8.991,-4.289
0.5845377999999073,-40.855,-27.934,31.612,22.115,-7.66,-32.15,39.899,-33.685,-23.422,-16.296,-25.543,-31.818,-20.8,-18.289,-39.789,-38.263,-25.408,-6.811,-32.146,-30.274,49.56,-39.36,-40.324,-47.202,-36.058,-32.188,87.74,1.777,0.838
0.5846011999997245,-38.765,-27.394,24.408,16.458,-6.115,-29.556,36.785,-28.529,-23.398,-18.841,-31.666,-35.373,-25.39,-26.98,-36.676,-43.348,-29.993,-7.829,-36.725,-31.781,43.875,-48.03,-44.382,-52.79,-34.485,-31.643,62.549,1.262,-4.798
0.5998559999998179,-43.85,-32.489,15.162,6.195,-2.523,-32.088,35.724,-31.574,-20.301,-23.945,-32.146,-39.436,-29.463,-32.076,-40.737,-50.99,-40.722,-9.358,-38.738,-34.31,35.634,-52.593,-48.948,-59.91,-38.549,-37.247,62.486,-0.788,-12.99
0.5999189999997725,-45.855,-32.457,18.221,11.825,1.578,-30.519,51.57,-33.079,-15.158,-21.872,-28.528,-36.323,-24.311,-21.798,-44.283,-46.328,-40.169,-1.152,-33.063,-32.227,34.061,-47.929,-44.289,-51.141,-30.826,-37.722,72.158,-0.275,-9.391
0.6144762999997511,-41.198,-29.863,25.375,16.936,-4.059,-28.44,54.592,-29.972,-16.167,-18.264,-32.086,-35.774,-22.75,-18.702,-41.165,-43.72,-40.641,6.534,-28.42,-30.145,39.15,-44.295,-39.634,-48.016,-20.037,-37.172,71.061,-0.787,-2.722
0.6295509000001402,-35.522,-21.636,24.325,19.993,-3.542,-22.776,36.607,-23.282,-13.59,-12.61,-26.93,-32.664,-19.653,-23.294,-38.562,-45.213,-47.26,3.453,-26.342,-27.554,46.284,-38.615,-35.496,-51.554,-20.017,-35.086,75.601,5.361,0.867
0.631407500000023,-28.826,-8.295,22.251,27.657,12.343,-17.118,36.058,-17.624,-5.891,-9.012,-16.145,-23.922,-10.924,-18.148,-35.962,-35.946,-40.553,4.987,-20.68,-20.354,49.823,-29.868,-28.288,-39.719,-16.923,-27.366,88.333,16.627,4.452
0.6314575999999761,-24.699,-7.262,22.229,26.093,14.38,-18.637,48.317,-21.192,-6.398,-12.589,-20.74,-21.337,-10.401,-13.007,-31.315,-28.738,-31.291,12.666,-16.561,-18.284,47.212,-30.35,-28.772,-36.093,-11.271,-24.777,94.905,19.172,4.448
0.6446264000001065,-29.285,-16.476,17.596,19.407,-3.566,-22.205,46.219,-26.294,-12.539,-14.113,-26.354,-26.951,-14.489,-20.166,-33.333,-36.394,-38.944,11.117,-20.131,-23.901,42.042,-38.004,-35.403,-47.84,-18.432,-32.949,116.839,15.566,-0.167
0.6446922999998606,-34.891,-19.533,10.918,17.338,-12.271,-22.695,42.075,-25.756,-12.014,-13.074,-26.328,-30.51,-16.524,-25.269,-38.423,-41.993,-43.004,5.47,-24.209,-25.414,37.901,-38.479,-32.806,-50.866,-27.122,-34.453,149.51,15.551,-5.29
0.6596902999999656,-32.295,-19.514,10.907,13.222,-4.574,-24.722,44.594,-27.779,-10.465,-15.623,-29.888,-30.48,-18.044,-22.17,-36.847,-39.389,-38.862,9.051,-19.574,-21.29,37.863,-31.268,-30.724,-43.643,-23.509,-29.296,157.045,16.56,-5.797
0.6597560999998677,-24.578,-14.883,19.093,16.795,8.238,-23.16,44.037,-23.653,-7.381,-9.972,-25.247,-26.863,-12.903,-16.0,-33.737,-32.178,-39.336,20.313,-12.382,-16.146,38.85,-26.626,-32.23,-37.964,-13.24,-22.606,144.08,22.179,2.405
0.6746127000001252,-18.918,-3.598,30.857,33.172,17.451,-15.452,45.018,-10.309,-0.201,-2.79,-14.463,-21.713,-8.792,-12.91,-33.703,-25.998,-36.735,25.416,-12.882,-13.568,37.787,-26.087,-27.587,-35.365,-8.103,-18.485,155.207,34.452,14.186
0.6746735000001536,-23.51,-7.18,30.314,28.528,8.724,-19.023,48.559,-18.496,-5.836,-14.57,-24.183,-29.888,-19.029,-21.606,-36.743,-36.73,-39.772,13.607,-24.14,-21.752,31.089,-35.795,-33.195,-46.088,-15.78,-26.151,164.785,30.831,13.147
0.6896736999997302,-32.708,-19.981,17.989,6.983,-8.19,-32.836,44.412,-39.482,-20.688,-28.388,-42.089,-44.715,-28.231,-33.88,-41.317,-55.137,-53.565,-2.288,-34.874,-32.488,23.885,-45.493,-42.896,-55.775,-25.498,-34.322,152.325,17.481,3.4
0.6897399999998015,-24.478,-9.715,20.532,19.271,-0.498,-29.729,44.88,-30.733,-16.568,-19.138,-33.85,-38.011,-21.031,-28.211,-35.128,-48.422,-48.9,5.911,-26.13,-25.284,28.985,-32.639,-29.02,-39.326,-14.202,-24.042,153.198,29.246,10.569
0.7046949000000495,-11.646,2.078,35.369,42.306,13.335,-15.867,53.544,-11.235,-3.744,-6.311,-17.935,-23.628,-13.325,-17.424,-24.335,-31.979,-35.531,19.737,-12.784,-16.549,38.177,-19.287,-15.159,-26.479,4.256,-15.308,166.877,45.611,24.391
0.7200806000000739,-20.344,-12.269,26.624,25.357,-4.609,-19.438,46.318,-23.007,-12.45,-14.501,-25.089,-31.289,-17.923,-24.067,-32.507,-42.706,-43.693,9.984,-23.017,-23.705,29.942,-33.1,-29.489,-40.285,2.202,-26.564,162.611,28.659,15.657
0.7201380999999856,-30.569,-23.527,10.203,3.815,-22.535,-28.64,28.341,-41.427,-23.708,-24.733,-34.798,-39.967,-25.077,-29.678,-40.672,-52.397,-47.747,0.752,-32.216,-27.78,18.641,-39.727,-33.045,-42.806,-8.558,-31.148,160.399,13.261,0.272
0.7347193000000516,-18.243,-11.721,20.439,17.131,-9.193,-23.488,32.411,-31.651,-13.438,-17.536,-21.956,-25.582,-20.441,-19.402,-26.799,-33.389,-34.38,13.559,-15.278,-14.944,27.332,-18.682,-16.106,-25.345,-3.427,-20.871,174.071,29.129,5.395
0.7347862999999961,-4.905,1.099,36.813,33.508,4.137,-12.194,45.699,-12.152,-2.666,-4.711,-7.589,-11.212,-8.638,-11.186,-14.476,-15.425,-30.247,27.89,-0.918,-3.146,39.088,-7.393,-7.893,-19.172,8.872,-15.214,179.533,44.469,19.734
0.7497435999998743,-1.826,6.733,39.338,37.573,-3.04,-5.009,41.555,-8.041,-1.639,-3.169,-5.02,-10.689,-5.555,-10.15,-12.413,-14.385,-33.29,30.424,-3.478,-1.606,40.586,-11.484,-4.811,-20.177,11.425,-15.199,178.329,44.425,26.887
0.7514378000000761,-3.874,4.165,35.712,39.072,-16.357,-6.541,37.927,-17.767,-3.174,-8.801,-8.089,-13.752,-10.16,-9.115,-12.4,-17.444,-31.208,26.807,-9.622,-7.752,35.934,-14.034,-3.782,-19.132,1.679,-17.746,182.761,41.307,22.249
0.7648119999998926,-14.116,-6.085,30.041,31.349,-32.734,-14.219,41.988,-23.897,-8.294,-13.916,-17.814,-20.91,-13.736,-14.229,-19.56,-26.648,-34.251,18.584,-16.273,-12.867,24.628,-23.754,-18.635,-30.896,-4.982,-28.486,185.14,32.556,12.493
0.7648788999999852,-18.2,-9.153,30.011,23.633,-47.558,-12.668,33.749,-19.262,-9.31,-16.463,-25.481,-27.037,-15.772,-18.826,-23.127,-33.794,-35.241,14.467,-18.818,-11.318,17.431,-29.878,-25.789,-43.161,-0.879,-31.532,183.93,26.376,14.53
0.7798382999999376,-13.572,-6.07,33.055,25.658,-51.097,-7.02,30.641,-21.805,-8.789,-20.033,-20.845,-27.01,-17.293,-17.782,-14.907,-31.711,-32.644,14.452,-15.725,-12.843,20.999,-24.725,-18.078,-42.605,-3.439,-24.84,181.185,28.399,18.614
0.7799162000001161,-21.243,-13.236,22.263,21.534,-57.194,-12.136,40.344,-36.64,-15.952,-24.624,-22.873,-31.082,-20.35,-22.375,-17.453,-35.266,-38.247,10.852,-21.857,-18.978,18.929,-29.823,-27.794,-44.1,-18.805,-27.889,176.393,21.198,5.275
0.794827400000031,-27.881,-17.322,13.532,15.877,-64.309,-14.686,32.619,-36.091,-14.912,-20.501,-27.974,-31.563,-19.817,-22.865,-21.534,-38.304,-36.672,12.378,-23.885,-15.885,15.324,-34.916,-35.963,-47.642,-24.422,-31.447,181.339,14.517,-2.927
0.7948910000000069,-15.046,-10.132,23.252,25.083,-57.584,-6.986,23.365,-12.489,2.009,-8.697,-15.138,-17.699,-11.088,-10.547,-8.705,-25.97,-22.803,19.025,-14.639,-8.185,24.018,-25.148,-21.583,-42.983,-16.2,-24.244,196.015,27.822,7.322
0.8098120999998173,-10.42,-8.585,29.889,32.23,-53.428,-2.881,42.81,-0.181,5.594,-5.615,-6.926,-12.558,-8.003,-7.463,-3.573,-17.748,-21.755,17.469,-14.625,-9.201,29.629,-24.61,-18.487,-37.817,-10.037,-24.219,198.38,35.479,10.901
0.8117056000000957,-19.119,-13.699,26.273,26.562,-62.084,-5.952,58.648,-11.451,-3.634,-11.757,-17.677,-22.279,-15.167,-12.578,-13.816,-25.414,-28.394,13.353,-19.221,-11.241,24.477,-32.27,-27.178,-38.804,-10.539,-31.88,188.96,24.685,7.816
0.8248863999997411,-19.612,-16.247,24.197,20.388,-66.121,-6.458,45.27,-20.661,-6.192,-12.77,-21.246,-26.868,-16.689,-10.516,-14.314,-32.049,-25.291,11.803,-17.152,-10.205,21.378,-30.189,-22.54,-42.351,-17.188,-30.823,186.722,18.513,9.345
0.8249547999998867,-14.982,-17.256,22.636,19.855,-62.468,-2.866,34.978,-15.005,-5.673,-10.708,-16.102,-23.767,-13.599,-9.994,-7.64,-30.48,-20.655,6.668,-18.672,-12.757,20.332,-29.134,-23.542,-44.87,-25.368,-28.743,192.171,17.982,5.75
0.8399074999997538,-12.917,-14.165,26.2,26.496,-60.357,1.748,39.554,-8.843,-3.106,-9.16,-13.012,-19.645,-13.073,-10.496,-6.096,-24.814,-16.536,6.149,-18.654,-12.232,22.361,-29.617,-34.789,-40.727,-23.293,-28.202,195.053,14.378,5.744
0.8399727999999413,-11.367,-9.027,34.883,32.104,-58.247,0.722,38.49,-14.982,-3.103,-8.126,-7.876,-18.601,-10.498,-8.436,-5.065,-21.203,-14.983,10.242,-15.049,-9.658,28.999,-26.001,-33.218,-36.076,-18.659,-24.076,195.882,15.388,12.911
0.8552707999997438,-12.381,-12.092,36.385,33.609,-55.115,-1.328,34.865,-18.553,-8.735,-11.192,-8.892,-21.656,-9.463,-11.502,-4.547,-22.207,-22.652,7.157,-16.058,-9.648,30.507,-25.975,-27.037,-39.113,-22.227,-23.027,196.199,21.008,10.336
0.8553332000001319,-7.245,-8.494,40.959,40.236,-44.814,3.284,38.417,-4.702,-2.579,-9.644,-8.883,-17.536,-9.966,-12.002,-2.494,-16.549,-23.142,3.564,-10.407,-6.052,33.038,-21.339,-22.399,-35.488,-18.619,-19.93,198.052,28.159,10.326
0.8699609999998756,-1.603,2.273,47.066,46.343,-29.4,5.33,40.427,1.451,5.621,-0.925,1.372,-7.784,-2.783,-5.33,-0.442,-8.848,-13.385,7.659,-1.687,-3.485,38.128,-13.633,-15.716,-26.231,-7.329,-12.738,198.366,34.279,19.537
0.87167989999989,-12.36,-5.414,34.723,34.001,-29.882,-2.872,37.825,-21.605,-8.217,-6.047,-3.753,-15.974,-4.83,-11.473,-7.614,-22.671,-17.982,2.016,-14.493,-11.166,29.893,-23.353,-23.898,-32.353,-10.396,-17.848,189.971,30.659,13.37
0.8849996999997529,-23.618,-21.802,19.832,19.11,-45.734,-11.579,35.738,-37.977,-18.967,-20.386,-22.704,-30.814,-20.194,-21.195,-16.828,-40.579,-28.723,-8.744,-28.311,-19.352,18.592,-35.113,-34.12,-44.616,-21.656,-29.613,183.633,19.357,2.086
0.9000313999999889,-20.52,-20.244,22.886,18.067,-50.811,-16.178,29.555,-32.304,-14.85,-23.439,-23.194,-29.247,-22.223,-17.588,-17.323,-39.514,-26.645,-6.686,-21.11,-18.308,23.184,-33.028,-25.889,-44.571,-19.073,-30.096,188.06,13.702,5.67
0.9000923999997212,-17.938,-16.125,26.961,18.049,-50.761,-16.674,22.865,-34.833,-16.372,-21.879,-18.048,-24.607,-13.492,-13.984,-14.744,-32.815,-24.569,1.517,-15.966,-13.166,27.772,-30.434,-21.765,-38.379,-11.881,-25.455,189.921,18.299,9.763
0.9001331999998001,-13.31,-17.133,28.471,22.129,-53.784,-8.973,24.892,-37.36,-15.331,-18.783,-17.517,-24.07,-14.503,-14.482,-9.607,-28.683,-25.569,4.589,-15.95,-8.542,30.818,-26.305,-25.329,-28.607,-13.406,-21.331,188.707,30.064,10.778
0.9150048999999854,-1.001,-7.895,36.127,36.452,-49.632,-0.767,29.478,-25.027,-6.606,-11.08,-9.303,-17.898,-13.976,-10.882,-2.425,-23.019,-18.884,5.097,-9.787,-6.485,39.496,-20.643,-16.594,-20.381,-14.93,-14.65,196.715,36.182,16.402
0.9299774999999499,-2.537,-2.764,34.554,30.78,-48.557,-2.303,29.96,-26.539,-11.723,-13.63,-10.831,-17.88,-12.425,-11.896,-4.984,-26.07,-18.352,0.994,-14.388,-11.089,38.432,-26.258,-15.553,-33.681,-10.304,-15.66,203.69,27.949,16.898
0.9300358000000415,-9.707,-7.884,26.323,11.281,-56.706,-6.912,28.906,-37.783,-17.346,-22.838,-18.504,-25.035,-19.585,-15.982,-8.053,-31.679,-26.531,-5.155,-24.107,-15.689,35.32,-29.305,-26.296,-43.893,-13.88,-21.28,201.438,24.847,14.832
0.9450816999997187,4.135,2.37,31.932,21.516,-43.841,-0.245,24.779,-22.376,-4.009,-12.057,-4.654,-18.862,-14.443,-10.843,0.665,-21.914,-25.48,0.485,-12.812,-7.476,50.654,-17.493,-16.536,-23.357,-24.112,-11.524,204.31,40.191,21.477
0.94514799999979,16.427,14.151,36.511,41.475,-19.719,7.44,20.143,-7.497,4.192,4.349,7.646,-6.548,0.429,-2.635,5.275,-8.572,-17.77,6.12,-3.066,-0.296,59.312,-13.377,-5.249,-13.6,-22.551,-2.804,209.229,44.762,24.529
0.9600918000001002,4.627,-1.233,24.691,23.502,-19.699,-4.35,20.635,-24.395,-2.985,-3.34,-4.144,-11.664,-6.232,-5.194,-3.44,-16.76,-19.801,-1.57,-17.919,-10.03,45.933,-27.196,-23.174,-39.714,-19.967,-17.658,201.335,21.151,13.234
0.9601585999998861,-4.599,-15.576,15.445,3.499,-26.34,-17.666,25.225,-34.617,-7.08,-14.095,-10.8,-20.874,-15.447,-11.849,-8.047,-28.014,-25.417,-8.229,-25.586,-17.192,39.739,-35.366,-34.934,-50.433,-30.193,-28.399,194.474,6.785,3.487
0.9760811000001013,3.09,-6.339,22.602,17.84,-21.19,-7.914,32.372,-16.652,-0.413,-3.322,-1.568,-12.144,-4.673,-9.276,-1.379,-18.765,-23.854,-1.561,-13.265,-6.416,50.458,-25.597,-17.993,-29.377,-36.823,-11.464,205.038,20.611,6.557
0.976154299999962,8.21,0.327,29.239,31.654,-21.681,1.827,41.562,-8.438,7.272,4.878,4.069,-1.886,0.967,-3.631,2.208,-6.451,-20.757,4.076,-6.08,1.787,57.068,-16.349,-8.753,-20.639,-25.003,-2.231,215.079,29.812,12.186
0.9901064999999107,4.103,-2.747,29.722,27.012,-22.684,-3.298,43.057,-14.065,7.265,0.775,3.553,-4.445,-3.132,-4.652,-1.38,-9.518,-19.711,2.023,-6.586,-2.313,59.572,-17.87,-17.966,-27.278,-9.609,-12.475,209.741,24.146,10.125
0.9901706000000559,1.538,-0.695,33.279,32.108,-17.538,-3.294,36.866,-9.953,5.72,1.799,3.549,-8.027,-0.568,-6.184,-3.428,-12.582,-19.692,2.021,-6.579,-4.36,62.074,-18.877,-16.924,-23.152,-10.112,-13.999,205.432,20.536,4.992
1.005362299999888,-3.587,-4.28,30.684,33.101,-27.255,-3.291,32.218,-10.967,5.202,-1.789,-2.09,-11.093,-6.203,-8.74,-4.449,-14.619,-23.258,0.994,-14.77,-7.942,55.864,-22.956,-13.321,-26.715,-24.959,-11.424,210.35,12.319,-0.649
1.0054347999998754,-8.194,-14.522,22.456,17.698,-44.646,-12.509,32.186,-22.227,-0.95,-10.497,-9.26,-16.205,-15.418,-13.342,-6.494,-22.289,-27.333,-1.056,-19.878,-14.594,50.685,-31.13,-21.504,-39.496,-28.52,-20.122,216.287,4.622,-2.185
1.020070300000043,0.011,-7.848,31.143,21.779,-37.429,-7.374,35.228,-17.594,-2.486,-3.314,-6.177,-13.115,-8.23,-9.742,-3.926,-20.73,-23.207,2.531,-11.661,-9.456,58.832,-25.976,-18.409,-25.625,-11.073,-16.003,224.78,18.962,10.625
1.0201342999998815,6.671,4.968,43.92,39.688,-24.584,1.855,34.68,-6.306,2.127,0.788,-0.023,-11.565,-5.66,-6.146,-0.336,-14.049,-23.697,-2.082,-10.625,-5.861,62.871,-16.216,-6.607,-7.668,-3.89,-4.204,230.191,33.287,21.885
1.0350217000000157,-3.582,-0.672,34.142,32.476,-35.83,-9.93,24.912,-15.521,-7.609,-13.558,-10.269,-22.824,-18.975,-18.948,-4.946,-27.355,-34.944,-15.912,-24.959,-19.175,51.538,-30.032,-15.822,-28.665,-18.743,-15.983,220.739,20.959,11.105
1.035079400000086,-8.189,-9.381,23.862,20.661,-45.528,-15.555,21.301,-26.264,-17.335,-14.569,-17.431,-25.875,-18.956,-24.564,-9.552,-39.623,-36.446,-15.896,-28.008,-25.303,47.388,-44.859,-30.151,-48.104,-25.384,-28.262,211.809,8.13,2.384
1.0500323000001117,0.016,-7.322,27.936,27.3,-35.749,-3.756,25.378,-17.016,-8.096,-0.21,-1.02,-13.554,-8.691,-11.732,-4.932,-28.313,-27.7,-6.146,-19.783,-16.569,55.537,-35.593,-22.436,-32.175,-19.211,-19.525,217.745,13.245,10.067
1.0500920999998016,-2.033,-10.901,25.859,25.736,-41.348,-5.802,18.693,-13.925,-5.015,-1.746,2.567,-12.515,-8.17,-8.646,-0.316,-22.649,-30.234,-10.239,-23.861,-17.065,55.482,-30.946,-14.729,-23.945,-22.778,-18.481,219.577,13.232,6.983
1.0650964999999815,-12.789,-19.087,20.71,14.951,-70.508,-15.018,10.989,-30.817,-16.28,-11.991,-16.391,-24.798,-14.309,-18.372,-4.414,-36.971,-36.864,-18.425,-32.547,-24.732,48.254,-43.211,-22.911,-39.803,-27.878,-26.659,214.746,5.022,-6.344
1.0651620999997249,-11.752,-20.093,22.739,11.863,-89.906,-6.806,15.589,-33.86,-15.239,-10.442,-15.862,-27.335,-19.418,-19.89,-3.385,-42.057,-33.241,-14.309,-27.903,-21.121,50.767,-45.217,-31.085,-45.399,-22.215,-24.071,221.704,2.967,-5.826
1.0801008999997066,-3.031,-18.536,19.642,10.314,-95.451,3.96,14.549,-16.408,-4.466,-3.259,-0.989,-19.111,-16.837,-14.235,7.377,-31.257,-28.084,-6.097,-17.117,-12.391,58.401,-32.876,-30.542,-37.669,-22.705,-19.948,235.314,6.038,-2.234
1.080171799999789,-0.979,-19.542,17.061,10.304,-107.139,6.517,10.436,-15.367,-2.924,-1.207,-6.111,-14.993,-9.648,-11.659,13.005,-25.078,-23.958,-2.505,-13.001,-8.792,58.855,-24.134,-21.802,-34.045,-30.879,-18.904,242.251,6.032,-3.256
1.095564899999772,-8.662,-21.571,20.63,11.318,-118.815,3.437,21.696,-30.721,-11.118,-7.353,-14.814,-19.589,-14.249,-13.184,8.893,-28.126,-22.909,-6.601,-14.525,-8.271,56.235,-25.135,-15.633,-35.035,-29.311,-14.786,237.911,0.903,-4.79
1.1102292000000489,-14.801,-24.624,16.511,7.208,-118.696,-3.227,28.334,-28.641,-15.206,-11.444,-12.75,-23.668,-22.432,-16.757,5.811,-33.221,-30.059,-15.304,-20.659,-13.898,52.08,-34.331,-25.863,-40.636,-24.671,-19.382,227.427,-2.172,-7.347
1.1102983999999196,-12.225,-26.648,12.908,6.689,-113.966,-0.662,21.134,-16.317,-8.53,-6.822,-10.688,-20.058,-15.749,-19.302,6.83,-34.725,-36.688,-16.825,-29.347,-20.545,45.88,-41.981,-37.108,-45.718,-29.257,-29.097,224.638,0.904,-6.315
1.1252055999998447,-7.09,-23.548,14.945,8.731,-114.877,8.048,20.088,-18.35,-3.399,-3.741,-8.116,-17.989,-10.61,-22.357,8.872,-33.153,-37.164,-14.247,-31.367,-17.962,43.273,-39.89,-31.436,-42.086,-33.839,-26.506,232.61,3.977,-0.161
1.1271357999999054,-2.984,-19.426,12.88,7.698,-132.693,10.601,22.63,-21.918,-6.982,-2.713,-4.009,-22.069,-15.211,-24.383,15.523,-34.145,-35.078,-19.868,-26.213,-12.821,47.328,-36.264,-24.744,-35.384,-31.243,-20.332,247.234,3.973,0.352
1.140237099999922,5.216,-16.333,17.478,12.813,-163.299,20.837,14.922,-13.699,-2.364,3.95,-0.419,-16.924,-12.634,-20.261,26.778,-32.061,-29.407,-23.434,-22.088,-7.686,53.941,-33.666,-27.793,-34.324,-24.552,-21.336,266.455,6.019,1.376
1.1403044999997292,7.772,-15.292,26.682,18.436,-178.505,34.136,10.809,-7.537,5.323,4.458,3.167,-8.71,-6.986,-16.142,31.875,-24.857,-24.767,-16.751,-22.066,-3.579,56.448,-29.534,-26.229,-36.851,-19.404,-21.827,269.774,7.037,8.035
1.1553146999999626,-0.945,-20.912,19.996,10.22,-171.154,24.368,15.409,-17.776,-3.904,-2.719,-0.422,-14.849,-12.102,-16.638,25.183,-28.931,-28.841,-13.66,-22.044,-7.674,49.732,-28.992,-22.104,-36.302,-18.873,-20.269,251.574,2.419,4.953
1.1553795999998329,-3.506,-24.477,13.828,3.55,-164.835,11.536,17.443,-31.078,-11.072,-2.716,-5.545,-20.47,-15.164,-14.06,17.473,-36.586,-25.738,-13.647,-17.923,-10.74,43.534,-27.939,-21.057,-30.118,-18.854,-20.248,246.711,-0.657,-0.687
1.170234199999868,3.67,-16.768,21.499,10.207,-160.572,20.746,16.913,-24.899,-1.327,2.41,0.609,-12.765,-8.488,-9.435,22.066,-28.353,-13.929,-6.973,-11.245,-2.533,48.102,-21.251,-15.913,-24.965,-13.712,-18.179,257.736,5.491,7.51
1.1702958999999282,4.691,-9.579,25.063,17.369,-151.702,23.799,16.896,-10.53,0.723,1.895,2.657,-11.215,-7.455,-12.499,28.192,-22.689,-14.428,-4.917,-10.722,-0.481,49.59,-17.643,-13.336,-23.916,-10.112,-13.038,251.33,12.658,14.675
1.1852172999997492,0.588,-15.205,22.989,15.302,-147.964,11.48,16.879,-17.179,-9.011,-4.767,-6.567,-17.864,-13.083,-18.122,21.504,-32.913,-24.659,-14.133,-16.859,-6.116,42.368,-23.261,-21.007,-22.355,-15.225,-13.025,239.296,10.596,9.025
1.1869250999998258,-0.437,-22.362,20.405,7.602,-147.816,9.419,16.862,-26.896,-10.027,-7.836,-5.536,-16.309,-14.607,-16.055,15.334,-33.392,-25.659,-18.218,-18.891,-5.598,39.252,-27.849,-28.671,-27.455,-20.845,-20.184,244.692,1.877,1.844
1.200349599999754,-2.998,-21.827,12.7,4.008,-144.594,15.045,12.747,-18.16,-5.918,-3.217,1.13,-13.219,-13.568,-15.527,18.393,-25.162,-22.047,-16.15,-15.798,-5.08,38.188,-26.284,-28.642,-40.236,-24.411,-24.262,248.033,-4.785,-2.769
1.2004163000001427,-10.168,-26.928,4.49,3.492,-149.573,9.907,6.074,-16.605,-11.036,-4.751,-7.581,-21.403,-18.165,-22.171,15.301,-33.333,-27.661,-19.72,-21.418,-12.247,28.416,-28.819,-28.613,-45.831,-35.145,-23.213,239.076,-11.441,-11.475
1.2154113999999936,-18.867,-36.123,1.412,-7.27,-165.817,3.75,5.043,-29.908,-16.66,-15.505,-21.918,-32.14,-25.319,-25.735,8.113,-49.694,-31.732,-25.848,-33.18,-19.407,17.629,-40.573,-37.294,-44.76,-45.868,-27.801,233.714,-16.552,-16.075
1.2154763999997158,-19.36,-34.55,4.996,-12.898,-170.262,6.82,8.625,-31.415,-12.545,-12.415,-19.847,-31.083,-22.732,-19.049,12.716,-50.669,-23.503,-23.773,-31.097,-16.826,16.587,-42.07,-40.33,-45.228,-38.65,-33.408,223.234,-13.462,-9.399
1.2297275999999329,-6.021,-24.269,15.237,2.996,-155.747,16.547,13.739,-19.089,-1.261,3.991,-3.433,-15.683,-10.927,-10.833,21.412,-35.249,-14.258,-14.528,-16.209,-6.563,26.304,-25.634,-25.433,-36.473,-20.68,-24.153,199.445,-3.714,1.369
1.2297911999999087,4.231,-19.122,19.321,12.727,-141.759,23.19,16.799,-8.823,4.375,5.524,5.28,-6.445,-6.305,-9.798,23.44,-24.968,-13.219,-11.44,-9.533,-2.458,32.938,-16.899,-14.137,-25.678,-15.024,-15.42,182.339,1.412,7.515
1.2443536999999196,-7.044,-25.763,10.08,1.444,-139.056,14.97,12.172,-13.425,-5.363,-4.728,-6.509,-16.173,-13.983,-15.424,15.22,-34.164,-16.28,-18.6,-16.696,-9.628,21.634,-27.128,-23.344,-33.337,-23.206,-25.651,177.034,-8.835,0.336
1.2460731999999552,-24.455,-36.495,3.922,-7.267,-143.015,-1.951,6.012,-28.781,-18.678,-9.334,-20.847,-26.403,-21.654,-19.507,3.934,-45.401,-21.899,-19.606,-23.851,-14.229,6.756,-33.249,-33.055,-45.599,-29.331,-35.359,169.684,-21.634,-11.448
1.2593618000000788,-25.455,-38.508,2.894,-8.797,-143.897,-3.486,2.932,-32.338,-19.171,-12.398,-19.289,-23.302,-22.144,-17.95,4.442,-41.769,-22.901,-12.927,-21.266,-11.653,7.774,-29.117,-28.411,-43.505,-25.715,-30.201,163.879,-17.002,-11.949
1.2594272999999703,-19.794,-35.908,-1.208,-11.349,-137.605,3.177,-3.731,-25.134,-15.566,-13.41,-13.634,-20.718,-20.585,-17.932,12.635,-39.678,-18.78,-17.012,-18.683,-11.642,11.352,-27.039,-21.723,-40.387,-27.226,-28.121,166.277,-13.911,-10.4
1.2744496999998773,-21.312,-39.458,-2.744,-11.338,-132.345,-1.437,-4.752,-28.695,-19.137,-9.811,-17.719,-25.82,-21.077,-23.037,10.06,-44.762,-22.348,-28.778,-23.275,-14.191,6.218,-29.573,-24.775,-42.908,-36.933,-29.63,169.184,-24.655,-17.562
1.2745133999997051,-22.827,-42.493,0.845,-12.351,-129.138,-4.509,4.474,-35.326,-19.63,-8.264,-20.775,-28.868,-22.081,-23.014,3.39,-45.741,-26.936,-28.75,-26.326,-16.739,3.65,-31.593,-29.361,-40.304,-35.871,-24.477,184.897,-22.581,-17.032
1.2893888999997216,-21.78,-38.352,2.894,-15.413,-122.349,-0.406,4.47,-29.655,-17.561,-12.354,-18.705,-29.351,-22.571,-19.917,1.85,-47.233,-23.323,-22.061,-23.738,-20.308,0.572,-32.586,-28.307,-36.678,-23.54,-23.94,212.376,-12.825,-8.818
1.3043658000001415,-24.319,-38.826,2.891,-10.274,-117.616,-5.529,-3.732,-26.552,-20.617,-13.879,-19.199,-29.834,-23.573,-21.434,-1.738,-51.796,-24.836,-24.6,-28.325,-23.362,-7.625,-36.652,-30.84,-42.789,-23.517,-33.65,221.386,-21.009,-11.371
1.3044240999997783,-25.832,-39.299,1.351,-5.653,-113.4,-9.109,4.981,-31.136,-19.572,-10.791,-18.155,-27.243,-23.037,-22.95,-1.736,-48.671,-28.91,-29.187,-33.42,-22.314,-11.716,-39.689,-36.957,-43.258,-31.178,-36.691,208.869,-24.062,-14.945
1.3194656999999097,-22.732,-35.674,0.325,-8.721,-94.844,-4.489,11.636,-32.642,-15.454,-7.707,-15.063,-24.142,-19.94,-18.316,2.364,-43.499,-23.246,-26.083,-26.726,-18.705,-8.118,-34.014,-32.821,-33.481,-29.097,-27.432,201.488,-12.767,-9.807
1.3195332000000235,-20.66,-33.589,2.374,-7.688,-75.281,-9.096,-0.158,-29.535,-18.0,-6.162,-16.073,-23.606,-18.383,-14.712,-1.225,-41.406,-19.124,-20.422,-21.064,-18.174,-5.036,-27.32,-25.104,-29.861,-23.945,-19.72,203.848,-12.242,-9.285
1.3345752000000175,-19.103,-27.92,3.908,-1.02,-64.447,-13.697,1.379,-22.846,-17.47,-2.57,-12.983,-17.434,-16.316,-14.697,-2.76,-33.168,-18.593,-16.303,-17.457,-15.595,-2.469,-23.194,-22.517,-31.368,-22.897,-17.651,204.668,-9.668,-8.764
1.3346403000000464,-15.498,-19.183,7.491,6.153,-46.452,-5.999,20.845,-18.212,-10.28,3.068,-4.773,-8.708,-9.127,-11.608,2.878,-23.913,-9.352,-8.602,-7.706,-7.382,-0.418,-12.925,-13.786,-22.115,-20.824,-13.023,201.902,3.149,2.004
1.349879299999884,-15.994,-23.774,9.532,8.708,-36.16,-5.481,22.361,-23.317,-10.27,1.016,-8.866,-11.773,-9.118,-9.548,-1.223,-26.451,-3.708,-6.032,-7.186,-8.399,-7.59,-8.301,-8.136,-16.458,-21.316,-9.936,194.528,-2.489,2.002
1.3499415999999655,-23.151,-34.509,3.375,0.503,-53.03,-15.721,9.019,-27.905,-18.456,-8.207,-20.128,-24.056,-19.355,-15.173,-9.931,-38.207,-13.95,-19.858,-19.986,-20.686,-19.877,-23.15,-20.424,-31.298,-26.93,-18.635,187.674,-20.93,-10.808
1.3644776999999522,-29.275,-37.548,-1.751,-10.256,-66.297,-18.78,7.473,-29.414,-22.024,-12.809,-21.645,-32.741,-25.483,-22.843,-8.897,-49.44,-23.67,-35.72,-27.651,-24.764,-23.956,-36.447,-30.137,-46.124,-31.514,-28.351,186.461,-24.495,-16.433
1.3645363000000543,-30.271,-38.023,-0.725,-9.734,-59.058,-15.687,10.539,-33.483,-19.44,-10.747,-19.574,-35.27,-23.921,-26.406,-7.351,-53.489,-20.06,-37.734,-28.135,-22.69,-21.371,-34.361,-28.57,-40.955,-32.507,-28.322,186.275,-23.446,-19.49
1.3795598000001519,-29.216,-36.96,-5.335,-4.601,-53.363,-13.11,9.504,-30.375,-16.859,-6.126,-20.579,-33.698,-22.872,-25.868,-9.393,-49.849,-13.38,-35.134,-28.107,-23.18,-21.349,-30.228,-25.98,-29.131,-32.987,-23.683,183.015,-24.447,-25.618
1.3796262999999271,-26.113,-32.313,-9.428,-2.547,-51.773,-10.023,11.032,-20.611,-14.281,0.028,-15.948,-26.492,-22.849,-22.255,-7.334,-45.701,-13.367,-35.099,-23.981,-23.156,-21.328,-30.198,-20.831,-28.077,-28.855,-21.61,184.881,-18.275,-22.006
1.3945346999998947,-23.525,-34.33,-3.783,-4.081,-51.209,-9.5,13.07,-22.64,-11.193,2.077,-12.858,-19.806,-18.216,-18.647,-7.327,-42.581,-14.378,-29.941,-20.371,-20.059,-18.745,-32.729,-21.835,-34.709,-20.63,-23.125,184.696,-13.646,-15.324
1.394598699999733,-26.575,-38.394,0.319,-8.688,-52.183,-10.003,15.106,-28.765,-10.157,-2.023,-16.431,-18.249,-11.538,-13.505,-6.807,-37.416,-6.167,-19.153,-18.301,-15.429,-21.288,-34.746,-27.448,-36.724,-17.023,-26.176,177.339,-16.194,-13.772
1.409592900000007,-29.11,-33.232,1.343,-7.142,-45.983,-5.382,22.263,-24.638,-10.147,-0.996,-15.39,-15.157,-9.477,-7.344,-2.702,-32.255,4.086,-10.424,-10.598,-7.729,-22.291,-26.002,-16.15,-27.978,-18.03,-21.027,174.6,-9.518,-9.66
1.4096544999997604,-26.52,-27.564,1.854,0.549,-39.277,1.283,20.704,-24.101,-9.112,4.128,-10.764,-10.531,-10.492,-7.849,-2.699,-29.149,2.545,-6.828,-3.415,-5.159,-19.195,-14.705,-4.351,-21.802,-19.037,-13.321,176.987,-4.898,-10.675
1.4246245999997882,-24.444,-28.561,-6.344,-3.037,-40.262,3.331,7.363,-31.761,-8.078,6.173,-12.29,-11.033,-9.969,-9.891,-2.697,-29.12,-5.143,-6.308,-4.436,-9.765,-21.225,-16.739,-13.056,-27.415,-17.481,-18.943,172.712,-13.09,-23.984
1.424684999999954,-20.321,-24.434,-12.998,-7.133,-32.025,3.84,7.356,-29.68,-8.07,7.704,-11.253,-10.509,-7.91,-5.782,2.429,-29.091,-9.236,-1.179,-3.92,-5.657,-22.228,-19.284,-14.579,-27.388,-18.488,-23.535,169.465,-10.515,-27.546
1.439680099999805,-15.69,-17.749,-6.325,1.071,-20.21,4.348,19.644,-22.478,-4.476,8.72,-5.607,-9.474,-8.414,-7.313,0.89,-27.013,-12.301,4.97,-1.867,-0.016,-16.058,-14.654,-7.393,-19.164,-21.031,-16.339,168.783,2.303,-13.687
1.43974500000013,-22.846,-22.855,-3.757,1.582,-23.263,0.246,17.575,-22.456,-4.472,4.101,-12.261,-20.223,-10.968,-14.991,-10.382,-34.67,-19.973,-5.794,-11.086,-8.725,-24.752,-22.324,-17.631,-28.878,-22.547,-21.958,154.782,-2.31,-9.574
1.4546756999998252,-34.607,-29.492,-10.413,-7.641,-27.339,-7.952,4.237,-23.458,-10.103,-0.514,-24.032,-34.035,-15.055,-19.074,-18.568,-52.054,-27.125,-20.132,-25.42,-19.987,-43.682,-41.257,-31.446,-47.293,-23.549,-36.793,141.307,-13.578,-17.762
1.4707175999997162,-30.986,-23.315,-8.866,-1.485,-18.09,-11.018,5.258,-22.41,-8.556,-0.513,-25.545,-34.513,-16.577,-21.104,-18.038,-54.563,-26.586,-12.94,-23.857,-18.43,-42.614,-42.241,-30.39,-45.708,-26.599,-33.683,148.851,-6.905,-18.256
1.4707769000001463,-19.172,-14.582,0.877,12.348,-5.776,-6.908,20.109,-19.313,-0.862,1.536,-19.372,-29.868,-13.486,-23.132,-12.384,-43.75,-22.973,-2.169,-14.1,-12.776,-30.276,-29.903,-25.236,-33.88,-25.036,-23.915,153.313,1.299,-12.603
1.4847188999997343,-15.567,-12.518,4.462,14.898,2.939,-4.852,26.749,-13.659,-2.398,6.146,-14.742,-29.326,-11.936,-19.523,-9.81,-42.17,-22.95,-3.703,-16.135,-12.763,-33.832,-31.922,-22.65,-34.358,-22.962,-26.453,138.815,-1.264,-11.565
1.4847823000000062,-17.088,-15.067,-0.153,11.297,6.01,-8.433,19.038,-16.719,-7.007,6.139,-15.239,-26.735,-13.973,-17.454,-13.899,-46.738,-23.952,-3.187,-22.266,-12.751,-40.97,-41.112,-27.238,-40.471,-28.062,-33.086,132.016,-5.361,-10.017
1.499705400000039,-15.022,-15.052,-1.69,8.724,0.881,-13.548,11.334,-30.535,-9.561,-1.039,-19.835,-25.172,-13.959,-16.925,-16.959,-42.593,-20.342,0.914,-16.096,-10.689,-38.88,-34.923,-32.334,-38.382,-29.058,-31.516,134.958,-1.769,-7.445
1.5015623999997842,-9.883,-7.865,4.972,11.277,0.88,-14.047,12.348,-32.553,-12.626,-1.55,-18.79,-24.634,-12.921,-12.297,-12.843,-36.403,-16.223,2.963,-9.42,-6.58,-36.792,-24.13,-23.08,-30.146,-19.295,-23.8,132.774,8.991,-3.34
1.5150112999999692,-7.312,-3.758,6.503,14.339,2.928,-9.934,10.286,-23.299,-10.564,4.599,-13.648,-20.511,-13.42,-9.723,-8.732,-34.829,-16.719,5.521,-10.948,-5.548,-37.268,-24.106,-16.909,-29.604,-18.764,-20.703,133.153,13.08,-0.775
1.5150711000001138,-8.842,-9.39,-1.188,6.64,-6.296,-8.387,5.665,-23.788,-7.479,4.082,-15.684,-21.515,-14.944,-14.324,-9.748,-35.307,-19.776,-0.12,-10.937,-7.592,-34.669,-27.155,-28.163,-35.21,-32.065,-24.268,136.606,2.821,-7.434
1.5298059000001558,-8.833,-9.893,-2.723,3.56,-11.413,-8.379,12.319,-31.449,-12.595,2.029,-18.23,-25.592,-15.953,-17.896,-10.251,-36.809,-22.318,-6.267,-8.364,-6.047,-35.146,-26.616,-29.159,-34.15,-33.058,-21.682,134.933,1.794,-12.037
1.5298689000001104,-2.676,-3.223,4.964,15.339,-3.717,-6.321,16.918,-29.368,-13.607,6.125,-14.625,-23.005,-16.962,-18.39,-7.166,-37.284,-23.32,-0.626,-11.43,-4.505,-39.722,-23.515,-16.322,-30.017,-20.729,-16.537,135.31,14.087,-5.365
1.5448440000000119,-2.674,-6.294,7.521,16.349,-3.713,-7.852,5.63,-22.679,-7.958,5.607,-16.66,-25.031,-18.482,-18.884,-6.135,-35.198,-22.272,-1.137,-12.443,-8.598,-40.195,-21.443,-16.818,-29.987,-22.758,-20.619,134.662,12.536,-4.848
1.544907399999829,-12.405,-15.509,1.365,3.012,-16.517,-12.967,-4.109,-23.681,-12.048,-0.547,-23.303,-32.691,-20.0,-18.353,-8.69,-34.138,-19.176,-10.358,-10.381,-8.59,-37.593,-23.983,-24.486,-31.494,-32.469,-25.722,126.843,-0.796,-14.577
1.559794199999942,-18.028,-19.592,-4.784,-0.577,-23.161,-12.954,-4.618,-28.78,-20.746,-2.083,-22.255,-30.096,-23.054,-19.359,-10.731,-36.665,-21.206,-4.712,-15.494,-6.532,-42.166,-28.569,-24.462,-36.586,-26.289,-25.184,122.618,-4.894,-19.685
1.5614878000001227,-18.522,-20.597,-8.365,-0.064,-25.699,-11.404,-6.662,-31.825,-19.7,-3.106,-22.233,-30.066,-24.568,-23.951,-10.208,-42.264,-33.48,1.44,-23.676,-13.186,-50.321,-33.152,-30.073,-43.722,-21.651,-28.232,121.47,-6.938,-20.69
1.5749104000001353,-22.602,-24.675,-13.992,-7.236,-35.92,-13.954,-3.069,-29.744,-17.119,-7.201,-27.846,-36.696,-24.544,-26.488,-13.271,-45.295,-39.594,-8.295,-24.676,-18.295,-53.857,-37.217,-36.19,-43.678,-34.438,-33.84,117.763,-13.591,-24.255
1.574976500000048,-27.19,-27.212,-17.052,-9.278,-46.13,-13.94,6.155,-28.178,-18.639,-7.194,-28.843,-33.586,-24.007,-21.851,-15.819,-41.152,-26.747,-12.385,-20.553,-12.642,-54.315,-34.618,-28.982,-38.511,-40.038,-32.269,113.034,-13.578,-24.743
1.589920500000062,-27.163,-27.697,-13.449,-5.171,-46.596,-11.365,5.637,-32.76,-18.108,-2.576,-24.716,-26.892,-23.47,-19.268,-11.705,-37.012,-18.011,-5.713,-16.434,-10.58,-56.822,-26.387,-25.367,-36.936,-31.289,-30.7,106.261,-9.466,-21.133
1.5899822000001222,-25.599,-28.181,-6.775,-2.604,-42.451,-11.354,1.533,-36.826,-16.553,-0.012,-23.154,-25.841,-20.373,-20.273,-8.107,-36.463,-24.141,-5.195,-15.906,-12.106,-59.839,-26.36,-32.001,-38.436,-30.746,-34.767,104.618,-9.456,-14.451
1.6052449999997407,-23.524,-24.567,-4.207,-1.577,-36.261,-10.83,4.093,-30.129,-17.049,1.013,-22.106,-22.741,-17.791,-18.203,-11.685,-33.865,-25.141,-6.726,-17.939,-9.533,-57.218,-30.945,-30.945,-39.934,-35.326,-35.245,106.05,-7.398,-9.826
1.6053053000000546,-21.964,-20.444,-3.178,2.523,-27.003,-10.819,1.527,-23.439,-18.568,1.012,-22.597,-22.718,-19.823,-17.673,-14.235,-31.782,-23.579,-8.257,-19.97,-8.498,-53.062,-28.352,-25.791,-39.894,-34.266,-31.624,96.723,-3.292,-11.353
1.6199427000001378,-22.966,-18.887,-0.101,8.669,-21.341,-11.833,-5.134,-28.026,-20.087,-1.551,-25.648,-31.405,-22.364,-22.778,-9.61,-33.799,-28.166,-8.761,-18.413,-11.051,-55.571,-25.25,-29.351,-35.756,-28.084,-29.543,93.552,-3.801,-6.731
1.6216411999998854,-21.919,-15.794,5.022,11.221,-22.856,-10.796,-3.592,-31.072,-19.554,-3.598,-23.573,-32.91,-21.83,-20.706,-8.064,-31.716,-24.04,-5.166,-15.833,-9.503,-59.101,-24.712,-28.297,-29.06,-19.346,-24.902,106.266,-0.211,4.546
1.6349962999997842,-21.384,-15.778,6.554,7.624,-19.76,-14.884,-1.54,-28.479,-20.047,-5.132,-22.525,-30.316,-24.369,-17.1,-15.228,-32.197,-19.405,-6.185,-18.891,-12.056,-59.555,-23.663,-22.121,-30.568,-21.889,-22.316,97.451,5.937,3.005
1.6500356000001375,-25.974,-21.91,-0.625,6.079,-11.031,-23.066,-3.075,-33.574,-25.663,-9.737,-28.138,-34.384,-29.98,-24.255,-21.36,-40.874,-26.558,-15.4,-25.532,-19.216,-62.569,-24.664,-26.71,-37.197,-34.674,-27.417,76.861,-0.217,-7.757
1.6500999999998385,-27.997,-23.425,-6.26,5.561,-0.773,-21.506,0.514,-37.127,-23.075,-9.727,-27.597,-35.886,-29.438,-26.28,-19.802,-40.321,-24.482,-16.922,-26.532,-18.684,-65.58,-26.176,-30.782,-35.623,-32.591,-27.902,71.661,-6.364,-5.7
1.6501444999998967,-28.481,-21.865,-1.13,-3.154,14.084,-21.997,6.149,-31.454,-15.88,-6.132,-25.52,-33.289,-24.286,-22.155,-22.344,-34.133,-19.847,-14.344,-26.505,-16.104,-67.051,-27.687,-26.14,-30.977,-23.336,-25.824,39.314,-0.722,-0.059
1.665004399999816,-34.088,-29.015,-0.617,-12.372,27.903,-31.196,6.655,-31.423,-21.499,-13.298,-32.155,-36.842,-26.311,-27.768,-30.006,-42.295,-33.147,-18.428,-31.089,-22.236,-73.644,-32.27,-29.188,-37.094,-28.948,-31.946,6.999,-4.308,-7.231
1.6799903000000995,-38.153,-35.646,-8.813,-8.774,32.998,-34.239,3.575,-33.953,-25.576,-20.457,-33.66,-36.293,-28.846,-28.253,-32.025,-44.815,-37.725,-15.335,-31.058,-24.775,-79.718,-31.726,-35.306,-41.667,-33.53,-34.988,33.632,-15.062,-14.908
1.6800490000000536,-37.602,-28.95,-6.755,-0.056,37.063,-31.643,-0.527,-27.771,-17.354,-13.776,-26.966,-29.596,-22.669,-16.441,-30.456,-31.45,-21.293,-7.123,-22.83,-20.652,-75.54,-24.009,-30.66,-36.502,-25.812,-30.855,66.386,-8.387,-9.258
1.6950673000001188,-41.151,-21.749,2.473,3.018,46.76,-35.198,-3.088,-26.206,-20.41,-10.689,-28.988,-31.616,-20.597,-17.962,-34.012,-29.369,-16.661,-9.678,-20.246,-22.68,-73.928,-23.985,-26.531,-31.855,-24.762,-29.799,65.808,2.892,0.998
1.6951455999997052,-41.622,-23.777,-0.091,1.478,53.885,-41.31,-8.208,-35.914,-30.636,-18.875,-35.107,-38.757,-28.261,-29.215,-37.052,-37.537,-25.866,-14.279,-25.861,-26.756,-79.489,-27.035,-28.041,-31.311,-25.762,-29.257,33.467,2.889,2.021
1.7100962999998046,-37.994,-25.29,-7.263,-0.06,55.369,-46.904,-17.422,-42.026,-32.655,-22.442,-34.559,-40.255,-31.819,-29.185,-39.064,-36.987,-29.939,-12.727,-28.909,-26.729,-81.459,-23.934,-28.013,-34.354,-26.248,-26.154,51.876,0.325,-3.616
1.7101576999998542,-41.03,-25.777,-8.28,-1.085,57.362,-46.858,-24.576,-45.058,-38.257,-22.932,-35.037,-40.727,-29.738,-29.156,-42.099,-37.974,-31.958,-14.252,-26.831,-29.776,-79.328,-24.423,-29.522,-38.93,-36.468,-28.177,78.977,-3.774,-7.711
1.7254518999998254,-40.477,-27.288,-10.834,-0.059,64.99,-43.737,-29.163,-50.136,-43.855,-24.958,-37.051,-39.662,-29.196,-31.689,-40.008,-38.449,-32.438,-16.287,-24.755,-29.234,-77.712,-23.374,-30.005,-36.33,-39.505,-27.637,46.622,-5.307,-7.191
1.725527499999771,-32.239,-24.187,-5.7,3.015,76.708,-46.767,-26.06,-49.573,-37.151,-19.81,-31.379,-31.937,-26.093,-23.46,-36.381,-27.652,-24.721,-13.196,-20.119,-21.008,-73.536,-10.543,-20.753,-26.559,-24.097,-21.461,36.33,2.383,-2.573
1.7400634000000537,-30.67,-15.453,5.064,10.697,89.439,-46.72,-11.689,-41.327,-30.454,-13.643,-26.225,-26.27,-22.481,-14.727,-40.956,-23.013,-18.036,-7.548,-14.976,-18.426,-71.925,-4.897,-12.023,-18.848,-16.9,-19.391,63.445,8.016,3.577
1.7401202000000922,-31.152,-12.364,3.01,20.42,99.595,-39.501,-3.993,-33.089,-26.325,-14.654,-26.711,-26.244,-21.946,-17.274,-41.939,-24.527,-18.531,-5.491,-15.473,-23.018,-74.927,-10.015,-10.987,-16.78,-25.08,-19.371,53.136,6.471,4.598
1.7551760000001195,-26.51,-15.938,-5.702,16.813,101.033,-42.023,-6.038,-32.543,-21.688,-15.151,-27.708,-27.754,-22.436,-23.405,-38.311,-20.404,-22.098,-5.998,-22.118,-25.044,-75.877,-11.542,-18.148,-21.374,-26.592,-20.889,36.689,4.415,-0.017
1.7552707999998347,-29.557,-20.02,-4.16,6.038,95.296,-48.641,-0.396,-35.072,-22.178,-14.112,-28.705,-29.264,-24.463,-23.893,-42.884,-22.945,-24.125,-7.017,-24.657,-25.531,-79.9,-14.092,-27.864,-26.988,-19.393,-26.503,40.238,-0.2,-3.091
1.770180099999834,-36.188,-20.0,-4.155,11.155,94.176,-42.957,5.752,-28.377,-23.181,-15.122,-31.238,-31.284,-25.976,-22.845,-47.964,-30.607,-23.077,-7.01,-23.608,-28.067,-87.504,-17.664,-26.811,-26.449,-17.837,-29.551,34.05,-2.761,-1.551
1.770246600000064,-42.299,-23.054,-7.225,18.316,94.595,-42.914,0.623,-22.201,-24.182,-20.23,-38.379,-37.912,-27.999,-27.433,-48.941,-32.113,-24.078,-12.126,-29.22,-32.65,-92.028,-20.72,-25.248,-28.984,-29.09,-29.521,28.381,-4.808,-2.574
1.7851857000000564,-56.089,-33.277,-10.292,3.441,84.254,-55.679,-4.501,-34.474,-34.404,-29.944,-51.661,-50.682,-37.705,-35.602,-57.089,-42.84,-33.788,-21.847,-40.974,-42.351,-100.645,-33.507,-39.055,-39.713,-40.844,-37.176,25.791,-17.098,-10.768
1.7852462000000742,-63.718,-38.367,-15.405,-7.833,78.534,-62.283,-6.033,-41.1,-39.493,-37.086,-60.318,-57.804,-43.815,-39.665,-65.741,-55.092,-37.853,-24.899,-47.08,-49.994,-111.303,-45.256,-48.75,-45.309,-39.778,-45.336,9.884,-22.204,-15.881
1.800187299999834,-57.506,-31.669,-16.926,0.371,83.066,-63.758,-10.126,-29.276,-35.355,-37.049,-57.184,-55.697,-37.111,-37.064,-64.138,-50.426,-31.155,-21.801,-46.521,-50.456,-111.191,-44.187,-46.652,-46.801,-38.202,-44.778,7.312,-13.473,-12.791
1.8002516000001378,-57.961,-27.539,-14.348,-2.19,80.934,-63.694,-15.751,-33.345,-38.906,-37.524,-53.541,-53.079,-34.512,-30.367,-59.463,-48.839,-28.05,-19.217,-45.45,-49.893,-108.519,-44.142,-49.679,-52.902,-43.799,-45.246,17.551,-12.947,-13.803
1.8152663999999277,-55.854,-23.925,-11.259,-16.021,84.952,-56.458,-17.785,-48.168,-42.453,-33.901,-47.852,-45.854,-36.015,-22.652,-56.842,-47.253,-24.436,-13.05,-38.232,-44.208,-106.873,-38.463,-45.531,-47.726,-39.657,-42.639,13.435,-11.397,-13.277
1.8153345000000627,-37.867,-10.581,-1.514,-13.955,107.408,-49.229,-11.107,-38.899,-34.726,-22.596,-32.947,-32.488,-25.733,-19.043,-50.125,-28.251,-14.677,-4.84,-25.898,-31.356,-95.495,-18.957,-24.48,-27.698,-27.322,-28.252,15.471,5.52,3.643
1.8303706000001512,-30.145,-4.423,9.758,-2.158,118.059,-49.692,-2.386,-26.564,-31.105,-20.012,-24.717,-26.308,-18.022,-16.975,-43.928,-17.464,-13.126,-4.836,-20.237,-27.226,-87.203,-8.179,-17.284,-17.424,-23.708,-17.465,27.751,13.2,14.91
1.8304361000000426,-36.775,-13.128,4.113,9.627,108.207,-53.741,-4.946,-33.198,-35.685,-26.652,-28.791,-28.331,-24.152,-16.446,-44.396,-22.057,-18.748,-8.929,-19.192,-32.834,-93.776,-12.782,-23.926,-23.042,-24.197,-21.034,24.649,2.94,4.649
1.8456584999998995,-38.275,-19.262,-7.674,14.228,110.148,-56.761,-9.551,-35.726,-35.137,-25.6,-30.812,-27.79,-25.665,-22.065,-46.913,-18.961,-18.729,-9.433,-17.636,-31.265,-94.707,-10.208,-18.267,-26.093,-25.709,-24.599,12.842,-3.21,-7.139
1.8602296999997634,-38.749,-18.731,-9.204,4.992,119.772,-54.655,-8.517,-30.567,-34.077,-23.013,-32.318,-28.275,-24.614,-25.629,-46.354,-16.893,-17.174,-10.96,-21.205,-27.135,-92.563,-7.636,-14.15,-21.968,-26.708,-20.476,-10.225,-1.158,-11.23
1.8602886999997281,-44.858,-22.81,-10.731,0.377,115.042,-52.551,-15.681,-31.561,-39.678,-29.138,-37.921,-36.444,-29.713,-24.578,-48.357,-26.61,-19.718,-14.535,-28.356,-35.305,-104.766,-18.387,-24.895,-22.971,-24.12,-25.066,-42.49,-5.255,-14.805
1.875272799999948,-50.448,-29.96,-19.43,6.012,109.803,-57.11,-23.862,-35.628,-42.2,-32.695,-39.932,-43.067,-31.22,-26.603,-52.407,-34.268,-20.723,-17.082,-33.963,-45.003,-114.395,-25.541,-30.505,-31.657,-28.194,-37.336,-61.403,-16.521,-19.401
1.876940900000136,-55.521,-33.516,-20.435,-0.654,110.206,-62.688,-14.617,-39.691,-37.035,-31.125,-40.917,-43.024,-27.603,-24.015,-54.404,-36.283,-18.653,-16.041,-34.954,-42.909,-112.231,-22.441,-29.962,-38.285,-38.925,-37.811,-50.071,-24.701,-23.48
1.8903282999999647,-55.978,-31.433,-9.656,-7.314,111.12,-61.088,-3.844,-41.188,-35.973,-32.631,-42.925,-38.883,-26.038,-15.282,-54.349,-34.198,-17.61,-12.438,-30.82,-37.743,-111.607,-21.906,-32.494,-36.71,-37.349,-31.114,-51.046,-21.603,-18.846
1.8903916999997818,-49.774,-26.791,-1.449,3.452,119.718,-60.003,-10.5,-33.975,-36.962,-32.599,-37.759,-33.208,-24.987,-17.316,-52.246,-28.528,-14.006,-12.426,-27.203,-36.681,-114.056,-19.323,-30.924,-31.55,-32.701,-31.083,-55.093,-10.823,-8.069
1.9044034999997166,-47.675,-24.715,-6.571,7.035,128.308,-59.943,-17.662,-28.305,-34.363,-28.468,-34.135,-32.663,-23.426,-24.983,-50.657,-27.987,-11.943,-17.537,-26.151,-37.156,-115.479,-11.619,-26.283,-26.396,-38.303,-27.978,-44.792,-7.738,-9.598
1.9044773999999052,-49.677,-27.764,-11.175,-0.145,119.983,-56.297,-15.595,-32.376,-36.378,-29.464,-40.761,-36.216,-26.988,-25.47,-52.655,-31.545,-16.029,-23.154,-26.125,-38.656,-119.975,-12.632,-29.843,-28.419,-38.777,-23.339,-41.673,-14.902,-14.711
1.919359500000155,-46.553,-31.323,-3.992,1.905,107.567,-56.753,-14.555,-40.028,-45.051,-38.656,-43.282,-36.18,-33.621,-28.519,-52.602,-32.026,-22.161,-26.717,-29.685,-41.691,-123.953,-21.329,-34.936,-41.71,-32.591,-31.512,-30.361,-20.011,-10.086
1.9194210000000567,-46.506,-28.73,4.209,8.563,110.021,-61.819,-16.077,-42.549,-46.543,-42.203,-39.652,-36.144,-33.588,-34.126,-50.501,-30.457,-23.163,-25.666,-30.68,-40.625,-123.317,-19.258,-30.29,-41.669,-34.608,-35.067,2.457,-15.38,-5.465
1.9344052000001284,-45.435,-17.943,13.939,15.214,119.133,-59.196,-16.573,-38.408,-41.885,-35.501,-36.027,-32.522,-27.919,-32.042,-50.962,-23.767,-20.579,-21.03,-22.965,-35.461,-121.144,-8.48,-22.063,-22.159,-33.036,-21.2,22.435,-6.143,1.201
1.936255600000095,-36.681,-10.24,32.368,21.859,119.526,-54.013,-20.655,-35.296,-44.405,-32.392,-30.867,-26.341,-27.378,-26.887,-48.862,-20.157,-16.46,-17.422,-21.405,-33.376,-119.999,-5.91,-18.967,-15.477,-21.732,-17.592,11.654,1.548,17.593
1.9494180000001506,-36.644,-13.304,45.143,20.3,111.722,-58.058,-31.393,-40.384,-47.947,-36.97,-32.374,-30.926,-30.937,-24.811,-46.252,-26.284,-11.832,-14.843,-26.507,-37.442,-123.977,-11.028,-19.46,-24.171,-17.1,-27.821,8.569,3.083,26.285
1.9494782000001578,-49.927,-16.364,49.196,16.181,104.438,-64.147,-45.706,-43.417,-45.85,-42.056,-43.612,-39.604,-31.419,-22.225,-53.378,-31.381,-9.771,-14.829,-26.48,-41.503,-132.05,-14.09,-19.441,-24.147,-24.767,-28.818,13.171,-3.58,24.722
1.9644883000000846,-55.513,-16.86,58.369,14.628,98.698,-62.034,-42.587,-39.788,-42.73,-42.014,-47.667,-36.491,-29.85,-21.178,-59.472,-31.862,-12.835,-15.838,-27.478,-41.461,-136.529,-16.638,-24.545,-25.147,-34.476,-27.764,9.059,-10.749,30.845
1.9645520999997643,-53.92,-21.454,68.044,10.003,93.989,-57.361,-11.806,-37.186,-37.052,-37.874,-43.008,-33.38,-26.747,-20.644,-57.876,-33.367,-12.822,-12.236,-29.5,-39.37,-135.88,-17.133,-30.155,-30.757,-40.077,-30.81,7.001,-12.787,37.986
1.9805430999999771,-56.428,-26.043,70.025,8.968,92.358,-56.279,13.309,-32.538,-27.281,-32.713,-43.478,-36.421,-23.134,-19.599,-57.818,-32.309,-7.687,-9.663,-26.909,-36.257,-134.719,-12.506,-26.539,-28.677,-37.476,-30.78,6.994,-16.873,36.411
1.9806091000000379,-54.835,-27.554,74.566,8.447,86.118,-56.223,5.099,-24.309,-23.668,-30.631,-43.946,-35.36,-24.647,-21.629,-58.272,-33.814,-9.216,-19.899,-31.493,-36.221,-135.609,-16.079,-26.513,-33.259,-28.729,-32.798,4.425,-19.417,35.863
1.9944921999999679,-48.12,-24.965,81.664,2.803,78.347,-55.654,-1.566,-22.235,-26.205,-30.6,-39.804,-34.812,-26.16,-27.242,-54.116,-38.903,-19.453,-29.101,-39.658,-41.308,-133.424,-23.748,-39.294,-44.497,-27.676,-34.302,8.519,-13.763,37.876
1.9963582999998835,-45.51,-19.305,83.632,3.313,81.855,-49.963,7.657,-25.287,-30.278,-30.057,-37.203,-38.876,-26.134,-30.801,-49.963,-36.303,-25.581,-30.609,-35.52,-43.316,-127.143,-21.162,-44.378,-42.403,-39.431,-30.169,14.146,-6.577,39.887
2.009601400000065,-37.78,-12.113,89.183,15.605,90.482,-41.204,-0.547,-23.725,-31.272,-26.441,-30.506,-35.251,-26.62,-34.357,-43.765,-29.606,-24.531,-32.627,-27.8,-35.588,-120.868,-13.969,-35.112,-33.652,-42.465,-23.479,16.181,0.602,46.508
2.024594999999863,-17.25,-0.318,101.902,29.934,96.539,-33.991,-17.453,-14.992,-23.044,-17.193,-14.081,-21.895,-19.421,-31.761,-31.939,-18.818,-17.846,-25.935,-19.063,-23.769,-109.989,-2.172,-22.781,-24.396,-25.517,-12.185,25.899,11.872,57.219
2.0246635999997125,-4.425,11.465,106.923,39.638,105.664,-27.297,-6.165,-5.755,-14.312,-7.442,0.278,-7.017,-8.643,-20.458,-21.66,0.156,-7.582,-6.441,-4.699,-14.011,-91.948,15.249,-12.0,-18.224,-15.245,-2.439,38.681,16.984,59.724
2.0395313999997597,-7.494,6.331,96.57,33.963,109.145,-26.245,4.087,-13.947,-21.47,-9.484,-2.284,-2.399,-12.22,-18.389,-21.127,5.279,-3.476,-2.848,-0.596,-11.948,-87.758,17.283,-11.988,-23.329,-25.476,-8.072,34.544,9.282,47.881
2.0395932000001267,-12.61,-1.872,86.227,23.17,101.351,-34.928,-14.36,-28.277,-29.645,-15.622,-10.991,-9.056,-16.819,-25.542,-25.204,-2.923,-6.547,-8.481,-5.206,-15.01,-97.916,9.581,-15.05,-24.33,-32.11,-12.675,21.701,4.662,35.025
2.054537799999707,-15.159,4.79,83.067,29.807,96.639,-38.991,-30.227,-18.515,-21.418,-13.557,-10.98,-11.609,-11.679,-20.394,-26.716,-1.383,-0.905,0.237,-2.64,-14.995,-98.331,15.719,-5.813,-14.06,-24.906,-5.49,17.069,10.293,35.503
2.054595900000095,-28.464,-0.851,71.713,26.191,87.833,-39.977,-30.197,-14.91,-23.959,-19.691,-16.092,-15.696,-17.303,-13.713,-33.349,-8.042,2.682,2.286,-10.834,-20.103,-101.306,9.555,-7.857,-19.169,-28.467,-11.632,12.953,3.11,34.443
2.0702425999998013,-54.563,-28.514,48.075,-6.11,59.568,-60.941,-27.093,-47.171,-48.525,-42.725,-43.741,-38.222,-33.679,-23.946,-54.832,-38.772,-13.714,-17.184,-33.877,-42.625,-121.697,-22.729,-37.563,-43.228,-45.857,-34.674,-2.941,-26.607,12.891
2.070311500000116,-70.39,-44.367,36.757,-28.646,40.041,-80.348,-20.406,-66.591,-57.698,-54.978,-60.603,-55.602,-39.281,-32.631,-67.585,-58.201,-30.094,-29.975,-42.552,-57.439,-131.309,-38.588,-51.87,-55.48,-50.935,-45.398,-18.82,-42.462,-1.466
2.0846237999999175,-62.123,-32.54,47.991,-5.051,51.272,-63.874,-20.897,-34.249,-38.173,-40.066,-45.173,-47.349,-33.606,-29.012,-57.784,-51.996,-24.941,-26.871,-35.337,-46.623,-119.395,-21.131,-34.912,-46.203,-41.15,-36.131,-16.239,-23.464,14.417
2.0846888000000945,-48.228,-18.163,56.652,15.959,57.88,-40.244,-28.561,-14.235,-23.278,-25.682,-31.808,-36.543,-28.45,-31.033,-49.529,-44.771,-17.744,-24.282,-32.74,-38.892,-110.054,-10.864,-23.606,-31.813,-42.646,-27.385,-1.879,-8.584,28.235
2.100017199999911,-47.155,-21.218,45.837,2.623,42.453,-44.815,-18.799,-28.053,-29.915,-33.34,-38.436,-38.556,-28.421,-34.588,-48.455,-45.751,-21.825,-27.844,-34.757,-44.488,-107.895,-20.587,-36.39,-36.392,-49.775,-31.969,3.246,-19.846,17.448
2.100075199999992,-47.108,-31.956,36.057,-7.114,35.239,-55.016,-4.948,-29.05,-39.106,-42.016,-41.472,-42.616,-32.491,-33.016,-43.283,-48.267,-25.389,-31.915,-37.284,-44.444,-106.25,-26.714,-51.211,-55.31,-42.041,-42.183,-2.905,-30.584,7.184
2.11463539999977,-44.5,-30.387,37.558,3.652,39.302,-51.887,-15.189,-19.799,-41.116,-40.95,-40.406,-45.135,-35.02,-37.082,-45.289,-50.78,-27.925,-29.834,-37.246,-41.838,-108.193,-24.638,-50.135,-56.28,-40.974,-43.678,-4.951,-27.48,9.739
2.1146937999997135,-47.017,-25.746,36.496,3.648,34.652,-47.737,-25.932,-26.439,-40.563,-41.933,-43.439,-47.139,-34.473,-41.655,-52.416,-52.266,-33.02,-25.706,-35.672,-45.382,-107.06,-24.101,-42.4,-47.002,-55.79,-37.486,0.69,-25.403,9.217
2.129754000000048,-40.822,-23.671,34.41,-5.577,36.666,-42.054,-14.635,-24.364,-30.276,-34.719,-32.125,-36.846,-29.315,-31.368,-42.118,-41.456,-25.303,-23.118,-30.514,-37.652,-95.682,-15.88,-38.771,-46.955,-52.66,-31.814,6.837,-22.816,10.232
2.1298185999999077,-19.776,-9.815,46.671,13.384,57.634,-28.691,1.261,-2.822,-13.34,-13.68,-7.502,-11.706,-14.429,-13.405,-24.145,-14.774,-4.273,-5.677,-11.015,-17.122,-76.119,4.628,-22.339,-32.051,-30.579,-21.536,18.613,-7.936,25.079
2.1447634999999536,-10.023,3.515,58.407,35.4,70.384,-19.441,4.846,5.377,-9.74,-5.469,2.752,3.675,-2.119,-4.683,-17.973,5.221,5.978,17.383,9.488,-6.347,-62.21,18.456,0.225,-9.478,-22.351,-8.194,26.791,3.855,32.738
2.1448280999998133,-17.697,-6.735,46.566,20.507,56.994,-20.446,-4.893,-6.411,-15.878,-12.636,-6.473,-7.087,-7.24,-7.752,-20.004,-2.981,-1.2,12.242,1.794,-14.537,-69.833,9.728,-6.947,-17.665,-25.915,-8.698,18.567,-5.883,19.386
2.1597381999999925,-23.827,-17.486,30.125,4.093,36.445,-21.451,-10.011,-10.503,-15.35,-14.673,-14.663,-16.814,-15.942,-15.429,-20.497,-17.323,-4.785,-7.238,-15.114,-23.744,-82.571,-1.552,-25.384,-29.943,-27.426,-17.399,10.864,-17.66,9.12
2.1597983000001477,-22.779,-12.346,28.046,17.409,22.576,-17.331,1.27,-1.783,-13.285,-12.609,-14.649,-13.723,-13.365,-17.975,-20.989,-20.38,-3.756,-9.28,-13.562,-22.184,-79.927,0.498,-17.674,-22.228,-33.546,-18.918,18.538,-15.593,11.16
2.1747667999998157,-26.342,-13.358,29.043,22.515,7.184,-12.703,5.879,2.829,-14.809,-17.207,-18.732,-21.906,-16.425,-20.006,-26.091,-29.068,-16.56,-10.295,-15.598,-23.698,-78.822,-2.576,-15.094,-26.817,-40.685,-18.899,21.081,-16.09,7.563
2.1748414999997294,-31.951,-21.029,25.94,7.123,-12.803,-13.202,-2.836,-1.272,-17.868,-23.85,-27.935,-35.717,-27.68,-30.745,-29.651,-43.384,-32.937,-26.166,-30.439,-32.896,-87.965,-17.943,-33.01,-40.11,-41.157,-27.59,14.4,-21.709,3.457
2.1897900999997546,-30.383,-21.008,24.889,4.554,-28.672,-14.726,-0.784,-6.394,-22.461,-26.9,-29.444,-34.656,-31.238,-36.862,-23.473,-43.341,-30.343,-33.312,-30.921,-31.839,-89.414,-21.511,-36.563,-38.533,-40.091,-34.222,19.509,-18.614,8.576
2.2048181000000113,-28.815,-19.963,21.278,13.771,-40.939,-8.563,1.266,-8.437,-24.488,-22.262,-22.242,-31.036,-27.621,-31.702,-15.765,-35.613,-20.579,-28.668,-24.742,-23.098,-85.226,-14.317,-31.404,-40.031,-44.661,-31.626,28.198,-18.083,7.031
2.2048847999999452,-32.885,-25.578,12.548,11.196,-49.095,-3.944,-11.543,-10.478,-23.439,-20.191,-24.269,-34.078,-26.056,-33.719,-18.311,-38.139,-22.095,-36.324,-30.353,-27.173,-92.825,-20.45,-41.618,-50.75,-61.011,-33.132,16.899,-29.848,-3.735
2.2202164000000266,-32.34,-31.188,8.437,-3.16,-51.095,-11.625,-11.019,-14.566,-28.538,-29.392,-30.905,-34.557,-28.079,-38.296,-19.83,-43.224,-23.097,-48.583,-34.933,-34.83,-99.392,-30.676,-52.335,-54.797,-70.683,-40.783,0.489,-36.99,-8.854
2.22027960000014,-23.598,-29.62,13.551,-5.206,-53.093,-12.126,3.337,-18.137,-27.998,-26.801,-24.214,-28.374,-27.539,-31.086,-13.662,-36.008,-13.853,-40.338,-27.214,-27.623,-88.535,-22.961,-47.16,-51.156,-54.219,-37.156,7.66,-28.757,-2.185
2.2348204999998416,-16.915,-22.93,19.173,10.168,-54.064,3.256,-0.253,-13.508,-14.65,-10.893,-10.358,-15.026,-15.728,-22.858,-8.525,-20.603,-2.056,-22.367,-15.916,-15.3,-78.712,-8.593,-37.379,-43.933,-39.82,-25.848,23.022,-17.457,7.039
2.2348808000001554,-17.41,-22.907,14.543,13.744,-46.838,7.863,-13.06,-7.347,-12.586,-11.906,-9.323,-7.326,-7.003,-22.322,-8.005,-15.459,4.606,-16.709,-12.314,-13.236,-86.83,-9.609,-35.292,-43.889,-54.125,-28.384,17.364,-20.513,2.933
2.2498694000000796,-24.053,-30.569,8.381,-1.126,-42.18,-1.366,-6.387,-10.926,-19.233,-23.165,-14.436,-13.467,-13.656,-17.689,-11.583,-21.079,4.602,-18.229,-12.814,-15.784,-95.453,-13.698,-36.794,-48.968,-60.731,-37.577,0.952,-28.178,-5.267
2.2515981999999894,-24.541,-24.903,16.57,5.023,-42.138,4.783,8.988,-10.915,-9.992,-19.044,-11.348,-13.453,-14.667,-11.524,-13.62,-21.058,5.109,-11.039,-5.116,-11.157,-90.747,-3.438,-22.925,-35.087,-38.641,-27.806,1.464,-18.415,6.522
2.2649413999997705,-16.319,-11.046,24.238,25.51,-39.022,19.635,11.541,-2.195,2.825,-10.828,-8.775,-6.78,-5.944,-14.586,-8.484,-15.914,5.616,-3.343,5.135,-6.535,-87.07,7.836,-5.996,-17.121,-28.356,-15.995,8.634,-4.565,20.347
2.265008399999715,-17.84,-13.596,12.943,14.214,-43.082,15.517,8.968,-3.217,-3.325,-14.403,-15.427,-14.458,-9.011,-22.256,-6.426,-24.095,-6.685,-10.512,0.007,-10.627,-92.106,3.217,-11.625,-22.739,-34.988,-22.126,4.527,-8.659,12.13
2.2799064999999246,-23.97,-20.243,10.368,-0.145,-50.211,11.403,21.254,-5.776,-8.445,-19.512,-18.997,-20.079,-12.589,-22.746,-11.03,-32.268,-16.924,-14.6,-2.555,-10.104,-92.014,2.19,-13.663,-22.204,-27.78,-24.154,5.035,-8.138,8.02
2.2799700000000485,-6.527,-3.316,29.825,25.47,-35.304,26.761,32.504,12.673,5.908,-8.734,-4.121,-3.152,-1.818,-11.965,-4.359,-16.866,-10.759,0.784,13.329,2.713,-82.188,16.02,1.208,-2.714,-12.896,-9.785,17.838,12.363,22.868
2.2949413000001186,11.922,14.618,35.943,50.036,-15.288,35.956,20.688,27.517,21.784,6.644,10.227,10.171,5.869,-5.805,9.99,0.569,-7.675,8.98,18.439,7.834,-76.982,19.077,-2.379,-1.175,-6.735,-7.213,20.382,23.621,31.042
2.295005399999809,-2.434,6.919,21.563,36.666,-26.032,26.186,6.835,14.682,13.565,-1.047,2.02,0.939,-1.309,-17.07,6.906,-9.165,-15.352,-4.861,2.539,-3.957,-88.176,4.201,-20.82,-20.641,-12.876,-18.989,7.553,15.401,23.327
2.310024699999758,-14.727,-1.285,12.832,21.772,-40.862,16.426,10.927,-2.751,-2.842,-16.415,-9.253,-9.308,-8.993,-27.3,-5.396,-22.476,-16.361,-11.004,-0.537,-7.539,-101.408,-0.926,-22.336,-30.354,-30.794,-22.556,1.911,8.213,15.107
2.311741500000153,4.243,10.499,14.356,32.509,-24.428,19.996,15.014,-3.26,2.284,-8.202,1.003,-2.639,-3.861,-19.075,0.757,-11.183,-8.66,0.79,11.759,3.227,-95.159,9.834,-15.654,-26.226,-40.497,-15.874,6.007,13.84,15.091
2.3249759999998787,21.145,22.272,21.514,49.895,0.7,28.685,12.438,5.964,13.04,6.151,14.834,10.684,5.877,-9.322,14.076,2.661,-4.553,7.449,16.358,11.933,-85.842,16.996,-14.614,-18.002,-27.649,-9.198,7.026,23.048,22.249
2.3250380999998015,18.562,23.786,30.202,59.066,16.581,30.193,14.475,11.594,9.441,4.096,14.307,14.772,6.896,-7.776,8.939,0.096,-5.573,7.442,14.804,9.359,-91.392,15.954,-12.037,-15.935,-20.961,-9.189,3.945,27.635,25.3
2.3400464999999713,14.957,25.812,27.61,57.983,29.884,20.941,14.46,8.508,6.357,-2.056,10.194,6.56,-1.308,-9.305,-2.341,-6.051,-7.617,5.898,10.691,1.665,-99.497,11.328,-13.05,-20.018,-30.674,-13.278,-5.281,28.632,27.324
2.340121299999737,9.819,21.688,17.848,47.166,31.391,12.211,7.273,-0.209,5.326,-7.689,1.987,-4.205,-7.454,-14.931,-4.9,-13.73,-9.658,-4.354,1.971,-2.947,-106.058,3.632,-20.209,-25.121,-32.693,-15.826,-18.083,28.092,32.42
2.3553876000000855,2.125,10.907,10.146,37.897,28.286,9.637,5.217,-4.308,0.198,-13.829,-9.798,-8.299,-9.496,-23.113,-8.481,-22.425,-12.21,-8.961,0.945,-0.895,-113.636,2.091,-19.164,-25.608,-26.512,-14.274,-23.188,21.916,29.314
2.3554493000001457,6.734,12.433,5.013,38.372,44.139,4.505,15.97,0.82,4.809,-11.254,-6.202,-3.68,-6.925,-20.529,-8.473,-15.231,-9.636,1.294,12.214,4.229,-108.4,13.872,-2.239,-12.775,-18.801,-6.062,-19.066,20.869,23.649
2.370000099999743,13.387,19.081,6.032,38.333,65.612,2.451,21.589,9.016,13.001,-5.095,6.612,4.52,0.254,-10.262,0.245,0.666,0.107,7.953,19.374,8.835,-98.557,27.178,10.059,3.12,-8.536,3.677,-21.609,30.582,26.699
2.3718638999998802,6.713,12.402,6.539,34.197,71.182,6.035,10.297,12.593,12.475,-5.09,7.118,8.102,5.889,-5.129,-2.829,2.715,2.669,6.408,16.794,8.827,-104.607,24.59,4.413,-6.105,-6.991,-2.474,-34.907,29.015,23.086
2.3853119000000333,-2.002,-1.443,-5.251,31.089,66.5,3.467,0.553,11.043,11.438,-6.11,-0.062,7.069,3.322,-8.71,-15.122,-3.948,-6.043,5.377,10.117,3.182,-114.236,14.319,-5.325,-24.542,-14.156,-15.791,-46.143,10.543,6.669
2.385380499999883,-10.197,-12.712,-14.98,22.348,56.699,-6.783,11.823,4.372,4.254,-12.763,-8.259,1.427,-4.366,-15.873,-15.107,-10.604,-8.599,-0.264,4.984,-1.432,-119.245,10.718,-7.369,-20.419,-14.654,-15.776,-50.708,-1.763,-1.534
2.4001570999998876,-19.921,-16.798,-12.915,12.592,48.446,-12.411,20.008,-7.415,-9.582,-21.972,-17.984,-7.284,-10.509,-15.345,-14.067,-15.717,-0.393,-1.8,6.516,-0.406,-124.761,14.294,-3.776,-14.251,-12.078,-13.198,-50.145,-2.274,-3.582
2.4150500000000648,-17.852,-11.658,-11.878,19.24,56.594,-10.35,7.181,-8.432,-7.523,-21.438,-13.868,-6.252,-7.425,-6.621,-17.639,-11.602,4.73,11.009,11.632,1.644,-122.075,17.866,-0.186,-19.36,-11.554,-14.722,-48.045,0.802,-2.554
2.41512049999983,-9.637,-7.036,-10.329,28.954,68.833,-6.241,-4.097,-0.227,0.169,-15.269,-2.583,2.976,-1.782,-4.052,-13.011,-8.005,2.164,19.195,12.645,2.667,-116.829,16.823,-0.698,-15.754,-6.419,-9.584,-50.559,7.974,8.207
2.4301046000000497,-8.091,-9.59,-0.585,22.778,65.178,-5.21,0.517,-2.276,-5.979,-14.741,-5.654,3.998,-5.367,-7.634,-10.948,-14.144,-1.424,13.54,10.071,3.177,-121.836,13.733,-2.234,-10.103,-1.289,-5.988,-58.193,14.626,15.884
2.430161599999792,-6.033,-8.044,6.076,22.242,64.088,-7.254,5.128,-7.909,-5.973,-15.239,-8.723,1.432,-7.923,-9.164,-15.548,-14.642,-1.423,9.428,7.499,-1.437,-125.3,13.719,1.354,-12.655,-0.263,-10.593,-60.696,14.099,15.868
2.445151099999748,-6.027,-5.474,-3.664,27.856,72.221,-7.247,0.0,-4.827,-2.381,-17.273,-6.152,-2.668,-5.353,-15.302,-16.557,-14.628,-4.495,4.296,4.418,-7.071,-129.273,9.094,-4.795,-17.253,-4.874,-15.193,-62.685,7.937,12.266
2.4452126000001044,-15.243,-15.715,-21.591,18.094,67.538,-9.289,-6.148,-7.896,-14.674,-24.428,-13.319,-13.936,-10.983,-25.021,-20.639,-29.47,-17.299,-8.516,-3.271,-11.163,-140.927,-3.722,-21.184,-27.994,-18.701,-19.789,-71.331,-1.805,-4.14
2.4602027000000817,-17.277,-23.896,-29.254,7.317,58.761,-14.915,-4.605,-14.036,-18.758,-27.477,-22.014,-19.557,-16.608,-25.508,-24.717,-36.101,-23.429,-14.143,-10.952,-15.25,-143.348,-6.793,-23.724,-34.114,-26.88,-23.355,-79.969,-8.463,-20.53
2.460266799999772,-7.526,-16.7,-26.663,14.995,66.899,-12.338,-6.65,-5.825,-6.444,-22.839,-15.845,-10.316,-11.468,-20.36,-19.057,-26.331,-14.184,-8.493,-7.868,-11.648,-133.983,3.973,-12.429,-21.272,-13.02,-19.234,-79.889,-2.819,-14.362
2.4762308999997913,2.216,-7.974,-23.563,27.787,78.616,-2.08,-14.328,3.402,-1.314,-15.644,-3.533,-2.109,-4.797,-17.778,-13.402,-17.595,-5.461,-3.874,3.411,-0.366,-125.139,12.678,-2.683,-8.443,1.849,-11.017,-67.002,8.455,-1.54
2.476290600000084,9.386,-6.941,-16.367,32.37,79.049,0.996,-6.629,3.911,3.298,-8.968,6.204,4.041,0.844,-15.711,-8.266,-9.893,-2.894,-1.821,10.068,6.807,-120.404,15.739,3.979,-8.947,3.385,-5.883,-53.615,11.008,0.511
2.490238899999895,4.253,-13.082,-13.789,22.604,74.359,-5.153,12.333,4.42,6.369,-9.472,4.661,7.623,1.867,-15.183,-4.672,-7.834,-4.428,-1.307,5.447,4.238,-124.894,13.674,-0.635,-15.085,2.357,-9.976,-70.467,3.824,-4.1
2.4903064999998605,-7.534,-20.241,-22.485,6.188,69.162,-11.295,13.858,1.341,-5.933,-16.122,-6.615,-0.069,-5.819,-16.192,-13.888,-17.047,-11.083,-4.892,-0.706,-0.377,-133.478,4.439,-11.393,-20.193,0.305,-16.114,-102.672,-0.278,-10.244
2.505229699999745,-2.403,-14.586,-23.487,11.305,73.704,-5.648,2.573,-3.271,-9.513,-16.106,-3.022,-2.119,-5.813,-15.151,-13.875,-16.006,-7.486,-3.862,1.344,1.673,-130.783,3.922,-7.796,-16.587,-3.282,-11.999,-132.283,8.944,-6.135
2.5053004999999757,8.358,-3.3,-11.68,27.687,82.339,4.091,1.034,2.368,2.279,-8.405,8.764,6.08,2.389,-12.575,2.533,-6.768,5.841,1.777,8.514,6.282,-123.992,13.652,3.483,-5.3,5.431,-3.79,-127.028,19.181,9.24
2.5203616999997394,5.788,-1.248,-7.058,29.196,75.597,5.112,4.107,8.001,-0.797,-6.348,6.194,5.05,-1.199,-14.099,1.506,-12.909,1.737,-0.786,11.068,6.276,-123.356,15.688,7.066,1.878,20.283,-0.2,-117.167,19.674,13.842
2.5204570999999305,6.806,0.291,-8.075,30.704,70.91,2.545,0.004,2.87,-9.505,-12.489,2.602,0.946,-7.346,-16.646,-10.279,-18.019,-7.998,-6.421,8.495,5.245,-120.671,16.184,8.083,3.925,23.848,2.362,-124.222,22.216,11.266
2.5352837000000363,12.947,7.975,-7.043,36.309,79.549,5.616,-4.607,-1.232,-6.934,-11.964,6.185,4.531,-2.727,-14.58,-4.121,-9.804,-3.892,-0.779,7.974,8.313,-120.038,18.73,7.563,0.847,21.263,2.359,-133.832,25.268,15.354
2.5353448000000753,18.058,12.578,-9.085,32.174,82.543,6.123,-3.065,0.819,-4.878,-6.317,7.204,8.113,1.374,-10.467,5.617,-5.184,0.21,7.419,16.163,14.453,-117.357,19.736,9.092,0.847,23.803,3.381,-128.063,26.779,17.9
2.550264999999854,25.212,17.176,-6.002,33.166,81.436,8.678,0.012,3.892,-2.312,-4.261,11.807,14.253,3.422,-8.408,6.636,1.481,3.284,8.948,25.368,21.098,-106.993,26.888,17.792,14.166,30.439,14.137,-108.467,35.974,20.443
2.5503233999997974,22.625,17.671,-3.947,35.695,80.842,10.207,-2.55,3.376,1.789,-7.843,12.308,17.312,3.418,-7.375,7.142,8.14,9.428,7.915,20.22,20.053,-108.935,27.374,13.164,14.152,26.311,12.585,-86.842,36.45,19.398
2.5654537999998865,9.282,4.333,-15.726,22.339,63.855,0.975,-9.72,0.299,-3.336,-14.495,1.025,5.0,-2.221,-8.392,3.549,-5.188,5.321,3.808,7.392,7.737,-122.659,10.44,-3.756,-12.503,7.329,-5.87,-70.873,16.946,4.522
2.5655198999997992,6.199,-6.942,-23.395,16.681,51.496,-1.588,-5.611,1.835,-5.382,-16.53,0.511,0.384,-2.218,-7.359,-1.066,-18.503,-1.345,-0.294,1.237,0.557,-125.61,0.696,-8.875,-25.298,-6.511,-12.012,-66.704,5.146,-8.29
2.579298799999833,3.119,-8.984,-25.933,20.251,55.543,6.099,6.69,2.346,-1.79,-11.903,3.072,1.92,0.858,-8.889,-3.626,-19.509,-2.368,-3.88,-6.961,-1.493,-129.583,-3.916,-18.088,-25.785,-10.09,-14.049,-74.322,-1.007,-14.942
2.594786099999965,-10.716,-21.783,-43.325,7.423,43.192,-1.592,1.56,-5.341,-5.887,-12.915,-11.275,-9.865,-6.315,-17.589,-10.282,-31.785,-10.05,-13.098,-17.713,-8.663,-143.798,-20.818,-36.0,-44.714,-20.839,-31.454,-81.42,-22.01,-35.419
2.5948482999997395,-11.73,-29.958,-48.917,-0.269,28.804,-6.201,-9.713,0.299,-2.807,-16.489,-14.338,-12.416,-6.309,-19.62,-11.809,-37.901,-11.065,-18.208,-12.572,-6.093,-142.117,-20.285,-27.255,-52.354,-26.453,-31.934,-77.752,-29.161,-44.605
2.6093944999997802,0.577,-16.608,-31.962,13.563,39.534,10.711,4.129,14.644,7.954,-9.3,3.095,2.965,4.968,-10.379,-1.039,-19.42,-0.295,-10.505,1.273,7.745,-127.118,0.74,-5.711,-29.248,-9.008,-12.947,-69.99,-11.201,-27.142
2.6094545000000835,4.163,-8.907,-29.369,19.185,42.568,14.799,22.056,11.043,4.872,-5.704,6.678,3.987,0.864,-11.394,6.135,-10.691,-4.393,-8.445,4.346,9.787,-122.893,4.325,-2.631,-14.874,6.882,-6.787,-64.797,-1.968,-16.869
2.624368499999946,5.183,-11.459,-32.413,16.604,34.329,4.538,17.423,7.446,1.794,-11.846,1.036,-1.14,-6.821,-21.116,6.128,-20.415,-13.098,-16.634,1.267,5.166,-121.745,-0.29,-5.19,-15.884,7.9,-6.267,-63.195,0.596,-11.729
2.6260896999997385,6.202,-8.886,-21.622,21.711,37.368,8.119,6.135,15.635,4.866,-9.785,3.596,-1.651,-2.203,-21.095,6.122,-24.493,-11.036,-18.154,-2.832,4.136,-123.16,1.248,-7.234,-17.405,7.38,-4.212,-64.669,5.206,-0.447
2.639488700000129,-3.025,-17.587,-26.724,17.078,26.06,6.062,-0.531,5.886,-6.922,-13.362,-2.555,-11.896,-7.837,-20.561,-1.568,-31.128,-18.197,-18.648,-12.563,-2.528,-135.845,-12.586,-21.572,-30.708,-3.898,-18.552,-67.678,-9.144,-12.741
2.6395496000000094,-11.219,-31.401,-42.066,3.741,8.103,-6.752,-2.067,-8.977,-16.649,-27.181,-11.262,-15.47,-15.513,-22.59,-7.202,-36.22,-21.253,-23.752,-14.6,-5.087,-139.807,-22.307,-27.185,-43.485,-16.702,-28.268,-70.172,-24.504,-32.196
2.6560473999998067,-5.06,-22.149,-32.29,8.348,18.341,-1.622,2.033,-2.82,-5.362,-19.981,-4.59,-1.11,-5.252,-18.981,1.002,-21.839,-4.838,-16.556,-3.315,6.701,-129.421,-8.453,-18.449,-34.732,-7.464,-16.456,-70.102,-13.209,-19.869
2.6561157999999523,-2.494,-12.905,-23.037,12.439,25.495,6.577,-4.629,-0.256,-1.258,-9.203,-0.487,3.502,-0.636,-16.401,4.587,-14.133,-2.271,-5.269,-1.262,8.744,-129.292,-5.883,-14.844,-30.086,-3.358,-12.854,-72.593,-4.486,-10.627
2.669478700000127,-14.787,-26.724,-38.895,-2.943,14.199,-4.701,-25.629,-5.891,-14.064,-22.001,-11.245,-7.26,-11.394,-19.971,-6.176,-27.951,-15.589,-10.899,-11.507,-4.585,-143.507,-22.783,-19.953,-44.913,-22.822,-27.185,-82.254,-19.339,-28.035
2.6695448999998916,-25.53,-35.407,-44.492,-11.137,15.722,-12.381,-29.702,-3.324,-17.636,-30.688,-20.968,-14.425,-17.017,-22.0,-13.342,-37.657,-14.037,-19.597,-17.643,-12.265,-154.635,-34.031,-30.691,-52.041,-27.923,-36.38,-88.32,-28.029,-33.643
2.684499599999981,-22.431,-29.224,-28.566,-1.904,21.341,-8.27,-11.741,-5.882,-11.983,-23.485,-19.922,-17.997,-15.976,-24.027,-14.353,-40.693,-11.461,-20.09,-23.261,-14.814,-158.578,-39.632,-41.931,-50.964,-18.673,-36.856,-81.571,-22.365,-21.826
2.6863696000000346,-18.31,-28.17,-20.34,2.196,14.66,-7.749,0.054,-12.024,-13.508,-26.023,-17.341,-20.54,-16.985,-26.052,-16.388,-47.825,-20.671,-27.755,-32.459,-16.849,-159.957,-43.179,-40.865,-55.011,-24.29,-36.307,-74.317,-19.781,-15.656
2.6995711999998093,-22.902,-30.191,-24.931,0.144,14.133,-7.229,-2.508,-6.376,-17.593,-32.145,-22.959,-25.643,-20.554,-28.076,-15.86,-51.363,-25.774,-37.461,-37.038,-19.393,-163.383,-44.673,-39.799,-59.055,-34.0,-36.783,-80.903,-24.372,-18.715
2.6996369999997114,-30.564,-32.722,-37.713,-2.417,14.119,-9.271,-11.727,-8.932,-21.674,-34.162,-32.67,-35.863,-26.681,-34.707,-19.43,-58.484,-25.235,-36.399,-42.124,-28.595,-173.978,-52.825,-52.567,-62.582,-35.502,-42.381,-90.044,-34.594,-31.504
2.7145824999997785,-34.12,-42.936,-52.02,-12.661,4.371,-19.508,-21.449,-24.292,-28.825,-41.3,-35.199,-39.414,-30.24,-36.722,-26.583,-66.11,-24.186,-33.801,-45.155,-33.69,-181.489,-56.358,-56.101,-64.569,-37.004,-46.437,-89.441,-41.22,-41.718
2.714642299999923,-31.012,-45.454,-48.894,-19.821,4.879,-22.562,-19.379,-23.755,-29.821,-41.771,-30.553,-32.714,-25.087,-28.488,-24.507,-55.285,-18.526,-31.205,-32.302,-21.873,-173.11,-44.006,-42.725,-55.795,-34.405,-39.731,-86.278,-33.494,-33.992
2.7299497999997584,-22.784,-33.626,-37.062,-9.042,22.805,-15.367,-8.088,-7.338,-19.032,-29.434,-22.325,-24.997,-16.353,-21.288,-15.261,-35.762,-12.36,-21.44,-17.413,-10.068,-162.179,-31.155,-33.46,-47.03,-29.76,-28.933,-84.655,-22.702,-26.786
2.730014299999766,-18.663,-25.395,-41.124,-0.324,36.102,-13.815,-7.568,-0.67,-12.866,-25.306,-16.668,-19.849,-11.213,-20.242,-12.684,-31.116,-10.811,-15.271,-15.347,-10.57,-166.115,-29.587,-32.402,-48.52,-33.829,-26.342,-80.472,-20.118,-30.857
2.744583700000021,-18.644,-27.931,-46.206,-7.496,35.041,-18.924,-18.831,-10.403,-20.025,-30.404,-19.725,-20.341,-13.764,-22.783,-14.208,-34.159,-12.849,-19.354,-14.307,-9.023,-173.121,-31.606,-29.296,-46.422,-33.283,-30.414,-75.781,-19.585,-28.265
2.7462728999998944,-13.502,-24.83,-35.401,-6.464,34.494,-18.905,-22.911,-15.516,-21.03,-26.788,-19.705,-22.883,-17.336,-23.272,-11.12,-29.001,-11.812,-17.286,-7.12,-3.379,-166.288,-24.915,-20.557,-37.666,-21.466,-27.31,-71.606,-15.979,-21.064
2.759621299999708,-6.829,-15.071,-27.681,9.424,43.681,-13.763,-19.302,-5.767,-12.812,-19.076,-7.39,-13.126,-13.22,-18.126,-7.011,-19.751,-3.603,-10.096,-4.551,-1.838,-157.925,-13.619,-12.852,-30.969,-15.297,-14.475,-63.85,-11.865,-19.506
2.7746549999997114,-8.359,-16.08,-32.264,9.927,47.223,-13.237,-18.77,-5.761,-13.311,-21.619,-6.358,-7.99,-13.207,-16.059,-9.053,-18.707,3.061,-14.697,-6.596,-2.349,-161.353,-12.581,-14.889,-28.888,-19.38,-11.387,-62.762,-12.365,-19.999
2.7747196999998778,-12.961,-23.749,-33.256,-3.403,42.053,-16.81,-21.825,-18.051,-19.446,-27.745,-15.573,-16.179,-18.317,-18.604,-11.093,-23.811,2.545,-18.268,-6.589,-3.883,-165.802,-19.74,-21.021,-28.347,-18.849,-19.06,-68.334,-14.915,-18.442
2.7896255999999084,-11.411,-19.114,-28.1,-0.326,45.085,-13.207,-21.291,-9.836,-13.278,-21.569,-10.434,-14.113,-11.638,-17.049,-6.471,-24.299,4.08,-9.541,-4.534,-5.929,-165.637,-17.159,-17.927,-23.196,-8.071,-15.455,-64.68,-11.826,-14.325
2.789687999999842,-7.814,-12.435,-26.023,9.921,47.089,-6.022,-16.147,3.494,-6.093,-13.351,-3.252,-4.877,-4.967,-13.958,-6.465,-22.738,5.1,-6.458,-1.455,-4.386,-164.959,-13.044,-10.736,-18.049,-3.453,-7.755,-55.906,-8.74,-10.725
2.8046423999999206,-8.318,-17.546,-30.608,5.3,38.845,-8.065,-12.544,-6.243,-6.599,-14.874,-6.835,-8.459,-10.085,-18.042,-9.02,-22.203,2.021,-11.574,-1.966,-1.308,-166.843,-15.08,-10.726,-23.155,-10.109,-12.358,-57.387,-12.83,-16.349
2.8046982999999273,-8.822,-22.651,-38.262,0.684,42.392,-11.643,-14.069,-8.286,-6.592,-18.446,-6.828,-8.963,-9.05,-18.024,-4.4,-17.058,2.532,-6.952,-5.038,-2.843,-167.188,-15.065,-11.227,-24.668,-12.148,-14.907,-59.379,-14.866,-24.018
2.8198490999998285,-9.326,-20.067,-37.199,5.294,54.133,-9.07,-15.592,3.505,-7.098,-18.939,-3.747,-0.757,-4.43,-10.322,-2.859,-12.43,8.165,-0.797,-3.496,-2.84,-165.484,-11.463,-6.093,-15.934,-4.964,-8.232,-56.246,-11.265,-21.432
2.8199162000000797,-8.804,-17.998,-25.891,4.264,55.103,-10.598,-9.941,-0.084,-9.14,-20.457,-4.768,0.269,-6.475,-8.774,-7.467,-9.856,10.206,-2.333,1.631,3.31,-162.245,-7.866,-1.988,-12.845,-3.422,-4.638,-57.726,-7.155,-15.263
2.8347819000000527,-7.771,-15.931,-22.791,-0.351,54.536,-12.124,-1.222,-2.134,-5.545,-18.388,-2.714,-1.781,-4.932,-14.913,-4.898,-5.748,8.146,-4.38,1.629,3.819,-160.546,-6.321,-3.011,-13.856,-6.492,-4.633,-61.255,-4.074,-15.248
2.834847699999955,-12.886,-18.476,-33.527,1.699,53.457,-8.014,-5.831,8.627,-5.539,-19.394,-6.81,-5.878,-6.976,-20.021,-5.917,-13.427,3.527,-10.011,-7.594,-5.406,-167.558,-13.487,-12.229,-14.867,-7.51,-8.214,-61.706,-7.657,-18.819
2.850184200000058,-21.07,-23.581,-36.055,3.234,46.231,-12.104,-19.658,5.032,-10.657,-25.01,-13.975,-17.142,-19.265,-22.051,-15.133,-26.221,-2.112,-17.686,-15.271,-10.012,-174.05,-21.158,-19.902,-23.049,-11.089,-15.379,-62.669,-15.334,-17.775
2.8502426999998534,-18.487,-17.922,-23.211,4.768,47.722,-17.215,-13.49,-2.145,-11.671,-22.423,-11.4,-17.638,-17.196,-23.053,-14.093,-20.559,-2.622,-16.643,-12.694,-8.465,-166.704,-19.6,-18.345,-24.563,-13.639,-14.339,-59.02,-11.22,-7.511
2.864752999999837,-13.346,-8.17,-11.917,11.935,56.383,-9.001,1.893,4.517,-10.635,-16.766,-8.827,-10.96,-11.543,-28.153,-9.981,-17.465,-4.156,-19.188,-9.608,-12.042,-159.365,-19.58,-17.814,-18.391,-11.577,-12.275,-55.375,-4.036,-0.844
2.864813199999844,-17.943,-12.261,-10.88,15.509,53.253,-7.455,-7.331,10.148,-9.599,-20.335,-13.429,-15.56,-18.704,-31.199,-15.094,-29.743,-12.861,-24.805,-13.697,-15.104,-163.816,-23.659,-23.944,-25.545,-15.663,-19.435,-59.418,-7.618,-5.454
2.8798385000000053,-22.024,-16.859,-11.894,10.883,42.954,-19.743,-18.594,6.039,-11.127,-25.95,-15.977,-19.643,-19.71,-27.582,-16.103,-29.713,-14.385,-21.194,-15.22,-14.064,-163.652,-23.123,-23.92,-33.204,-26.406,-19.928,-59.871,-11.709,-6.473
2.87990469999977,-20.977,-15.305,-15.468,9.848,36.251,-23.309,-8.33,-2.164,-22.899,-28.998,-18.01,-17.061,-17.641,-26.529,-10.964,-24.56,-9.76,-20.66,-13.668,-16.1,-156.316,-24.637,-22.359,-29.584,-28.429,-15.809,-55.2,-13.234,-6.979
2.89484450000009,-18.395,-17.339,-20.064,13.936,32.116,-10.478,-10.883,-5.235,-20.827,-25.895,-12.869,-16.532,-18.648,-28.552,-9.929,-31.196,-11.8,-25.763,-18.777,-16.596,-152.574,-26.662,-26.948,-29.043,-24.815,-20.404,-53.096,-15.27,-13.119
2.894906799999717,-12.741,-16.297,-14.921,15.459,30.035,0.803,-23.68,5.528,-0.313,-12.037,-2.098,-13.954,-7.359,-21.864,-7.869,-25.017,-9.739,-22.151,-19.783,-10.944,-145.761,-24.586,-25.384,-26.964,-25.302,-19.872,-48.432,-9.62,-9.008
2.9099068000000443,-14.265,-18.842,-11.832,8.784,20.271,-6.37,-7.262,11.67,-4.412,-13.05,-8.243,-11.379,-3.765,-18.256,-6.837,-15.77,-1.02,-19.567,-16.177,-10.933,-140.492,-23.537,-21.772,-23.863,-27.838,-16.266,-47.871,-9.098,-6.437
2.9099765999999363,-25.522,-31.631,-24.628,-0.959,8.98,-18.659,4.528,1.925,-25.412,-30.455,-20.018,-17.003,-18.106,-23.873,-11.953,-24.976,-2.555,-26.72,-19.747,-16.045,-141.889,-26.075,-28.411,-29.475,-27.298,-22.397,-58.069,-24.458,-21.8
2.924857200000133,-23.447,-31.087,-30.751,3.141,15.118,-13.517,-16.481,-0.638,-19.751,-26.838,-12.313,-17.498,-17.063,-20.775,-13.478,-25.976,-6.651,-24.644,-19.215,-13.467,-133.55,-23.999,-28.382,-25.859,-19.586,-21.35,-59.036,-27.507,-23.828
2.9249212999998235,-13.177,-18.249,-18.937,10.31,20.226,-6.332,-21.587,5.51,-10.51,-16.053,-7.69,-12.357,-7.825,-16.656,-10.391,-13.142,-1.522,-17.447,-9.462,-8.331,-122.658,-17.315,-15.034,-12.513,-9.833,-10.57,-46.681,-14.16,-7.41
2.9398895999997876,-18.799,-22.329,-12.77,0.053,5.349,-14.01,-6.197,-2.693,-22.795,-25.771,-16.392,-14.394,-16.526,-25.348,-9.868,-17.227,-0.496,-19.991,-7.403,-10.884,-121.511,-13.2,-11.945,-13.013,-8.798,-10.047,-43.561,-14.658,-4.841
2.9548860999998396,-25.441,-27.43,-14.807,-7.631,-3.365,-17.07,-14.9,-11.399,-24.309,-31.38,-17.912,-18.991,-20.608,-29.934,-12.42,-23.87,-6.13,-20.995,-8.933,-11.385,-117.803,-12.162,-14.495,-16.586,-10.839,-12.087,-51.202,-21.816,-6.373
2.9549489000000904,-19.78,-17.668,-10.181,5.184,6.884,-9.88,-27.18,-2.678,-13.526,-23.664,-15.333,-19.996,-11.366,-23.244,-14.457,-18.723,-6.124,-16.364,-7.387,-6.251,-114.099,-11.125,-8.845,-9.91,-6.217,-9.513,-55.761,-13.085,1.318
2.9709493999998813,-21.297,-15.601,-7.097,10.814,12.513,-12.432,-17.931,2.96,-17.099,-24.665,-19.928,-21.001,-14.428,-22.708,-16.491,-21.778,-7.143,-18.909,-13.015,-11.368,-115.01,-10.602,-9.348,-9.9,-5.699,-11.04,-57.243,-9.485,0.292
2.971014799999921,-26.399,-20.709,-11.701,1.582,5.84,-19.592,-16.377,-1.142,-25.791,-30.276,-21.958,-24.054,-22.099,-27.296,-17.499,-30.466,-11.746,-25.55,-18.125,-21.603,-109.259,-12.64,-17.023,-13.476,-7.23,-13.079,-52.062,-18.185,-6.881
2.984969000000092,-18.688,-14.54,-11.177,2.605,-0.313,-17.011,-16.873,3.47,-21.154,-29.221,-18.35,-21.98,-15.929,-22.658,-14.408,-26.337,-8.661,-22.963,-12.472,-14.921,-99.928,-11.603,-13.42,-7.827,-1.587,-8.967,-42.276,-13.044,-4.824
2.985041200000069,-10.984,-8.378,-9.116,12.336,0.199,-10.334,-6.097,12.176,-12.424,-23.557,-12.184,-13.249,-7.204,-19.049,-5.685,-13.503,-3.017,-16.28,-7.336,-3.123,-94.193,-3.907,-6.235,-5.258,0.976,-4.86,-37.111,-2.272,-3.795
2.999935800000003,-14.56,-11.956,-15.767,11.811,-5.436,-6.737,-13.263,10.114,-9.337,-18.41,-8.585,-7.6,-8.733,-21.592,-1.58,-7.854,-5.575,-16.776,-8.353,-4.145,-84.877,-4.415,-10.327,-11.4,-5.173,-5.879,-35.537,-10.467,-8.914
3.001636899999994,-21.717,-20.141,-23.948,0.529,-20.8,-11.854,-31.693,1.395,-14.451,-25.564,-13.7,-14.765,-13.335,-23.107,-8.239,-17.068,-12.23,-24.444,-13.468,-11.313,-86.329,-13.632,-20.05,-18.561,-9.266,-15.607,-35.501,-22.752,-14.028
3.0150462999999945,-29.38,-28.83,-24.949,-7.156,-28.976,-20.551,-22.952,-3.729,-21.609,-36.809,-20.858,-22.435,-14.347,-24.621,-16.94,-26.784,-15.291,-28.518,-18.578,-14.375,-96.489,-18.742,-26.69,-24.69,-10.794,-24.301,-39.052,-23.754,-14.527
3.0151104000001396,-31.912,-25.215,-19.801,-3.563,-23.312,-18.993,-9.609,-5.263,-23.124,-31.649,-19.813,-22.925,-17.919,-28.695,-18.972,-22.147,-9.641,-22.854,-18.047,-13.336,-90.245,-18.211,-23.59,-24.666,-10.271,-19.666,-42.599,-19.632,-5.291
3.0300250000000233,-29.831,-19.042,-14.658,3.101,-18.678,-15.901,-20.358,-8.843,-22.589,-29.568,-21.842,-26.488,-23.024,-31.74,-19.978,-24.686,-5.02,-20.27,-17.516,-16.909,-83.495,-21.266,-20.492,-23.616,-9.748,-18.622,-45.63,-18.075,1.375
3.030093399999714,-36.461,-28.245,-16.693,-0.489,-24.294,-26.643,-28.535,-14.47,-30.251,-44.396,-32.579,-37.732,-27.099,-35.294,-26.105,-42.592,-13.724,-28.958,-29.794,-27.651,-92.121,-32.003,-32.767,-33.327,-16.398,-31.411,-49.683,-25.229,-6.311
3.0450418000000354,-42.573,-34.364,-21.287,-6.636,-26.319,-32.764,-17.235,-12.919,-35.344,-47.425,-35.62,-40.256,-30.146,-35.259,-30.69,-43.062,-21.908,-32.003,-37.449,-31.721,-89.979,-38.119,-41.956,-38.929,-14.845,-32.404,-48.097,-32.376,-10.404
3.045118199999706,-30.747,-23.571,-13.581,1.055,-12.973,-21.461,-9.021,-3.684,-25.062,-33.033,-23.801,-27.921,-25.505,-26.515,-23.487,-27.137,-12.664,-22.75,-29.727,-21.956,-76.569,-27.323,-32.18,-27.619,0.539,-19.051,-40.876,-25.684,-4.758
3.0605482999999367,-23.544,-22.011,-4.346,11.813,-0.665,-17.341,-13.111,0.418,-16.84,-27.877,-17.118,-21.233,-17.283,-24.439,-15.779,-23.012,-3.43,-25.289,-28.673,-18.86,-78.542,-19.098,-31.123,-22.981,-0.486,-19.545,-39.298,-22.584,-8.339
3.062376800000038,-30.693,-32.235,-12.026,5.141,-4.762,-25.52,-13.61,0.93,-19.897,-31.435,-21.711,-24.798,-16.241,-30.562,-20.374,-25.55,-6.5,-39.096,-34.792,-24.477,-78.976,-26.764,-40.314,-32.692,-17.904,-26.697,-40.796,-31.783,-13.454
3.0750656999998682,-26.564,-29.129,-15.088,1.55,-4.758,-23.958,-4.375,5.54,-15.779,-26.281,-16.054,-19.65,-12.638,-24.896,-21.378,-16.816,-3.932,-39.057,-26.56,-18.304,-60.966,-24.688,-32.589,-31.122,-15.325,-18.986,-37.169,-25.604,-6.268
3.075129400000151,-19.365,-18.854,-6.876,13.331,5.493,-14.2,-3.858,6.046,-8.079,-20.107,-5.792,-7.847,-4.429,-17.187,-12.648,-7.065,3.244,-29.284,-13.726,-7.528,-49.634,-10.319,-22.822,-22.382,-6.088,-13.332,-33.546,-14.307,-3.188
3.0901129999997465,-28.567,-25.495,-16.091,8.707,3.951,-15.211,-13.588,2.454,-13.706,-23.16,-11.934,-10.401,-8.523,-21.78,-16.733,-10.132,3.241,-27.205,-12.687,-9.057,-54.708,-10.308,-25.361,-22.871,-12.229,-18.954,-34.537,-24.027,-13.431
3.0901757000001453,-32.637,-33.666,-26.833,-9.232,-2.201,-20.831,-10.501,2.964,-17.278,-28.773,-20.119,-17.563,-12.1,-19.197,-24.401,-12.171,4.262,-20.006,-6.015,-12.634,-57.727,-13.372,-18.163,-22.849,-5.557,-17.398,-36.039,-30.663,-13.93
3.1054550999997446,-25.432,-26.46,-16.048,-12.297,3.437,-17.224,0.268,2.449,-9.576,-25.158,-12.926,-13.447,-4.404,-8.419,-17.205,-5.499,13.992,-4.616,6.287,-6.474,-52.546,-1.575,-6.362,-16.166,15.965,-10.721,-36.516,-20.386,-5.207
3.1055160999999316,-27.968,-21.311,-14.495,-22.531,3.433,-10.034,-4.343,-6.263,-12.128,-22.059,-8.815,-11.896,-8.498,-15.583,-15.65,-4.468,15.514,-4.099,3.719,-3.906,-49.932,2.525,-8.917,-14.1,19.023,-13.271,-39.553,-16.78,-5.201
3.12010569999984,-31.014,-21.802,-24.214,-44.025,-1.693,-10.024,-8.437,-9.33,-18.264,-28.697,-15.979,-18.544,-16.686,-27.351,-24.856,-12.661,5.253,-13.829,-4.482,-11.074,-50.907,-6.187,-14.032,-15.623,11.32,-16.844,-41.05,-14.201,-4.172
3.1217932999998084,-23.298,-13.583,-15.481,-25.538,7.018,-11.039,4.379,2.462,-9.024,-28.668,-15.45,-17.501,-6.936,-21.176,-22.27,-11.624,1.149,-9.205,-1.916,-12.088,-47.782,-6.693,-12.481,-15.608,12.845,-14.266,-39.985,-1.892,5.054
3.1351614000000154,-22.763,-4.86,-8.805,7.275,15.208,-5.392,11.035,11.169,-1.843,-20.955,-11.336,-14.41,-2.83,-13.47,-16.1,-8.026,2.685,-3.56,-0.377,-9.002,-42.099,-6.686,-14.005,-19.178,11.295,-14.764,-46.092,0.159,4.024
3.1502531000001,-31.449,-9.466,-21.092,4.194,5.459,-5.899,4.876,2.448,-9.013,-28.106,-17.985,-21.568,-13.586,-22.166,-23.769,-18.264,-9.101,-15.34,-9.598,-14.116,-43.081,-16.414,-22.188,-28.893,-1.524,-19.872,-73.711,-10.599,-8.787
3.150391199999831,-32.442,-15.092,-22.608,-13.229,-5.818,-15.627,5.384,-6.776,-13.103,-38.324,-24.627,-28.206,-15.621,-29.828,-28.868,-26.443,-21.387,-21.984,-17.273,-20.249,-44.063,-24.594,-30.363,-34.499,-9.207,-24.975,-105.912,-14.175,-10.828
3.165147199999865,-26.262,-7.392,-12.851,2.154,-0.689,-14.075,7.427,1.428,-7.454,-30.601,-19.992,-24.079,-6.897,-22.114,-21.667,-19.244,-15.218,-13.253,-12.133,-13.057,-39.408,-22.008,-29.82,-31.391,-6.124,-25.463,-138.082,-8.525,-2.108
3.165208299999904,-22.65,0.3,-11.814,18.033,8.021,-4.839,4.858,7.062,-5.398,-25.96,-18.947,-20.982,-5.865,-18.505,-19.596,-16.663,-6.494,-15.801,-6.997,-8.945,-37.832,-19.424,-26.204,-31.872,-4.068,-22.876,-158.436,-5.955,-1.081
3.1801415999998426,-24.164,-6.361,-18.462,2.134,3.402,-12.519,5.878,-4.216,-14.101,-38.742,-27.125,-27.108,-13.544,-30.27,-26.236,-24.331,-12.123,-30.13,-13.138,-17.646,-39.331,-21.454,-33.35,-37.475,-7.138,-22.341,-173.647,-10.048,-10.814
3.180200799999966,-26.701,-14.551,-23.566,-13.238,-3.773,-19.679,3.311,-10.872,-18.698,-43.314,-29.147,-33.229,-17.116,-32.289,-24.673,-24.307,-16.209,-27.026,-15.687,-18.653,-34.168,-20.408,-35.366,-32.315,-7.643,-22.318,-169.887,-13.111,-13.877
3.195249800000056,-23.088,-8.901,-19.444,-0.929,0.329,-8.388,-5.402,-2.151,-11.507,-35.073,-22.97,-28.585,-11.464,-22.523,-15.939,-18.647,-12.606,-12.142,-3.888,-6.851,-28.499,-14.24,-21.498,-25.11,0.049,-18.197,-156.91,-3.877,-6.178
3.1953189999999267,-19.991,-4.794,-14.302,9.318,1.865,-6.33,-3.347,2.974,-10.471,-35.551,-21.923,-25.482,-10.94,-25.574,-14.899,-17.604,-11.057,-8.544,-0.81,-3.77,-30.007,-12.177,-19.94,-29.696,4.66,-17.667,-156.24,1.25,-3.098
3.2102670999997827,-22.021,-10.937,-17.874,-1.45,-3.772,-17.595,7.415,-0.615,-17.12,-39.101,-25.487,-29.555,-18.614,-32.721,-19.494,-17.074,-8.484,-11.097,-10.031,-9.402,-29.977,-15.751,-28.117,-32.74,1.581,-21.235,-140.715,-8.485,-7.706
3.2103377999997065,-14.826,-7.852,-15.294,-4.522,-0.694,-15.016,14.067,0.922,-9.419,-33.427,-20.851,-24.915,-13.984,-25.516,-15.889,-11.934,-2.841,-6.987,-6.435,-4.782,-24.312,-13.173,-17.33,-22.973,8.24,-17.628,-107.786,-6.94,-1.551
3.2255420000001322,-2.004,3.427,-2.471,11.364,8.016,-5.267,18.664,9.118,2.886,-22.635,-10.584,-11.058,-1.675,-21.392,-11.262,-4.749,-0.788,-3.394,0.744,0.859,-17.627,-5.476,-6.042,-11.167,26.162,-8.901,-86.674,9.974,13.308
3.225604799999928,0.56,9.059,-1.444,22.111,11.594,-5.262,17.108,14.744,0.834,-16.977,-5.45,-7.461,-2.186,-23.932,-12.275,0.378,-0.788,-6.465,-4.38,-2.216,-13.511,-7.519,-10.135,-7.058,32.284,-5.818,-101.957,15.599,17.905
3.24020100000007,1.584,14.173,-1.443,24.65,18.242,-3.207,11.456,18.316,0.321,-17.472,-2.883,-7.965,-4.233,-20.322,-8.677,1.403,-1.811,-7.483,-4.375,-2.726,-12.985,-11.61,-8.588,-7.051,28.153,-5.813,-103.392,17.12,18.912
3.240268399999877,6.705,17.745,8.805,26.163,28.47,-0.13,11.957,19.322,5.444,-17.967,0.194,-3.347,0.895,-16.203,-6.107,2.426,-2.322,-4.914,2.801,-0.162,-12.972,-5.963,-0.894,-4.482,32.223,-3.245,-91.505,25.3,26.066
3.2552452999998422,1.575,12.604,6.234,21.526,32.54,-6.79,8.871,14.692,-1.222,-17.949,-1.856,-6.93,-1.156,-17.724,-12.761,6.01,0.754,-5.421,0.749,-0.162,-11.423,-1.347,-0.894,-0.379,35.265,-0.168,-99.611,19.639,21.941
3.2553076999997757,-5.598,3.37,-10.166,12.795,34.045,-13.956,-2.921,6.48,-9.93,-23.566,-6.977,-14.607,-6.278,-19.243,-16.846,5.491,1.266,-7.465,-1.813,-1.186,-13.46,-5.444,-0.38,-1.916,28.57,-0.168,-111.806,7.324,5.013
3.2702014000001327,-4.568,-0.22,-16.303,8.171,38.621,-15.991,-5.48,0.326,-8.383,-28.666,-9.019,-13.568,-5.247,-19.736,-15.293,3.437,-2.322,-4.896,2.8,-3.234,-16.521,-5.95,0.132,-3.963,32.127,-2.729,-110.67,11.416,2.959
3.270266200000151,-3.027,4.903,-9.627,8.163,43.706,-18.536,-0.351,0.326,-8.375,-27.1,-10.035,-13.042,-6.778,-21.253,-18.351,4.97,-4.881,-0.793,3.309,-4.256,-9.332,-2.871,-0.892,1.676,43.366,2.396,-110.559,21.138,16.276
3.285187599999972,-3.024,13.608,-4.494,13.278,48.785,-18.518,0.674,7.498,-11.44,-27.073,-11.562,-16.615,-9.845,-19.695,-19.357,8.551,-6.413,-0.792,1.769,-0.153,-1.126,-0.306,4.744,7.31,42.298,8.542,-112.498,22.654,22.407
3.2852444999998625,1.078,14.619,-7.563,17.876,52.835,-14.913,1.698,10.564,-9.379,-29.608,-10.526,-15.574,-9.323,-20.7,-12.166,10.592,-4.357,-0.791,4.329,0.359,-5.223,0.206,5.764,2.18,35.596,3.41,-112.898,21.094,18.799
3.3002533999997468,-3.022,5.383,-14.216,10.173,45.61,-17.46,1.696,2.357,-10.395,-31.115,-13.589,-15.558,-12.388,-24.778,-11.641,10.581,-1.791,-0.79,-0.286,-5.276,-13.927,-6.454,-5.0,-10.63,27.363,-4.278,-117.396,12.364,11.607
3.3003171000000293,-12.24,-3.332,-16.251,1.966,32.756,-23.59,2.207,-3.281,-15.507,-35.695,-18.698,-19.129,-15.449,-27.827,-15.216,8.009,-4.863,-5.4,-8.995,-8.857,-14.425,-13.107,-10.631,-20.353,14.528,-7.348,-117.791,1.593,4.936
3.3153730999997606,-11.203,-3.329,-10.599,5.55,30.674,-21.005,6.815,2.358,-12.418,-35.659,-15.606,-15.524,-10.311,-27.287,-11.614,10.563,-5.371,-6.419,-9.499,-8.848,-8.776,-12.07,-8.571,-18.284,14.514,-8.877,-100.254,3.641,7.492
3.315432299999884,-9.143,1.798,-4.441,11.18,36.791,-19.447,7.321,9.015,-9.332,-31.013,-12.004,-14.996,-10.3,-24.186,-11.091,11.577,-0.755,-2.315,-11.026,-12.938,-10.816,-16.156,-13.685,-14.167,25.258,-8.868,-75.051,8.248,12.096
3.330275899999833,-20.405,-1.278,-4.949,7.07,33.681,-25.063,7.314,6.445,-15.47,-35.08,-19.164,-24.715,-17.975,-21.6,-19.276,-1.243,-6.389,-9.485,-25.36,-23.171,-23.101,-28.948,-25.967,-23.887,17.035,-12.958,-59.607,-0.982,5.936
3.330339300000105,-29.606,-12.035,-12.116,-0.109,26.475,-27.599,9.355,-4.32,-18.528,-41.705,-25.293,-29.813,-17.444,-21.578,-21.306,-12.512,-14.58,-22.795,-32.507,-28.783,-28.713,-36.091,-30.552,-34.621,0.112,-20.629,-64.158,-11.739,-2.779
3.34568709999985,-24.453,-14.585,-13.129,2.965,25.936,-25.01,4.735,-10.976,-13.899,-39.614,-22.194,-26.197,-11.279,-20.02,-17.187,-4.815,-8.93,-17.649,-22.228,-23.631,-22.537,-32.981,-23.349,-28.951,1.137,-20.097,-77.926,-10.191,-0.727
3.3603597999999693,-20.842,-8.935,-4.406,11.671,25.398,-26.522,1.144,-3.28,-15.422,-39.574,-22.684,-22.585,-14.342,-18.463,-17.682,3.899,-1.236,-2.262,-13.497,-17.46,-19.952,-25.263,-16.666,-19.189,12.406,-13.929,-78.36,-2.496,3.884
3.3604239000001144,-25.432,-7.901,-4.402,10.123,20.249,-28.033,1.143,1.334,-20.018,-43.121,-25.223,-24.099,-18.426,-19.469,-19.713,1.334,3.376,0.302,-13.483,-17.443,-20.445,-21.652,-13.575,-16.608,19.566,-14.427,-71.622,3.142,1.319
3.374351999999817,-24.382,-8.918,-12.082,8.063,22.791,-24.931,-5.518,-5.84,-17.436,-41.541,-22.636,-27.661,-16.871,-18.937,-19.181,-0.205,6.446,-0.211,-11.42,-16.913,-16.838,-20.606,-7.414,-13.005,21.084,-12.876,-77.698,3.139,1.318
3.376205099999879,-14.624,-2.249,-5.41,18.301,37.112,-23.881,-0.389,-0.711,-11.783,-36.376,-19.539,-27.634,-14.292,-15.332,-16.088,3.382,4.39,6.961,-6.798,-15.871,-13.235,-14.437,-1.771,-8.894,20.038,-4.154,-78.645,6.209,10.025
3.389379199999894,-8.462,8.512,5.866,22.382,45.272,-21.296,15.493,10.561,-9.21,-32.241,-14.909,-19.921,-9.667,-11.218,-12.486,9.014,5.923,10.541,-3.205,-13.294,-4.0,-5.201,-0.745,-5.811,19.505,1.998,-65.246,18.499,17.7
3.389445799999976,-5.892,13.114,0.737,15.187,45.739,-16.151,7.793,4.915,-11.25,-30.16,-9.259,-14.778,-7.096,-12.232,-8.375,17.714,10.015,4.895,-1.665,-9.182,5.225,-4.172,0.793,-1.707,15.388,3.021,-64.156,25.652,17.17
3.404433700000027,-2.812,11.564,-8.485,18.246,48.255,-17.16,-5.023,-1.75,-13.8,-32.179,-10.274,-16.3,-9.138,-19.392,-6.317,21.282,-0.241,-0.233,-1.663,-9.685,1.634,-6.217,-2.282,-2.729,10.761,1.993,-75.875,21.016,14.079
3.4044988999999077,-3.834,8.479,-8.989,20.789,46.67,-22.266,5.228,3.887,-12.762,-30.61,-10.776,-16.284,-7.08,-20.909,-7.336,20.237,-7.925,-0.745,-2.686,-11.213,-2.466,-5.698,-7.915,-7.85,16.898,0.967,-77.849,18.946,12.528
3.4194094999998015,-7.416,5.396,-11.541,7.96,40.475,-21.731,7.785,5.932,-10.187,-27.506,-6.155,-13.194,-4.511,-16.278,-11.427,23.29,1.304,0.792,-2.171,-8.64,0.61,-7.742,-4.321,-6.817,18.931,0.966,-76.234,18.927,8.417
3.419471000000158,-6.896,3.854,-17.678,1.805,41.46,-20.172,-1.957,3.877,-11.202,-29.015,-7.173,-11.132,-5.531,-17.286,-14.489,24.804,1.815,0.279,-2.169,-8.119,0.609,-9.271,-4.316,-5.274,4.567,-0.572,-78.719,13.785,1.749
3.4345072000000982,-5.353,8.461,-18.172,12.561,43.98,-18.615,3.68,2.849,-11.191,-28.986,-7.166,-7.534,-2.964,-16.756,-9.864,25.291,-7.408,1.816,-2.167,-9.648,1.633,-3.626,-8.923,-5.268,0.464,-0.059,-78.641,12.234,0.21
3.436356700000033,-6.372,10.502,-15.08,15.623,37.276,-15.011,11.361,0.284,-9.13,-24.346,-2.036,-3.428,1.137,-7.518,-3.194,30.901,1.821,7.449,2.446,-4.515,7.779,3.037,-2.254,-5.263,13.784,3.527,-76.513,13.246,3.796
3.449474900000041,-6.366,2.294,-11.991,7.41,30.578,-13.459,1.616,6.944,-5.023,-23.809,-1.521,-1.888,1.649,-5.974,-3.191,34.969,11.553,12.053,9.616,0.613,8.796,4.059,3.384,-8.844,15.307,2.499,-76.436,8.11,5.841
3.4495410999998057,-6.871,-1.806,-11.467,5.353,33.109,-14.982,-9.656,14.622,-3.481,-24.81,-3.569,-1.886,1.135,-10.578,-4.725,32.885,4.881,15.627,9.094,-2.974,4.689,0.981,0.306,-9.86,8.119,-1.602,-78.921,5.028,2.762
3.464512300000024,-10.451,2.806,-14.017,7.91,31.539,-17.529,-6.061,2.312,-9.625,-26.835,-4.078,-4.446,-1.428,-10.056,-7.281,31.315,3.852,14.074,1.912,-8.094,3.66,-2.094,3.38,-3.19,13.234,0.449,-82.941,7.072,0.71
3.464578199999778,-7.879,3.316,-12.466,5.34,24.336,-19.048,3.167,-8.449,-14.738,-29.369,-7.66,-6.49,-5.525,-10.558,-9.323,31.284,9.483,5.863,-0.651,-7.062,6.73,-0.042,5.938,0.912,18.856,3.01,-81.833,10.651,7.369
3.480604299999868,3.912,6.898,-1.183,11.483,30.971,-12.369,2.139,8.465,-6.527,-22.68,-0.992,-0.336,-2.446,-9.523,-2.142,33.814,6.912,5.857,2.936,-3.981,14.408,5.081,1.834,0.399,19.862,6.593,-72.53,20.887,18.632
3.480678800000078,10.568,19.699,8.552,28.889,46.309,-3.647,-4.523,24.851,1.677,-12.411,10.28,2.738,2.167,-5.415,4.52,35.317,3.832,9.95,0.371,-5.514,17.467,3.539,2.856,1.935,22.916,10.685,-66.31,28.038,22.712
3.49458629999981,4.41,18.655,3.933,32.447,42.165,-7.23,-0.932,15.604,-3.96,-16.497,3.097,-7.511,-3.47,-12.582,-5.73,26.572,-0.271,0.719,-6.801,-10.631,9.253,-4.662,0.804,-4.215,17.77,5.039,-68.805,16.74,16.029
3.4963198000000375,-0.717,5.829,0.343,18.07,31.364,-11.833,1.118,9.953,-6.518,-24.165,-7.152,-16.725,-11.151,-21.278,-11.36,13.738,-6.93,-9.528,-7.819,-15.231,4.12,-6.706,-6.369,-7.796,9.043,-0.602,-73.859,12.112,12.427
3.5097811000000547,2.357,7.36,7.002,11.904,34.919,-10.797,-9.642,21.214,-3.95,-24.654,-2.534,-18.758,-13.189,-19.208,-2.639,9.626,-6.923,-10.031,-9.348,-18.802,5.653,-5.675,-6.875,-2.666,10.059,3.497,-77.371,22.858,17.026
3.524543300000005,-4.305,6.84,1.872,13.429,26.687,-17.959,-11.169,12.484,-13.68,-32.313,-8.68,-27.448,-17.787,-21.238,-8.784,4.493,-11.015,-17.193,-22.147,-28.517,-3.574,-16.94,-15.065,-12.909,2.364,-4.191,-83.442,15.151,12.398
3.5246093000000656,-18.133,-9.561,-17.085,3.169,7.193,-25.625,-5.01,-11.607,-25.961,-42.015,-23.015,-36.13,-22.892,-25.315,-24.145,-5.245,-20.738,-23.836,-29.297,-33.612,-12.792,-27.169,-28.37,-31.852,-16.594,-19.556,-87.969,-5.356,-4.008
3.5396130999997695,-11.455,-8.014,-19.629,-1.957,14.358,-16.378,-8.591,-3.399,-17.226,-32.751,-13.259,-21.749,-13.648,-12.994,-13.362,8.08,-9.446,-7.931,-11.849,-17.697,1.053,-8.187,-13.997,-19.524,-9.917,-8.266,-81.221,0.797,-5.541
3.5396762999998828,8.536,10.949,-6.802,13.927,37.91,-4.066,-11.656,21.196,-1.84,-17.349,7.759,2.351,2.76,0.339,6.119,40.86,11.056,14.619,11.217,3.838,22.057,18.974,14.707,8.16,14.171,14.284,-68.845,17.19,7.784
3.5545922999999675,12.114,10.938,-4.746,21.597,39.921,-9.185,-9.083,13.49,-5.936,-18.869,10.825,6.96,4.806,-1.711,7.65,52.602,14.118,19.727,17.353,6.908,25.109,23.565,21.352,11.225,16.718,14.782,-63.14,17.685,10.85
3.554656899999827,6.979,4.267,-8.327,10.817,28.61,-15.836,-14.197,-2.918,-16.177,-25.51,5.691,1.83,-0.322,-6.32,3.031,43.84,13.592,18.683,14.774,1.778,19.448,18.931,13.134,2.505,10.554,8.62,-64.614,19.204,9.815
3.5695771999999124,7.996,10.411,-5.245,10.806,22.946,-11.209,-18.794,3.745,-14.111,-24.972,4.661,3.365,1.728,-5.801,4.053,42.772,19.726,19.689,11.173,1.264,15.842,17.375,9.022,1.478,9.519,10.66,-66.086,26.869,16.977
3.5696422000000894,5.939,8.351,-2.679,16.431,17.288,-10.686,-12.627,5.791,-11.536,-28.021,1.07,-0.737,1.214,-5.283,1.999,39.143,14.071,11.984,0.916,-4.373,8.654,9.673,3.89,-3.647,-2.274,5.014,-67.045,18.646,15.423
3.5846333999998024,-1.751,-3.953,-6.774,4.631,6.0,-19.385,-11.078,-6.51,-17.159,-35.678,-7.128,-13.032,-8.521,-8.352,-5.175,22.71,1.249,-0.323,-11.893,-15.639,-1.088,-4.169,-8.922,-16.963,-14.567,-7.286,-71.589,4.282,3.625
3.584712699999727,-4.823,-4.973,-9.841,-1.009,-1.179,-19.877,-20.801,-5.479,-17.142,-33.593,-11.731,-16.093,-10.562,-13.466,-8.756,13.978,-4.388,-6.47,-19.565,-20.234,-5.698,-14.411,-21.208,-23.606,-13.528,-11.89,-74.591,3.253,4.134
3.6002276999997775,-2.769,1.179,-5.221,11.288,1.896,-12.685,-19.243,4.772,-11.49,-24.338,-7.621,-11.978,-6.453,-16.014,-4.649,14.988,-5.92,-11.075,-22.62,-20.726,-8.254,-13.884,-23.748,-14.873,-11.977,-7.267,-68.881,8.886,12.326
3.6002932000001238,0.82,2.203,0.932,13.838,7.53,-11.136,-2.317,8.354,-8.917,-19.703,3.145,-8.38,-4.91,-12.925,1.504,19.072,-5.914,-15.674,-19.523,-18.656,-3.635,-1.062,-16.552,-5.637,-13.502,1.45,-61.127,11.951,11.802
3.6147283000000243,7.991,5.274,-0.093,11.775,10.596,-7.026,3.32,12.956,-3.272,-15.072,13.388,0.85,1.755,-9.326,6.625,30.836,-3.347,-13.609,-8.745,-10.441,7.127,14.82,-4.24,-4.094,-11.439,7.596,-57.48,12.451,9.741
3.6147956999998314,10.545,7.831,-7.266,18.423,13.66,1.69,-9.491,24.214,6.465,-8.397,16.961,10.583,11.487,-7.267,10.717,37.977,-0.269,-7.96,-0.539,-4.283,7.633,20.953,3.448,-1.529,-10.916,10.662,-55.886,12.951,10.756
3.6297547999997732,1.312,2.188,-14.431,13.282,6.986,-1.385,-13.58,22.141,3.897,-11.975,10.284,5.962,7.89,-4.186,8.145,30.255,3.317,-4.879,-1.564,-7.352,-3.134,16.321,0.371,-0.502,-10.905,9.627,-59.928,9.352,5.109
3.644739599999866,-8.423,-3.45,-16.978,-0.052,-6.341,-12.142,-2.295,5.725,-7.378,-21.184,1.052,-5.315,-1.34,-2.645,-0.06,23.052,6.387,1.274,-5.148,-11.443,-11.84,9.133,-5.265,-9.211,-7.308,0.908,-70.627,-0.392,-0.531
3.644808799999737,-6.877,-1.397,-11.325,2.51,-5.31,-7.519,1.293,6.231,-5.321,-20.139,0.539,-5.822,1.223,-2.642,2.501,25.078,9.967,9.982,-5.655,-9.895,-15.926,6.05,-5.772,-13.813,-8.325,-5.753,-72.605,-3.977,2.543
3.644854199999827,-1.235,1.166,-7.728,12.241,0.331,0.173,-7.417,24.156,2.369,-14.483,3.1,-2.23,3.271,0.434,8.134,22.492,15.08,9.972,-5.65,-10.91,-20.009,4.507,-4.229,-7.651,-10.878,-3.698,-66.385,-0.387,7.664
3.6597773999997116,-5.332,1.164,-12.843,13.766,-9.404,-8.024,-7.41,18.496,-4.806,-20.616,-3.051,-7.863,-3.904,-3.152,1.466,16.834,9.43,3.814,-12.304,-17.559,-26.649,1.941,-5.762,-3.033,-7.281,-5.231,-62.733,2.175,10.218
3.6598503999998684,-10.962,1.163,-7.707,12.215,-18.103,-12.627,3.868,-1.502,-15.047,-32.379,-8.684,-15.54,-10.048,-12.371,-5.708,12.719,-2.363,-0.288,-18.439,-21.127,-33.794,-2.672,-11.904,-3.542,0.923,-8.3,-61.133,7.296,15.843
3.6747368999999708,-6.853,3.724,1.522,7.592,-11.938,-4.418,1.303,1.061,-14.008,-32.346,-5.089,-14.5,-10.55,-12.871,-1.603,8.607,-1.848,-2.849,-17.396,-19.569,-37.859,-5.231,-13.941,-6.1,3.996,-2.656,-60.56,13.948,18.901
3.6896990000000187,0.839,6.794,-6.164,3.999,-3.216,-0.827,-17.142,11.306,-9.895,-22.068,-0.985,-10.387,-10.028,-11.833,3.009,11.16,0.715,-5.408,-15.842,-16.988,-35.26,0.41,-8.804,-10.705,-4.205,-1.117,-62.036,11.373,12.734
3.691433599999982,2.887,8.324,-11.281,10.655,4.471,-0.826,-21.223,10.27,-9.373,-16.41,1.065,-7.303,-6.944,-19.506,4.543,20.371,-6.97,-4.89,-12.752,-12.36,-32.663,8.094,-6.234,-9.669,-12.398,-3.677,-60.437,7.263,8.111
3.704860599999847,3.909,7.291,-0.511,16.279,10.102,2.248,-9.419,9.747,-6.802,-19.468,6.187,-5.246,-4.375,-20.511,8.637,22.4,-11.061,-6.935,-6.08,-7.737,-34.679,7.574,-6.227,-5.561,-8.287,1.45,-59.352,7.256,9.64
3.7049293000000034,3.905,2.161,-3.072,9.091,10.604,0.197,-3.774,10.25,-4.234,-20.985,8.23,-3.704,-3.346,-14.343,10.165,21.865,-7.464,-11.026,-5.561,-10.803,-38.743,4.492,-4.172,-10.679,-8.279,0.936,-64.928,1.101,7.068
3.7198138999997354,-1.735,-1.94,-16.902,3.446,10.082,-3.902,-4.282,4.604,-6.279,-16.866,4.636,-2.163,-1.294,-14.328,5.032,23.38,-4.895,-7.941,-11.191,-11.817,-41.266,2.951,-7.242,-17.328,-22.103,-6.75,-70.498,-4.536,-1.136
3.7198813999998492,-8.905,-5.524,-19.446,8.054,4.436,-4.922,-8.889,2.55,-10.883,-19.923,-1.517,-6.26,-3.342,-9.703,-0.096,16.184,-2.329,-4.347,-17.327,-11.293,-47.372,-3.712,-19.53,-18.335,-28.228,-8.28,-71.965,-7.605,-5.233
3.73519159999978,-15.044,-14.74,-18.915,2.41,-8.888,-12.602,-18.102,1.523,-12.409,-30.149,-9.2,-14.963,-7.949,-3.034,-1.633,5.922,1.26,-7.417,-25.507,-18.454,-56.034,-13.955,-26.683,-27.026,-28.2,-11.858,-69.844,-17.844,-7.789
3.749829899999895,-16.566,-19.336,-20.433,-12.961,-14.515,-17.2,-15.01,-2.065,-12.909,-32.168,-11.24,-15.46,-7.429,-5.592,-2.144,5.916,2.795,-4.335,-28.555,-22.534,-60.589,-19.064,-26.656,-35.709,-35.856,-20.555,-65.675,-22.436,-11.368
3.7498875999999655,-13.988,-11.12,-14.264,-6.801,-7.84,-9.498,-3.212,-1.038,-16.483,-28.038,-8.667,-12.371,-7.421,-8.66,-3.679,5.91,3.305,1.817,-24.941,-19.95,-63.602,-18.532,-28.166,-30.037,-36.845,-19.51,-70.733,-13.193,-8.282
3.7648960000001352,-16.535,-9.572,-10.152,11.137,-7.32,-10.001,-3.721,-0.524,-19.028,-31.083,-13.781,-20.043,-13.049,-11.213,-7.261,-2.293,-3.871,-6.382,-28.502,-24.541,-69.686,-18.002,-32.236,-27.958,-31.685,-18.466,-81.42,-12.155,-0.589
3.7649560999998357,-21.129,-19.296,-12.191,2.416,-14.997,-19.725,-11.914,-8.209,-20.545,-35.663,-18.891,-28.732,-18.159,-19.911,-9.303,-11.0,-12.576,-17.134,-34.621,-28.615,-74.227,-22.594,-34.766,-33.566,-32.678,-23.57,-80.827,-22.389,0.948
3.7799111999997876,-20.596,-20.302,-9.105,-10.906,-17.544,-17.144,-11.902,-9.225,-22.062,-33.578,-15.286,-27.679,-20.19,-23.99,-9.806,-15.087,-10.514,-15.068,-33.05,-23.975,-77.227,-26.158,-34.219,-29.946,-31.109,-25.084,-79.209,-24.416,-1.102
3.779972700000144,-20.063,-14.646,-6.022,0.888,-11.891,-6.368,-11.89,2.567,-18.966,-29.958,-12.709,-25.602,-16.584,-20.38,-9.796,-14.047,-9.479,-17.614,-31.48,-23.439,-75.101,-23.57,-32.648,-25.305,-24.93,-24.546,-105.77,-18.756,-1.613
3.7949095999997553,-20.043,-17.705,-8.577,9.084,-3.682,-3.288,-19.05,8.712,-11.262,-23.269,-9.622,-21.478,-8.883,-18.822,-5.176,-5.836,-16.642,-25.794,-31.96,-22.391,-66.829,-17.911,-30.053,-27.329,-29.003,-21.96,-137.939,-18.737,-4.686
3.794971599999826,-15.925,-20.761,-13.692,-1.683,0.42,-6.871,-20.056,1.019,-11.251,-18.634,-2.953,-13.259,-4.775,-18.291,-1.584,-0.195,-14.576,-22.694,-26.293,-14.172,-63.176,-12.258,-24.9,-25.253,-33.585,-15.278,-149.072,-23.841,-10.316
3.8098942999999963,-14.884,-17.154,-17.777,-6.293,3.493,-11.987,-8.765,-6.154,-15.338,-25.276,-4.999,-11.197,-6.308,-13.662,-5.169,2.879,-6.365,-14.474,-19.607,-11.084,-67.211,-8.147,-22.314,-20.104,-30.478,-11.677,-134.578,-18.694,-9.794
3.8099710999999843,-12.82,-12.014,-14.685,-0.651,10.15,-13.0,-6.707,-4.611,-15.323,-27.3,-6.531,-9.136,-3.227,-8.525,-3.627,10.048,-4.821,-8.312,-15.489,-11.585,-64.07,-4.553,-18.193,-15.986,-23.787,-8.079,-128.296,-4.331,-2.099
3.8251532999997835,-4.61,-4.317,-5.449,3.961,12.701,-9.401,-22.582,-1.533,-13.258,-18.051,2.185,-2.98,-1.175,-5.955,5.598,14.649,-2.255,-0.107,-11.375,-5.938,-56.833,0.062,-12.027,-10.334,-18.64,-1.411,-132.779,-0.228,8.149
3.8399727999999413,-4.093,-1.239,-3.394,3.957,7.053,-9.391,-27.17,-4.605,-14.27,-18.545,-1.403,-8.1,-6.809,-7.999,3.544,8.999,-0.203,-1.644,-11.876,-5.932,-59.338,0.575,-15.089,-10.324,-19.646,-1.922,-126.498,-4.839,12.239
3.8400487999997495,-13.311,-7.898,-10.051,-4.244,-3.2,-15.529,-12.286,-15.359,-20.915,-29.797,-14.21,-19.875,-14.487,-12.601,-4.657,2.842,-3.789,-9.839,-15.45,-12.586,-64.402,-3.524,-18.148,-14.924,-24.75,-8.58,-108.953,-6.883,7.616
3.8400892999998177,-18.42,-15.062,-19.774,-14.999,-16.517,-21.149,-14.323,-25.59,-29.604,-36.428,-16.757,-22.929,-18.059,-13.613,-6.189,-1.259,-6.859,-9.317,-15.435,-14.111,-65.874,-6.595,-11.982,-16.446,-25.237,-11.133,-91.938,-13.024,-1.101
3.8553200000001198,-22.5,-20.683,-30.001,-18.57,-28.283,-24.202,-38.387,-25.564,-32.136,-38.44,-18.789,-24.955,-19.578,-14.624,-10.794,-9.455,-11.463,-12.381,-17.468,-16.658,-70.419,-9.15,-14.019,-18.991,-30.847,-13.683,-77.502,-22.233,-8.784
3.8553744000000734,-28.626,-27.322,-33.557,-22.65,-30.304,-25.202,-41.423,-18.878,-30.567,-38.914,-25.431,-31.078,-19.558,-23.319,-16.931,-17.13,-21.698,-26.714,-23.599,-25.863,-79.058,-13.239,-24.251,-22.046,-40.55,-17.256,-72.813,-26.309,-12.361
3.8700275999999576,-28.597,-30.369,-30.962,-29.287,-27.713,-22.103,-23.963,-17.835,-30.024,-37.338,-23.356,-30.534,-19.538,-27.906,-11.278,-17.113,-25.775,-34.372,-27.161,-25.837,-82.565,-15.275,-25.764,-24.073,-36.411,-18.775,-77.864,-29.356,-13.886
3.8700927999998385,-28.056,-29.826,-32.468,-26.696,-29.222,-19.007,-23.426,-19.866,-27.432,-34.74,-18.722,-27.43,-19.519,-23.78,-6.656,-15.046,-19.601,-31.776,-28.159,-21.2,-81.458,-17.309,-25.738,-28.148,-27.153,-21.318,-74.2,-32.913,-14.384
3.885087900000144,-30.59,-29.284,-34.997,-18.985,-31.754,-18.988,-34.674,-17.285,-26.893,-30.094,-20.752,-28.427,-17.45,-21.195,-12.285,-17.081,-13.434,-29.182,-27.618,-25.79,-80.864,-15.755,-29.299,-27.607,-31.225,-19.76,-63.367,-30.831,-12.833
3.8851529999997183,-26.461,-25.668,-30.351,-16.917,-30.185,-21.019,-23.881,-16.755,-28.915,-31.601,-22.269,-26.35,-16.408,-18.612,-11.248,-12.965,-6.248,-25.055,-22.467,-27.301,-74.636,-6.517,-22.609,-18.358,-34.267,-10.519,-60.23,-24.652,-10.259
3.9002009999999245,-20.286,-22.569,-26.222,-15.875,-23.495,-20.998,-5.926,-21.862,-26.324,-36.692,-20.197,-21.712,-14.342,-11.421,-5.089,-1.169,0.418,-22.468,-16.81,-18.565,-66.876,-1.9,-15.927,-13.729,-28.598,-5.897,-57.608,-19.505,-9.736
3.915101699999923,-22.828,-24.596,-28.758,-12.785,-19.886,-19.952,-13.092,-20.815,-24.249,-35.631,-18.64,-21.691,-11.767,-9.36,-7.646,3.955,1.442,-20.396,-12.182,-17.009,-72.445,-3.435,-18.472,-18.839,-27.544,-11.527,-52.427,-22.047,-11.263
3.9151615999999194,-28.44,-29.694,-30.266,-14.822,-29.087,-20.957,-26.399,-17.721,-27.811,-36.108,-21.695,-22.181,-14.829,-10.376,-11.224,-0.659,1.953,-12.179,-8.071,-18.529,-83.131,-2.407,-19.478,-22.918,-31.103,-14.589,-51.35,-27.66,-11.252
3.9301080000000184,-32.51,-32.738,-28.186,-20.442,-41.866,-22.985,-20.225,-26.412,-28.808,-41.195,-25.772,-21.647,-17.375,-7.804,-9.164,-3.733,4.0,-5.507,-9.088,-15.437,-85.609,-3.429,-19.971,-22.895,-31.584,-13.55,-50.787,-26.608,-9.704
3.9301713999998356,-38.113,-32.705,-28.67,-19.91,-43.873,-22.962,-11.496,-32.021,-26.217,-38.08,-26.258,-26.748,-13.259,-10.358,-10.691,-5.266,-0.615,-12.161,-13.177,-19.52,-88.085,-10.598,-23.537,-24.409,-31.553,-19.684,-52.785,-28.63,-13.793
3.9451116000000184,-40.124,-32.16,-32.74,-17.328,-41.268,-18.841,-20.193,-21.231,-26.191,-36.505,-27.769,-32.357,-15.808,-20.081,-16.828,-14.482,-10.86,-20.346,-14.701,-28.209,-97.219,-14.686,-26.588,-31.557,-36.644,-27.349,-58.88,-33.725,-21.976
3.946851499999866,-33.424,-29.567,-34.244,-20.385,-38.665,-14.723,-26.833,-18.648,-27.702,-42.616,-29.278,-34.374,-23.477,-24.672,-19.373,-23.177,-18.021,-20.326,-19.297,-28.181,-100.195,-15.696,-29.123,-38.698,-41.731,-26.297,-58.821,-27.543,-19.392
3.960229899999831,-26.731,-21.853,-28.063,-17.803,-30.429,-12.147,-16.048,-25.289,-25.625,-34.376,-22.589,-31.778,-20.892,-19.524,-12.694,-18.543,-19.54,-16.719,-19.278,-23.542,-94.46,-12.606,-23.97,-31.999,-36.566,-22.685,-50.565,-15.733,-6.053
3.960295699999733,-17.995,-11.072,-16.764,-2.416,-22.202,-4.45,-8.347,-11.432,-16.89,-18.46,-8.734,-20.475,-8.575,-10.795,-2.435,-3.667,-16.959,-11.067,-6.451,-18.908,-87.193,-0.811,-11.139,-15.061,-25.258,-17.026,-41.805,-7.008,2.15
3.975238900000022,-9.268,-5.938,-12.136,6.296,-19.618,1.19,-17.048,2.924,-8.676,-17.417,-2.065,-8.672,-2.419,-6.686,1.154,1.972,-11.819,-3.372,0.728,-11.204,-87.106,6.875,-10.103,-9.411,-21.135,-9.837,-33.567,0.171,3.685
3.9753035999997337,-13.869,-9.006,-20.321,-5.493,-23.697,-3.422,-23.691,-10.911,-11.229,-23.548,-8.211,-12.249,-5.49,-11.29,-2.434,-2.641,-10.783,-5.417,-5.933,-9.144,-92.654,0.208,-18.29,-21.697,-23.163,-11.877,-28.41,-1.366,2.657
3.991348300000027,-23.589,-13.095,-26.961,-15.734,-34.432,-10.079,-17.007,-24.732,-17.878,-27.623,-17.424,-21.971,-10.608,-16.402,-4.48,-6.737,-13.846,-12.072,-10.538,-15.795,-97.685,-8.502,-22.882,-33.97,-24.677,-22.111,-25.82,-13.66,-2.981
3.9914082999998755,-23.565,-15.644,-21.811,-12.645,-40.033,-10.069,-8.281,-20.609,-18.372,-32.206,-18.432,-21.437,-12.647,-13.824,-6.525,-9.292,-15.881,-7.961,-7.966,-18.853,-99.124,-9.005,-24.909,-34.961,-27.213,-25.163,-19.134,-18.257,-4.003
4.005251199999748,-17.906,-14.091,-11.03,-10.583,-35.894,-9.034,-1.101,-20.588,-14.768,-32.686,-17.388,-18.341,-11.097,-8.175,-8.568,-8.258,-11.255,4.342,-3.859,-11.662,-98.512,-1.312,-19.248,-27.241,-24.112,-16.428,-12.455,-10.042,7.784
4.006960499999877,-12.253,-5.368,-0.261,-4.424,-33.297,-8.001,1.974,-20.055,-13.728,-30.092,-18.396,-19.348,-9.549,-6.63,-2.924,-1.077,-6.12,7.411,-0.269,-6.015,-99.439,6.886,-8.471,-15.431,-20.502,-7.19,-10.906,-2.347,16.485
