Timestamp,Cz,Fz,Fp1,F3,C1,C3,T7,C5,CP5,CP3,CP1,P1,P3,O1,CPz,Pz,Oz,O2,P4,P2,CP2,CP4,CP6,C6,T8,C4,C2,F4,Fp2
0.0,36.691,44.093,24.948,33.398,93.498,24.262,14.226,38.913,34.666,36.39,43.386,40.405,26.542,11.468,32.004,42.737,-10.74,104.245,25.296,26.176,47.924,33.219,39.75,29.834,10.983,26.112,132.819,44.822,16.038
6.200000007083872e-05,32.043,43.025,34.144,34.389,95.966,13.991,10.113,37.85,30.021,30.206,37.195,37.291,22.417,16.58,27.361,34.497,-18.926,103.116,20.148,20.002,39.167,26.013,38.686,25.706,22.755,24.549,121.928,45.289,23.194
0.014866299999994226,32.011,44.518,43.332,38.965,100.481,13.465,14.202,33.201,31.528,33.25,35.108,33.667,20.858,12.464,27.334,32.414,-21.981,104.038,21.665,21.007,37.079,28.549,43.77,29.779,34.515,29.136,128.466,52.416,31.88
0.016535400000066147,33.516,46.523,40.215,38.926,101.405,17.55,12.65,33.68,33.033,33.216,37.122,33.121,23.911,0.669,26.282,34.431,-17.348,105.983,26.254,24.572,39.603,38.254,50.899,44.094,27.82,34.742,131.411,53.388,28.262
0.029919900000095367,40.655,49.038,44.273,46.06,101.816,15.483,10.076,43.381,35.562,33.183,39.134,37.699,25.424,-4.967,29.842,39.007,-9.646,105.877,33.912,28.134,41.613,46.412,55.971,53.783,29.33,39.318,128.206,50.261,32.333
0.04485330000034082,53.422,52.575,49.352,52.161,99.152,19.566,16.726,46.923,44.235,40.322,41.144,39.71,24.374,2.722,36.472,40.505,-10.661,103.722,39.514,30.667,41.571,47.903,55.915,45.533,48.768,41.84,132.176,51.235,34.862
0.04491170000028433,63.615,51.498,39.569,45.449,92.393,26.207,16.197,40.216,43.679,37.72,40.591,38.134,22.812,13.99,34.899,38.415,-16.798,101.569,31.277,30.124,38.456,41.707,49.711,35.753,48.207,37.187,131.532,48.11,23.556
0.060945900000206166,62.527,46.836,32.357,44.379,84.616,22.082,11.058,43.762,33.389,30.51,35.427,34.509,19.203,13.464,28.204,35.303,-21.904,95.32,22.024,27.02,30.733,32.956,41.977,35.205,25.617,30.49,120.129,41.915,20.459
0.061005500000192114,47.607,42.691,34.886,48.946,78.384,16.937,22.83,52.94,30.794,30.48,29.244,25.253,14.573,-4.992,23.565,26.558,-27.518,89.077,19.953,21.87,23.53,29.337,36.3,30.559,15.858,27.898,114.374,41.36,23.512
0.07494200000019191,36.801,41.111,37.925,46.335,79.33,16.408,32.541,50.326,35.374,25.326,27.166,19.08,10.46,-22.406,19.443,17.823,-30.052,88.475,13.273,15.7,18.383,27.259,35.751,26.942,28.137,25.309,113.747,42.856,22.976
0.07500880000043253,40.863,44.656,44.547,47.826,86.423,19.465,15.602,49.763,34.314,21.715,28.163,18.549,7.888,-22.896,19.423,17.292,-27.972,89.412,7.624,14.148,15.291,26.207,37.252,34.6,39.892,25.284,114.146,44.862,33.712
0.09001340000031632,39.285,46.148,44.502,51.364,78.652,26.106,0.73,48.689,25.058,23.23,25.061,11.87,4.294,-20.311,20.941,12.152,-29.994,87.785,10.178,13.109,11.69,25.156,36.19,37.127,37.291,27.82,113.519,48.404,39.826
0.0900803000004089,28.999,41.491,32.162,43.628,54.495,22.493,13.024,33.783,15.812,15.522,17.864,5.199,-1.858,-16.705,16.821,1.381,-37.136,81.55,5.045,7.973,7.579,20.52,33.08,29.918,32.643,26.255,108.795,48.867,30.564
0.10498649999999543,27.434,41.45,29.569,37.437,42.657,13.762,19.159,25.552,17.845,9.359,15.797,5.706,-3.905,-5.93,13.218,-0.669,-41.71,74.808,-2.645,6.428,5.523,17.938,30.486,30.912,34.147,25.716,105.612,48.306,28.997
0.10505280000006678,27.406,41.921,30.051,38.424,45.176,16.822,2.746,32.699,20.901,15.497,17.83,8.774,0.197,-0.288,14.742,4.455,-40.643,72.172,-0.08,9.495,0.906,18.432,24.308,30.881,24.891,25.178,100.384,45.184,27.431
0.12004770000021381,21.231,33.682,17.214,30.701,45.643,19.879,0.694,30.617,19.855,18.556,18.325,13.888,4.808,-5.923,15.24,10.598,-34.967,71.587,2.994,11.023,-4.218,17.902,20.185,20.604,12.571,21.055,90.549,36.942,14.596
0.12013070000011794,25.821,33.136,14.635,30.158,54.307,21.396,17.087,31.099,29.569,28.271,30.602,29.243,17.099,-4.893,21.884,24.419,-26.735,78.176,8.114,18.696,3.983,26.593,28.874,24.682,20.243,24.62,98.656,36.393,16.118
0.13498420000041733,38.602,45.91,20.768,48.571,73.72,34.694,13.996,48.486,43.372,47.198,51.576,44.583,32.963,3.821,35.695,40.789,-17.999,90.393,23.475,33.022,16.275,42.96,43.19,41.051,34.567,37.915,115.975,45.066,21.737
0.13505520000035176,38.051,45.352,10.501,51.084,75.696,39.783,5.273,54.073,38.718,46.126,52.549,43.514,29.856,11.502,39.758,41.773,-11.834,91.327,30.111,35.039,13.185,47.016,47.245,43.572,37.094,39.927,109.199,41.947,9.933
0.1500223000002734,30.841,31.987,0.244,27.979,56.153,30.521,16.026,41.724,26.384,32.248,37.639,32.712,15.994,18.663,33.57,31.485,-13.359,84.576,21.884,27.831,4.975,40.821,43.099,36.868,40.643,32.714,96.795,32.683,3.775
0.15008699999998498,28.761,29.393,2.293,15.655,45.338,25.88,21.646,37.071,24.308,28.629,29.405,21.921,11.367,19.156,25.34,20.695,-18.981,85.516,14.69,23.193,-0.666,35.145,39.47,34.27,44.189,31.657,94.649,32.651,4.796
0.1650326000003588,25.146,30.901,-1.807,25.374,48.366,22.268,9.328,36.522,22.235,22.965,22.715,11.141,6.745,8.379,15.58,8.891,-24.597,80.82,9.04,15.997,-11.936,25.888,33.283,29.113,36.46,24.453,83.283,31.593,-2.381
0.16510060000018711,24.096,28.821,-2.318,35.082,52.417,20.709,8.807,35.461,18.626,17.819,18.082,8.056,-1.459,-3.925,15.053,3.247,-31.233,68.443,1.859,10.346,-17.559,19.715,25.053,22.936,28.739,14.182,74.491,29.512,-0.33
0.18039390000012645,29.195,30.841,2.295,34.535,55.95,29.91,20.069,43.11,22.706,24.974,27.285,15.22,3.666,-10.069,23.747,12.465,-31.201,67.35,3.906,15.458,-13.956,23.281,21.441,19.839,28.71,19.804,83.126,32.557,6.331
0.1804615000000922,27.629,29.786,-7.441,27.328,55.894,33.466,21.073,46.653,26.27,29.047,32.381,18.791,11.859,-9.034,26.285,18.6,-28.609,68.82,7.488,20.054,-18.04,24.282,19.371,14.184,23.558,23.37,80.481,27.401,-5.971
0.19507060000023557,20.429,21.047,-15.118,24.227,53.277,30.359,15.417,37.897,26.756,29.531,26.201,20.309,11.847,0.709,24.209,16.532,-30.629,67.214,6.456,20.034,-23.145,20.672,13.716,11.608,15.338,15.662,66.568,15.591,-16.211
0.19514220000019122,22.97,18.464,-9.98,24.715,57.834,35.451,14.377,37.347,31.852,36.161,32.835,30.023,20.032,14.54,29.308,23.688,-25.988,74.319,10.548,24.112,-20.048,24.75,14.215,14.67,13.786,16.159,69.063,12.501,-14.658
0.21004560000028505,29.095,19.983,-12.019,18.542,63.924,40.027,10.264,46.531,37.968,40.736,45.61,38.189,29.234,23.235,34.914,35.448,-13.154,80.905,18.735,29.723,-20.54,33.434,21.373,16.705,15.309,21.266,68.994,12.489,-18.742
0.22504590000016833,28.041,19.45,-12.007,14.938,61.811,43.573,1.545,45.972,39.467,41.72,44.027,39.688,25.106,22.7,36.928,35.925,-12.629,78.263,20.765,32.255,-24.618,36.475,25.45,20.787,16.83,20.22,57.142,16.575,-16.162
0.2251077000000805,23.403,23.529,-1.237,25.169,60.212,49.165,5.641,37.729,35.841,42.19,37.323,37.599,20.983,13.968,33.305,30.766,-22.35,76.135,15.109,29.149,-24.081,35.414,25.937,24.352,21.937,21.736,54.011,25.267,-4.362
0.22514860000001136,16.719,21.969,-4.309,29.242,55.541,40.918,18.956,35.642,22.998,30.877,31.65,28.34,17.376,4.732,24.05,22.026,-26.426,70.936,6.897,18.874,-32.767,29.23,22.324,16.643,20.378,19.153,51.908,18.07,-9.481
0.24000780000005761,9.53,10.676,-14.551,17.942,44.727,30.631,14.326,34.582,14.778,19.576,22.397,17.553,7.624,6.777,16.342,9.708,-26.912,65.742,1.255,12.707,-46.566,21.004,13.081,9.454,9.087,11.449,40.585,5.244,-20.23
0.25493360000018583,9.521,10.665,-10.95,13.826,44.683,37.261,-5.668,28.912,24.497,22.63,19.301,15.999,8.129,12.918,16.838,6.112,-26.885,69.775,0.229,16.793,-48.056,18.934,12.043,13.543,10.102,12.463,37.983,10.362,-17.136
0.2549905000000763,12.585,18.339,-9.915,22.009,50.273,39.273,-3.101,25.297,24.985,21.07,19.282,13.934,12.219,5.732,17.333,6.106,-25.834,73.803,0.228,15.239,-48.008,23.014,20.228,17.628,22.9,16.549,38.97,17.012,-12.508
0.27001570000038555,13.597,17.809,-15.028,27.11,50.735,33.086,12.784,28.858,9.59,13.877,16.189,8.284,3.498,-14.253,16.291,0.465,-28.369,70.656,-0.284,8.052,-56.157,23.503,21.232,19.66,23.902,14.483,33.295,13.921,-11.983
0.2718429000001379,18.194,23.426,-9.89,31.694,60.418,40.737,2.525,35.489,15.729,20.011,20.271,8.788,4.007,-30.121,20.373,-0.048,-33.464,69.048,-2.845,8.044,-58.15,19.381,17.112,24.763,20.291,16.518,30.7,22.616,-8.385
0.2851970000001529,21.762,34.161,-4.757,39.859,70.604,51.455,-12.335,39.552,29.545,27.675,25.886,10.829,11.687,-39.312,23.427,3.538,-34.455,67.442,-4.892,9.06,-57.068,17.312,18.12,24.226,24.37,19.575,32.207,32.327,-6.84
0.2852618000001712,17.13,26.955,-11.412,37.257,61.312,50.379,0.485,35.926,20.294,20.988,20.737,9.793,5.016,-40.297,19.305,-0.564,-34.421,63.276,-2.838,5.977,-61.621,17.295,17.077,19.079,20.759,19.043,30.638,24.61,-9.907
0.3004982000002201,11.989,14.633,-21.647,22.363,56.128,47.767,9.706,30.767,16.688,17.893,18.667,10.808,1.424,-27.449,16.724,-0.051,-37.972,62.188,0.751,8.021,-63.609,16.253,12.962,18.547,11.005,17.999,25.996,14.852,-19.631
0.3005616000000373,11.465,12.569,-31.871,7.996,64.781,46.182,-0.55,30.224,29.479,24.023,22.747,17.457,10.645,-11.028,19.781,9.683,-38.959,64.688,1.263,11.599,-63.033,18.286,10.9,13.918,4.334,15.42,15.724,8.689,-37.03
0.31507650000003196,9.917,7.945,-38.5,3.89,62.154,46.136,-0.549,31.731,28.424,26.56,23.749,25.125,13.195,-6.406,20.274,15.309,-30.723,69.746,3.823,13.124,-65.019,22.366,9.864,5.195,-2.843,12.843,8.024,-0.029,-47.239
0.3151353000002928,9.394,5.888,-34.875,7.472,55.432,52.75,6.112,34.261,24.298,29.095,27.823,30.222,14.207,-3.326,23.327,21.441,-23.008,77.361,10.992,19.771,-63.417,25.418,12.928,9.8,-0.791,12.318,13.139,-1.566,-41.556
0.3300778000002538,12.971,9.981,-33.815,6.44,54.865,58.845,0.47,36.788,32.47,32.652,33.943,32.241,21.877,5.387,28.939,29.616,-20.936,83.944,16.616,25.899,-62.842,28.466,20.6,18.5,11.505,12.818,16.199,2.022,-37.416
0.3318033000000469,12.958,7.922,-35.318,1.31,46.1,57.249,-1.067,32.653,29.876,28.521,30.835,33.234,22.368,5.381,27.374,25.488,-18.865,84.372,18.136,25.361,-67.902,29.975,21.604,15.407,13.031,14.854,9.011,1.508,-36.354
0.34516770000027464,10.896,9.451,-29.135,7.457,39.394,55.143,0.471,29.034,21.649,23.369,26.194,31.151,17.222,-1.284,24.272,18.803,-19.359,80.701,14.02,24.311,-69.371,24.822,13.897,12.318,10.968,14.839,5.928,3.556,-32.219
0.34523380000018733,10.373,16.613,-26.545,16.159,42.941,56.625,-8.239,27.98,21.628,23.346,23.606,22.923,13.107,-3.332,23.223,16.223,-25.487,76.01,4.272,19.676,-71.863,19.161,10.297,13.843,16.593,10.726,4.898,9.187,-29.625
0.3602285000001757,5.239,11.986,-31.129,10.507,39.312,55.543,-11.305,24.878,13.922,19.224,18.459,15.728,6.433,-7.427,16.54,6.472,-30.073,69.786,0.682,10.434,-81.013,18.118,11.312,14.341,15.552,10.715,-1.767,8.666,-26.522
0.3602925000000141,4.722,5.826,-24.438,7.423,39.785,49.34,-2.584,25.366,5.711,16.644,18.441,14.688,4.378,-11.518,13.962,-0.194,-31.579,65.618,2.218,8.887,-82.981,18.612,12.837,18.425,12.974,16.34,-2.278,9.17,-19.835
0.37528370000018185,14.451,16.067,-12.118,21.248,48.454,50.315,-2.069,33.025,14.414,24.824,24.058,16.722,10.009,-13.044,22.145,4.929,-34.622,66.577,0.166,13.489,-78.799,19.105,17.948,25.067,21.671,20.422,4.384,18.382,-13.668
0.37535050000042247,16.998,23.223,-11.081,29.423,46.357,61.023,-5.653,39.652,21.06,29.922,24.034,14.656,8.462,-20.715,24.172,3.9,-36.636,68.047,-1.371,13.475,-81.282,17.549,21.003,28.116,27.284,21.938,2.843,27.073,-9.043
0.39020920000029946,11.346,17.564,-14.656,23.246,43.749,61.475,-0.012,39.612,17.453,24.257,20.424,11.568,2.306,-27.355,20.562,-2.764,-35.575,65.418,-1.369,10.388,-88.886,11.384,16.884,27.575,22.646,20.38,-4.844,23.46,-10.571
0.3919136000004073,8.773,8.837,-19.765,12.464,45.242,47.581,6.135,29.839,25.632,21.159,17.842,11.556,1.279,-22.204,20.541,-3.274,-36.564,61.254,-6.491,5.255,-93.407,6.25,10.207,17.814,15.964,14.212,-9.45,8.579,-24.393
0.40529760000026727,5.178,3.193,-28.967,0.157,35.463,39.849,8.691,20.588,44.562,21.137,15.775,14.106,3.839,-16.547,16.422,-3.783,-34.478,64.266,-6.485,3.712,-92.802,9.317,8.66,10.111,10.312,12.148,-12.515,-1.163,-33.59
0.405362000000423,6.197,6.264,-29.45,3.23,35.94,47.494,8.17,31.325,55.788,24.703,21.394,19.728,10.495,-9.87,15.381,2.369,-25.735,72.399,5.305,12.93,-84.512,20.579,17.361,23.934,15.937,18.284,-10.965,4.986,-26.897
0.4193366000004062,14.9,12.405,-24.297,16.547,52.81,57.18,2.526,41.54,58.806,34.924,31.107,28.929,18.169,-4.737,27.149,17.736,-19.049,77.45,17.595,22.651,-77.767,31.829,30.663,35.693,24.118,21.339,-5.831,12.665,-23.284
0.4346463000001677,12.324,7.27,-23.761,7.821,46.097,54.049,5.085,27.154,54.649,34.889,28.002,29.925,17.127,-7.806,29.683,20.792,-19.542,75.835,18.602,22.116,-81.276,30.773,28.583,25.923,13.848,17.219,-9.412,4.456,-29.408
0.43470720000004803,1.041,-1.447,-19.639,-6.019,27.096,45.286,11.74,18.418,47.422,23.583,17.728,21.186,13.011,-4.725,18.895,11.037,-24.133,69.1,9.362,16.459,-86.318,19.983,14.722,13.602,-1.535,11.054,-19.136,-9.381,-29.891
0.449306400000296,3.089,0.092,-11.934,7.819,29.63,48.826,0.97,29.67,47.374,24.584,18.734,16.042,12.486,11.162,19.901,4.366,-29.745,58.272,1.668,11.319,-89.817,13.303,10.609,10.514,-9.218,6.945,-20.654,-5.273,-18.59
0.44936420000021826,8.209,7.776,-8.849,18.57,32.674,54.413,-6.203,29.128,49.889,29.683,21.277,15.513,9.912,18.835,21.93,1.288,-33.301,52.578,1.154,8.746,-93.826,11.753,11.623,9.992,-12.283,4.376,-20.121,5.49,-0.641
0.464379700000336,5.127,11.355,4.48,8.818,27.006,47.186,12.758,20.902,44.203,21.456,16.133,10.375,5.291,12.156,12.174,-3.837,-34.292,52.013,-3.97,6.176,-97.318,4.057,3.415,10.494,-3.561,2.835,-23.687,4.46,18.827
0.464447900000323,6.146,13.392,35.214,12.907,31.59,47.139,21.967,32.152,39.548,17.336,14.068,6.266,4.261,5.484,11.65,-9.98,-37.332,46.838,-14.725,1.047,-100.807,-5.169,-3.761,5.873,6.176,-1.266,-24.688,7.53,37.252
0.4794363000000885,14.337,24.65,67.454,31.338,38.219,60.924,13.236,38.78,47.193,24.491,17.127,5.747,2.72,0.868,19.323,-15.094,-39.856,42.181,-14.198,1.046,-102.243,-3.114,-2.22,4.33,1.047,-0.24,-21.589,25.965,60.268
0.47949830000015936,18.934,39.482,91.465,40.015,40.742,62.913,14.76,29.519,52.782,25.491,19.672,6.254,3.742,-4.256,17.254,-12.005,-33.668,48.799,-5.987,7.192,-98.555,6.11,4.442,20.719,5.657,11.031,-16.957,40.796,83.262
0.49442150000004403,19.427,44.566,110.842,47.148,49.41,56.702,19.868,31.539,47.606,22.392,21.701,10.858,7.836,-9.375,18.774,-5.333,-26.462,52.848,-2.907,8.722,-94.358,10.715,10.073,30.433,25.119,21.266,-16.428,49.465,94.449
0.49448100000017803,20.432,45.033,128.149,56.322,53.459,57.158,19.336,38.168,48.07,27.493,22.704,14.946,8.853,-13.464,26.44,-3.79,-24.387,49.722,-0.342,8.201,-94.776,10.704,8.526,18.619,27.655,19.195,-17.948,51.977,98.453
0.5094086000003699,21.949,48.575,139.804,55.241,51.357,52.49,22.39,30.445,55.707,30.539,21.657,15.443,10.894,-9.352,24.364,-3.274,-17.702,53.258,4.781,13.316,-93.144,12.23,8.005,15.527,18.406,14.565,-15.369,47.826,106.552
0.5094650000000911,19.878,47.501,138.64,51.6,52.842,45.265,14.171,29.39,57.188,29.996,23.172,19.526,18.055,3.977,22.291,2.877,-10.0,58.328,8.875,20.475,-89.977,17.341,13.12,25.245,16.851,17.625,-17.402,47.266,104.908
0.5244441000004372,12.173,41.306,126.206,48.474,47.154,46.244,-2.237,36.533,52.52,27.405,22.637,21.044,17.525,14.732,25.342,5.948,-12.039,53.659,12.452,21.991,-89.375,20.398,9.521,21.633,6.588,19.656,-28.144,44.657,86.36
0.5245106000002124,7.038,37.166,114.809,38.18,34.812,44.661,0.839,29.836,44.271,20.205,16.466,15.9,10.847,15.742,20.194,4.917,-16.126,48.994,14.489,20.433,-91.335,18.84,3.876,14.952,-11.35,15.026,-32.214,30.268,73.466
0.5394583000002058,10.105,35.592,111.62,29.945,33.752,41.03,12.621,23.659,39.103,16.599,14.401,14.347,11.861,8.554,16.075,5.937,-15.085,48.945,13.45,20.412,-93.293,17.797,6.946,16.474,-3.654,11.937,-31.669,28.189,73.393
0.5395344000003206,10.094,29.921,113.558,32.476,37.304,42.526,9.022,26.196,47.774,22.73,16.436,17.406,16.972,-0.676,21.182,6.443,-18.656,45.31,15.998,22.953,-93.712,16.754,5.914,10.822,15.818,9.876,-40.859,32.259,68.196
0.5554779000003691,5.474,21.182,114.469,31.931,30.095,35.824,6.452,22.072,52.849,22.195,13.345,15.852,13.369,-2.725,18.087,2.338,-22.736,41.166,18.031,19.344,-93.618,13.152,0.273,1.077,9.142,2.181,-44.917,18.907,55.833
0.5555606000002626,8.03,18.087,112.305,28.826,25.966,28.615,15.155,22.05,42.55,16.025,9.746,13.275,6.696,0.352,12.946,0.287,-19.639,41.125,14.427,14.714,-93.012,11.602,1.297,4.15,-12.897,-1.407,-37.7,9.154,42.969
0.5694822000000386,13.145,22.168,109.631,35.969,34.65,35.247,15.139,31.762,39.946,17.033,10.248,11.724,6.689,1.888,17.544,-0.738,-19.107,36.986,10.826,17.261,-94.456,12.102,-0.241,8.244,-26.204,1.668,-41.248,10.169,28.582
0.5845087000002422,8.009,20.608,110.546,39.007,41.275,37.773,6.927,26.094,42.467,16.504,7.677,4.54,3.608,-2.724,12.403,-8.422,-27.285,27.215,5.18,15.194,-100.509,4.918,-8.95,-2.01,-33.862,-1.92,-52.99,-3.673,14.209
0.5863045000000966,-0.196,10.342,115.046,29.746,35.598,29.026,3.847,16.847,32.691,10.34,1.009,-2.124,-1.518,-12.456,2.657,-17.123,-30.332,21.04,-2.51,4.933,-105.019,-3.284,-14.064,-14.303,-29.217,-9.09,-57.035,-18.014,2.411
0.586358200000177,-0.196,7.258,111.345,29.204,29.415,24.386,3.843,30.15,28.56,9.305,-0.529,1.976,3.094,-18.591,8.802,-11.983,-19.543,27.167,2.616,7.49,-99.791,0.818,-10.976,-13.777,-6.134,-6.519,-58.003,-14.922,-7.837
0.5994880000002922,2.878,10.324,94.328,34.811,30.922,23.337,12.036,37.292,38.265,13.906,5.619,10.684,10.263,-13.961,14.941,-0.7,-7.74,35.849,9.273,18.241,-94.569,8.502,-4.305,-8.64,-1.517,-3.951,-60.506,-16.444,-16.539
0.6145420000002559,3.387,7.752,79.889,27.603,32.941,26.9,25.344,24.959,41.813,17.479,13.298,15.284,12.815,-5.238,13.901,2.887,-5.683,33.764,5.678,19.247,-96.011,6.956,-2.764,-9.656,-22.008,-7.533,-61.471,-21.551,-23.182
0.6146013000002313,5.945,3.646,75.198,23.99,33.42,38.144,20.708,31.082,36.136,21.56,16.871,17.83,15.363,0.915,20.035,3.909,-9.776,30.656,5.16,17.178,-94.378,3.875,-7.884,-13.232,-23.011,-7.526,-60.897,-17.431,-27.77
0.6295004000003246,7.476,6.204,62.315,28.576,36.461,40.667,7.879,45.396,31.489,23.075,15.829,17.812,12.786,-1.648,23.089,6.466,-11.303,33.187,6.692,18.186,-92.747,3.871,-10.95,-16.805,-13.766,-7.006,-60.836,-16.901,-34.402
0.6295608000000357,1.834,3.636,38.175,21.376,37.961,30.893,9.921,32.03,28.384,18.441,11.715,15.233,6.114,-13.942,16.406,4.411,-10.78,29.567,-1.0,16.631,-98.802,-0.743,-14.013,-21.399,-28.097,-9.561,-66.923,-23.544,-48.2
0.6445040000003246,-0.73,-0.978,23.279,16.743,35.874,28.813,5.3,18.166,30.917,15.861,10.679,15.73,9.181,-18.538,13.828,0.82,-13.33,20.829,-5.609,15.077,-101.264,-7.915,-20.659,-21.89,-38.828,-8.526,-73.516,-23.521,-57.886
0.6462123000001156,3.882,2.097,18.645,26.461,36.863,34.419,-5.464,29.419,30.886,17.895,12.205,14.69,10.709,-12.372,12.277,-0.718,-19.977,16.709,-4.067,14.038,-98.602,-10.981,-22.688,-21.868,-30.592,-7.493,-70.881,-19.911,-58.34
0.6596198000002005,0.292,-2.516,8.893,21.311,33.752,26.188,11.96,29.901,19.584,11.729,5.021,3.916,0.452,-12.36,5.605,-9.426,-25.08,12.082,-14.821,7.364,-103.114,-15.068,-25.739,-24.92,-37.221,-14.146,-74.396,-25.014,-64.942
0.6596865000001344,-11.492,-15.834,-5.973,1.822,20.398,8.743,20.657,12.453,13.929,-0.066,-8.304,-6.846,-4.159,-15.421,-2.085,-23.249,-26.08,6.434,-24.028,0.184,-111.72,-22.738,-32.885,-26.945,-53.066,-19.255,-87.129,-35.235,-76.66
0.6746542000000773,-11.993,-14.793,-20.312,3.869,17.816,8.222,-11.126,16.027,20.063,-2.627,-9.833,-7.864,1.481,-18.48,-4.133,-24.763,-21.955,8.477,-17.344,-1.353,-112.633,-24.764,-28.754,-22.307,-54.037,-14.625,-84.993,-35.712,-80.169
0.6747230000000854,-9.419,-9.655,-41.296,10.526,20.872,17.948,-27.509,24.72,14.408,-3.137,-9.311,-10.417,-2.107,-26.146,-3.616,-22.689,-16.81,10.006,-18.351,-4.426,-115.082,-24.227,-25.139,-25.871,-49.372,-11.536,-81.322,-33.627,-88.286
0.6900352000002385,-23.242,-21.429,-61.747,-10.49,5.994,9.221,-9.551,1.129,0.561,-15.429,-25.695,-21.678,-14.4,-28.169,-11.297,-36.498,-20.379,1.286,-34.214,-11.594,-123.676,-34.449,-39.971,-43.776,-45.224,-24.845,-100.196,-45.377,-102.542
0.6901032000000669,-35.514,-29.092,-52.464,-26.873,-2.208,-5.133,-2.369,-14.241,0.56,-23.611,-36.941,-27.292,-18.484,-21.993,-24.094,-47.22,-25.482,-1.789,-36.229,-14.144,-124.577,-41.075,-46.079,-51.416,-42.618,-35.578,-112.391,-55.065,-102.44
0.704697699999997,-24.208,-16.768,-23.722,-10.452,15.212,2.044,-2.367,6.265,7.732,-12.316,-21.022,-18.555,-12.318,-20.434,-17.922,-33.341,-15.723,6.922,-21.849,-5.933,-113.181,-27.714,-30.151,-34.971,-48.723,-23.247,-102.033,-43.74,-90.042
0.7064044000003378,-9.839,-6.505,-25.235,3.903,31.079,12.288,0.71,13.431,14.384,-1.546,-4.607,-9.315,-6.158,-13.241,1.564,-18.963,-0.338,12.038,-14.654,5.856,-103.334,-14.878,-22.949,-25.715,-45.088,-9.904,-95.783,-31.913,-85.853
0.71970280000005,-6.243,-5.474,-48.264,1.85,37.195,12.276,-8.0,5.221,20.518,2.042,-1.529,-3.158,0.508,1.116,7.71,-13.821,0.687,9.977,-12.591,9.949,-98.62,-10.253,-22.926,-27.738,-32.235,-10.919,-92.613,-28.807,-86.792
0.7197688000001108,3.497,0.68,-43.092,7.483,46.379,21.485,-9.017,21.61,22.546,13.311,10.256,10.678,9.729,2.652,11.801,1.05,2.223,13.041,0.742,16.087,-88.275,1.028,-9.07,-14.39,-32.203,-5.273,-78.688,-18.532,-79.021
0.7346808000002056,16.814,8.364,-26.655,19.259,51.968,34.784,2.263,43.617,32.258,25.593,30.226,25.012,19.453,-6.06,27.67,17.955,16.566,21.225,14.061,27.854,-76.404,14.86,2.722,2.53,-27.048,3.954,-67.339,-7.755,-68.696
0.734745500000372,16.284,5.281,-33.801,18.215,51.917,34.749,-4.399,43.061,45.545,26.08,33.269,28.06,23.532,-11.689,32.766,18.962,20.648,21.716,12.51,28.338,-74.278,15.87,1.182,-1.571,-12.164,1.901,-70.858,-7.747,-70.676
0.7497008000000278,4.485,-5.482,-45.55,6.926,44.18,26.517,-7.469,30.211,33.204,17.344,17.867,20.86,15.312,-10.14,19.925,8.697,7.819,12.473,3.276,18.064,-80.864,7.657,-1.893,-5.668,-18.811,-2.199,-83.594,-14.912,-83.413
0.7647310000002108,-5.253,-14.698,-47.042,-6.401,29.791,16.245,14.056,11.225,12.167,5.032,6.066,10.081,6.075,1.141,11.709,-0.021,2.688,2.214,0.199,16.509,-85.394,2.014,-3.428,-2.588,-31.088,-5.271,-92.732,-25.143,-90.502
0.764792700000271,-1.662,-11.61,-47.507,-6.395,32.835,16.229,16.091,10.189,20.864,5.539,13.232,12.632,12.216,15.996,17.845,4.589,11.907,3.749,5.834,21.103,-79.673,7.647,-1.888,-1.561,-20.298,-6.803,-90.59,-23.581,-85.801
0.7666177000000971,8.586,-1.864,-45.923,10.518,51.245,30.045,-2.881,29.647,32.626,18.853,25.002,24.915,18.352,17.517,24.999,16.88,17.531,9.893,10.439,22.107,-74.471,14.299,6.311,4.588,-12.594,2.426,-84.864,-10.237,-78.03
0.7798705000000155,3.454,-2.887,-47.926,11.02,44.022,26.428,-4.415,19.883,16.712,10.638,14.731,18.23,7.575,3.667,20.363,10.716,12.902,1.686,3.769,18.498,-81.056,5.064,3.231,2.022,-25.389,4.985,-87.341,-14.838,-80.514
0.7948143000003256,-8.332,-14.155,-59.149,-7.947,24.51,5.91,-6.46,-6.777,0.813,-11.402,-3.727,-2.281,-4.728,-15.804,9.584,-8.763,3.156,-11.636,-6.481,12.332,-88.66,-8.261,-14.703,-15.911,-36.634,-6.803,-95.451,-30.705,-90.68
0.7948830000000271,-5.25,-16.19,-59.602,-4.865,29.096,7.953,-22.847,2.964,3.887,-7.292,-1.674,-4.328,-6.26,-30.133,9.575,-12.34,-5.557,-15.21,-9.549,7.709,-86.009,-7.741,-17.762,-19.481,-37.622,-8.333,-98.429,-27.6,-92.126
0.8101998000001913,0.903,-8.489,-49.808,9.997,39.826,19.728,-20.263,17.818,9.006,3.473,4.988,0.288,-6.254,-30.103,12.639,-8.229,-4.014,-13.658,-8.002,11.8,-84.387,-2.61,-6.473,-8.703,-35.535,-2.69,-94.745,-19.888,-82.812
0.8102601000000504,1.414,-5.407,-49.246,7.425,39.274,13.048,-7.947,11.14,4.386,-4.215,-1.165,-7.397,-5.223,-21.363,6.991,-12.32,2.65,-12.62,-7.994,13.837,-84.302,-3.12,-6.979,-7.157,-30.889,-4.736,-94.137,-21.405,-77.606
0.8248530000000756,1.413,-8.475,-50.734,3.832,40.771,10.474,-15.111,16.252,0.283,-5.235,-2.701,-10.976,-4.193,-14.682,5.959,-14.869,1.11,-12.095,-7.986,8.7,-82.169,-5.166,-14.145,-11.249,-31.37,-2.682,-101.728,-19.847,-78.041
0.8249118000003364,-4.224,-13.59,-55.806,-2.32,37.144,17.636,-21.244,17.26,2.844,-0.619,0.888,-8.916,-9.312,-15.179,9.027,-16.391,-0.428,-13.62,-7.466,6.642,-84.648,-6.698,-14.643,-15.336,-37.487,-3.192,-107.262,-23.925,-82.574
0.8398478000003706,-9.343,-15.626,-63.435,-15.637,29.935,12.495,-6.878,0.849,4.891,-8.303,-1.162,-8.907,-9.303,-17.214,6.457,-15.862,10.843,-7.458,-4.897,13.808,-83.026,-3.617,-13.091,-14.808,-37.961,-9.849,-102.031,-29.537,-87.614
0.8547942000000148,2.45,-6.388,-52.613,-6.4,40.151,14.019,-0.723,13.656,6.935,-1.635,7.036,3.397,1.977,-8.999,14.135,-0.989,24.665,7.406,4.842,23.528,-68.599,7.145,-2.832,-0.961,-27.677,-0.617,-91.171,-14.65,-76.768
0.8548534999999902,16.28,8.475,-33.605,15.123,58.554,31.936,-9.432,38.233,21.785,20.396,25.472,21.837,13.758,4.842,31.539,16.43,29.251,13.034,16.108,29.14,-57.259,17.896,15.102,13.897,-13.817,14.753,-82.883,4.832,-54.15
0.8698811000003843,14.726,8.979,-34.084,11.522,59.52,36.003,-0.201,27.436,33.034,23.962,28.52,25.914,16.306,5.862,31.508,16.926,27.172,9.947,15.58,27.574,-60.276,18.903,14.574,16.444,-7.656,10.127,-81.775,2.778,-51.534
0.8699429000002965,5.49,-4.863,-44.296,-1.81,45.628,23.159,15.168,14.089,23.267,17.79,19.783,20.765,12.191,-0.804,18.156,9.224,22.022,9.937,7.367,23.96,-65.851,11.199,0.727,10.28,-15.333,-0.129,-93.477,-9.52,-67.364
0.8848589000003813,0.874,-11.518,-48.35,0.754,35.337,21.087,1.833,22.784,19.145,20.334,17.714,18.695,12.692,-0.803,18.138,7.166,17.902,9.415,3.261,21.887,-65.273,2.991,-3.372,-0.489,-26.588,-1.154,-104.141,-19.244,-73.957
0.8849233000000822,-0.152,-10.482,-49.839,5.876,34.789,27.726,-13.538,25.835,31.422,21.338,18.721,17.651,17.802,-1.315,23.243,6.134,16.347,5.307,1.209,18.791,-62.646,-0.085,-6.442,-6.123,-31.685,-3.714,-99.427,-26.397,-74.907
0.8998805000001084,-1.688,-18.668,-53.887,-3.864,30.143,23.599,-4.815,22.736,22.169,11.071,13.579,15.584,14.71,-4.9,16.047,2.542,11.207,6.326,-1.354,17.235,-64.12,-4.184,-16.682,-10.216,-40.362,-7.809,-97.278,-32.006,-83.029
0.9015973000000486,-6.297,-30.432,-60.494,-18.717,19.355,10.256,-1.736,24.762,-1.932,0.301,6.393,10.958,6.499,-5.919,9.884,-1.559,6.585,7.345,-1.353,17.731,-66.618,-5.717,-18.202,-20.452,-51.08,-8.826,-105.378,-33.511,-87.045
0.9149527000004127,-8.853,-25.791,-60.433,-15.112,24.458,2.049,-6.345,22.176,2.168,0.813,5.362,7.873,6.492,-10.524,14.997,0.492,7.603,7.337,-1.351,15.151,-66.039,-2.125,-15.623,-21.456,-48.98,-7.792,-105.272,-30.916,-83.884
0.9150197000003573,-4.233,-15.519,-54.225,1.297,39.803,7.17,4.419,20.104,20.097,9.522,12.016,9.915,9.56,-14.612,16.007,4.077,7.084,13.99,-4.936,13.599,-63.411,-3.147,-19.193,-15.799,-45.345,-8.297,-100.556,-27.299,-83.288
0.9300006000003123,2.943,-12.43,-55.708,3.345,43.862,16.896,8.513,26.744,19.565,13.098,17.128,14.003,10.575,-6.401,13.941,2.536,1.953,19.611,-5.956,16.659,-57.2,-5.193,-17.637,-17.832,-48.373,-9.313,-101.993,-26.247,-82.692
0.9300654000003306,4.477,-8.319,-52.578,-1.269,43.306,20.978,-1.741,27.742,16.471,14.11,15.573,17.063,10.564,0.778,18.026,3.558,0.927,17.03,-2.364,19.717,-50.995,0.96,-10.959,-13.716,-44.227,-6.23,-99.329,-21.61,-76.462
0.9453171000000111,1.399,-6.262,-42.792,-0.243,42.75,17.883,1.334,19.517,20.553,15.633,14.533,14.997,8.504,-3.321,16.983,7.653,-0.611,17.525,-1.849,18.672,-51.969,2.496,-11.973,-4.993,-39.059,-3.662,-97.693,-17.49,-73.312
0.9453817000003255,0.885,-10.866,-48.384,-2.805,39.634,14.791,10.555,18.986,18.996,13.055,15.031,12.42,7.983,-6.904,11.843,3.547,-5.733,25.193,-3.384,17.629,-53.966,-1.093,-12.986,-4.988,-43.119,-5.195,-100.157,-21.571,-74.775
0.9599870000001829,6.008,-8.806,-51.922,2.321,46.254,17.85,9.007,32.287,15.903,16.628,16.553,17.531,11.049,-3.311,18.491,2.007,-6.24,29.266,-0.819,20.685,-47.252,4.031,-7.337,1.164,-40.002,-2.629,-92.884,-20.525,-70.602
0.961815800000295,9.075,-2.649,-39.062,13.077,53.892,19.882,5.412,39.427,16.399,23.784,20.635,21.099,10.526,1.815,22.571,7.128,-4.697,30.261,2.255,24.251,-40.033,6.589,-3.744,5.262,-28.691,3.522,-87.668,-12.82,-66.433
0.9750923999999941,7.017,-9.819,-46.196,4.867,47.691,19.35,2.845,31.19,17.408,21.199,21.639,17.492,10.003,3.863,16.913,5.071,-9.303,30.231,0.204,22.69,-39.993,1.459,-7.326,-6.014,-30.199,0.444,-93.728,-18.955,-73.026
0.9751561000002766,5.985,-14.932,-65.105,-3.847,44.569,24.453,2.33,28.598,20.976,20.665,21.105,18.499,14.604,-4.85,19.97,1.48,-15.954,28.151,-2.358,20.105,-38.416,4.531,-9.368,-6.008,-37.854,-2.63,-93.634,-27.133,-79.613
0.990103700000418,3.418,-7.233,-59.404,2.305,46.062,29.04,14.111,32.667,19.931,24.231,18.01,18.481,12.028,-18.165,21.999,0.454,-20.548,26.586,-2.868,20.598,-35.816,5.551,-8.846,5.269,-33.717,1.471,-94.565,-21.47,-75.435
1.0051386000000093,-4.27,-9.787,-53.197,-3.333,31.159,18.764,23.318,18.802,4.029,11.399,7.233,4.63,1.257,-25.832,8.145,-10.305,-25.651,27.584,-8.5,15.454,-39.366,-5.725,-10.375,-0.372,-30.097,-1.092,-105.742,-19.4,-74.335
1.0052217000002202,-10.926,-18.999,-61.341,-10.502,18.832,10.036,12.536,4.951,-5.196,-3.469,-0.971,-4.596,-1.818,-29.905,1.989,-16.954,-30.236,29.094,-14.127,9.803,-42.913,-8.793,-12.926,-7.032,-35.703,-7.238,-104.611,-27.577,-78.359
1.0200325000000703,-9.378,-15.394,-59.23,0.267,23.936,17.711,-3.358,15.705,2.493,2.682,3.129,0.532,3.307,-32.948,10.697,-8.741,-29.694,31.114,-12.576,13.892,-38.772,-4.173,-13.425,-2.926,-39.765,-6.207,-96.31,-26.013,-75.207
1.0200957000001836,-6.807,-11.28,-53.023,-0.245,22.888,23.329,-6.428,23.374,6.077,8.314,6.712,4.63,4.841,-34.965,11.71,-6.683,-27.102,33.644,-10.514,17.464,-34.122,-7.755,-14.436,-3.436,-39.726,-4.151,-99.8,-21.376,-69.497
1.035079400000086,-8.849,-14.855,-52.458,-8.954,11.594,20.744,-1.811,18.227,2.485,4.208,5.68,2.063,5.348,-28.782,3.502,-12.824,-27.075,37.197,-11.016,14.373,-34.6,-9.797,-14.934,-5.481,-39.174,-5.684,-100.212,-23.404,-67.378
1.035144500000115,-9.865,-14.84,-48.819,0.276,10.558,23.285,-3.859,19.746,4.019,6.253,4.138,-1.013,3.806,-13.896,2.474,-13.835,-31.659,38.697,-10.493,12.309,-36.615,-9.787,-13.382,-3.939,-34.524,-8.24,-96.526,-26.454,-65.774
1.0501554000002216,-8.318,-13.288,-47.234,2.325,14.133,24.286,-11.539,21.263,0.941,7.271,-0.477,-2.036,-1.833,-5.686,4.008,-16.895,-37.775,36.096,-13.044,8.198,-35.554,-16.95,-11.832,-6.497,-28.341,-11.305,-104.626,-30.526,-67.757
1.0502206000001024,-8.31,-13.275,-50.26,-8.436,12.582,19.651,-6.405,18.168,-1.621,4.702,-1.501,-1.522,-1.319,-11.828,1.955,-20.977,-36.713,35.036,-15.08,4.604,-30.907,-16.42,-9.771,-4.953,-24.215,-10.269,-105.034,-31.52,-72.3
1.0661088000001655,-6.253,-9.163,-45.087,-3.304,13.082,21.168,7.946,22.248,5.553,9.308,3.111,-0.496,3.805,-15.914,2.465,-17.37,-34.114,37.05,-11.991,7.673,-25.241,-8.719,-6.687,0.687,-21.629,-5.648,-92.633,-24.829,-69.666
1.0661680000002889,-5.222,-5.568,-30.185,2.847,12.557,22.172,8.451,18.128,5.547,9.811,1.059,-2.544,-0.297,-14.874,5.537,-18.377,-42.789,29.328,-14.541,7.153,-22.142,-12.809,-9.242,0.174,-24.681,-6.667,-91.004,-21.73,-58.838
1.0801493000003575,-0.606,-1.464,-2.49,7.455,15.106,22.149,2.807,10.425,2.98,9.289,3.619,0.02,0.215,-14.346,8.605,-16.31,-45.308,22.639,-15.038,10.22,-14.435,-9.21,-8.208,7.346,-25.681,-2.05,-88.864,-14.536,-37.262
1.0802134000000478,15.789,16.468,30.3,33.575,43.78,36.472,7.927,33.981,17.834,26.698,24.108,16.926,17.121,-3.061,20.892,6.248,-24.258,39.01,3.932,25.579,5.047,17.951,14.341,29.368,-8.749,18.444,-70.844,7.508,-11.61
1.0952275000004192,27.556,29.772,38.979,49.935,70.888,49.755,11.505,59.562,27.038,40.504,37.404,30.229,25.301,6.163,33.679,21.611,-11.939,54.34,17.76,32.726,19.899,32.79,32.258,39.585,6.629,30.209,-64.113,18.259,-5.45
1.0952935000000252,16.77,16.422,18.96,29.905,60.571,38.947,9.957,42.084,13.691,27.656,26.096,23.539,15.03,-6.138,28.522,13.393,-23.197,44.552,7.497,24.496,11.17,19.438,19.418,26.225,-4.136,18.396,-79.931,4.408,-20.814
1.1102334000001974,4.458,1.037,-1.551,17.58,50.265,27.637,7.385,24.623,9.066,18.407,19.41,18.392,12.453,-12.792,16.71,10.306,-22.662,40.409,2.366,20.885,3.474,10.709,6.591,15.441,-18.477,9.668,-85.998,-7.379,-34.113
1.1103007000001526,9.064,5.646,-9.234,22.686,63.022,35.294,-4.405,31.771,19.304,27.097,26.05,26.058,21.15,0.028,19.767,18.492,-10.856,51.639,7.999,21.377,12.18,14.284,11.707,20.036,-15.897,12.732,-78.74,-5.323,-38.178
1.1252947000002678,8.543,5.128,-11.274,12.417,58.348,37.821,-10.036,27.641,15.698,24.509,21.413,23.471,18.055,-1.509,21.285,13.351,-20.579,47.489,-0.206,16.232,12.68,7.098,6.06,18.479,-14.856,8.621,-83.272,-6.342,-39.676
1.1253553999999895,-2.224,-7.172,-18.435,1.133,42.408,31.123,-0.804,19.929,5.949,15.263,11.658,12.689,9.84,-15.339,12.042,0.017,-32.854,32.585,-14.038,9.556,2.421,-5.205,-7.778,9.751,-22.014,0.928,-92.41,-13.508,-44.76
1.1401871000002757,-2.222,-7.677,-28.151,6.255,46.977,38.264,1.246,30.667,10.553,18.834,17.282,13.188,11.879,-13.787,12.542,-0.495,-28.723,27.429,-15.561,5.448,4.468,-4.687,-8.283,8.205,-27.627,0.927,-87.195,-17.593,-49.838
1.140246400000251,4.953,-3.571,-31.197,5.737,47.442,44.373,2.781,30.124,16.69,21.889,20.338,16.249,12.38,-11.212,16.628,2.579,-30.231,25.353,-13.496,5.443,12.148,-2.121,-9.299,5.635,-29.649,1.951,-82.497,-16.551,-47.227
1.1552333000004182,5.972,-6.641,-26.042,3.17,39.71,33.058,12.512,16.774,11.038,15.719,12.121,12.134,7.244,-16.324,11.488,-1.009,-35.836,24.815,-13.483,9.023,13.673,-6.217,-13.388,2.043,-30.131,1.436,-88.05,-17.046,-44.106
1.1552964000002248,3.917,-4.586,-19.869,11.363,48.379,26.878,4.815,19.319,6.929,11.605,11.084,8.024,6.725,-12.721,10.452,-3.57,-28.628,28.889,-9.883,9.527,15.196,-5.187,-9.789,6.14,-27.027,1.947,-87.449,-18.566,-45.598
1.1702302000003328,4.938,4.641,-16.775,18.524,56.016,32.486,-7.485,23.91,8.459,12.618,12.61,8.528,6.718,-0.413,13.003,-2.542,-21.427,29.884,-8.849,7.468,17.742,0.454,-5.168,11.769,-20.853,2.458,-78.653,-8.814,-40.43
1.1702925000004143,5.445,8.734,-9.586,23.629,53.398,35.015,-0.305,19.788,10.5,15.167,10.548,11.593,6.199,6.76,10.429,-1.515,-18.332,33.953,-8.84,8.997,20.798,-1.083,-3.626,14.831,-13.66,7.066,-76.525,5.027,-28.606
1.1856141000002935,4.927,8.213,-2.404,28.728,56.419,35.492,1.744,23.354,13.051,14.127,13.099,14.143,10.291,8.802,12.467,0.024,-9.604,43.14,-7.294,8.476,24.876,-4.668,-3.622,16.865,-11.084,9.62,-79.01,5.535,-23.967
1.1992274000003817,3.898,5.131,-5.988,17.941,56.362,35.457,-6.454,30.503,15.599,13.088,17.185,15.666,12.843,9.306,13.992,6.171,-3.447,46.171,-7.287,7.443,23.314,-3.127,-6.693,11.725,-15.684,3.975,-80.468,-2.156,-26.504
1.1992856000001666,3.382,-2.046,-14.691,5.115,56.306,34.397,-1.837,27.399,15.071,20.76,19.729,20.261,13.342,5.198,10.904,12.825,-5.493,45.1,-6.767,12.558,21.754,-0.562,-4.637,6.078,-22.328,1.922,-80.387,-5.74,-31.601
1.2143493000003218,2.866,-5.63,-20.312,8.697,65.471,37.949,6.874,23.273,10.445,23.813,21.246,23.315,14.353,-5.566,12.43,13.325,-11.123,43.518,-6.248,12.546,27.368,-2.099,-5.657,4.535,-29.478,2.945,-80.307,-9.32,-39.254
1.2160655000002407,1.838,-4.088,-20.291,11.249,62.844,39.96,8.916,21.713,2.75,9.957,15.59,18.168,9.216,-16.831,12.418,11.262,-18.284,36.815,-8.803,6.898,27.34,-2.609,-13.848,1.457,-35.597,0.38,-78.177,-13.409,-42.289
1.229331000000002,5.935,3.601,-11.562,13.287,60.22,41.457,4.297,24.765,6.846,7.898,16.086,18.662,9.719,-16.814,11.893,16.374,-17.241,38.827,-3.159,13.039,28.85,6.103,-4.1,9.652,-28.389,7.552,-70.927,-3.15,-35.586
1.229395199999999,13.101,15.38,-2.841,25.569,77.578,54.223,0.706,32.937,19.647,24.796,28.366,28.378,19.955,-10.65,20.078,22.505,-8.002,49.547,7.603,21.223,38.555,17.88,14.347,26.036,-12.991,20.865,-59.585,12.223,-25.305
1.2444212000000334,11.551,16.902,-11.035,22.982,78.525,56.218,13.513,31.88,16.553,22.209,25.776,25.275,19.423,-3.979,21.595,19.921,-12.092,46.936,6.058,15.054,36.467,16.325,9.722,23.449,-11.441,18.282,-59.013,10.674,-24.767
1.244485700000041,4.88,5.614,-22.295,7.078,62.565,42.33,21.697,21.602,11.414,10.916,16.528,19.102,14.281,6.271,11.327,16.828,-19.765,38.692,-0.608,9.403,29.771,5.551,0.491,11.642,-17.577,8.018,-66.639,0.929,-31.402
1.2593461000001298,3.85,1.51,-15.612,9.632,68.65,41.775,4.769,23.117,23.185,19.615,22.66,25.743,20.926,9.339,13.365,21.421,-12.573,46.338,4.003,15.029,31.79,6.057,4.076,14.705,-13.461,8.01,-66.572,-1.633,-31.883
1.259406200000285,3.846,4.583,-8.937,17.307,76.266,46.344,1.69,30.266,22.65,20.107,22.637,25.718,19.881,0.108,17.962,23.449,-7.437,52.951,5.024,15.527,30.221,10.662,3.56,19.301,-8.325,13.125,-63.944,-2.656,-29.29
1.2743059000003996,-3.33,-0.033,-14.563,8.581,61.845,33.49,12.959,28.187,4.697,3.694,8.27,11.347,6.541,-8.089,6.161,12.667,-17.676,44.702,-4.203,6.802,21.482,2.454,-1.054,12.621,-14.976,12.087,-67.466,-5.728,-33.871
1.2761386000001949,-9.986,-3.107,-16.598,7.035,57.172,27.309,5.262,24.572,3.667,2.665,2.626,4.676,2.948,-10.13,-3.066,-0.153,-25.343,36.46,-10.346,-0.377,17.874,-4.72,-4.127,7.486,-20.597,7.977,-68.936,-4.185,-33.837
1.289453400000184,-6.903,5.093,-7.872,20.348,72.485,37.015,11.916,27.621,13.91,11.884,6.722,7.233,8.581,-9.608,0.011,-1.177,-22.756,41.034,-8.286,0.135,18.369,0.92,-3.098,12.601,-12.379,10.018,-63.231,4.529,-19.971
1.289518400000361,-0.236,13.285,-2.229,26.476,84.707,40.052,34.958,34.766,16.457,15.458,11.326,9.787,12.158,-4.475,1.035,3.434,-19.659,51.752,-3.667,5.258,21.937,6.554,5.614,21.298,-1.608,17.18,-56.508,12.721,-12.779
1.3044684000001325,-1.772,10.198,-1.202,21.326,84.11,35.914,22.628,39.342,17.466,18.517,13.876,12.339,12.658,-6.008,0.522,4.968,-22.201,56.311,-3.151,5.253,21.402,4.498,7.657,18.203,-3.656,14.089,-54.915,9.122,-20.451
1.3045324000004257,-3.82,5.577,-1.201,15.669,75.829,34.341,4.162,32.643,13.862,17.986,13.862,14.888,15.207,-11.125,3.595,7.012,-23.716,54.205,-4.173,3.711,14.721,5.006,2.014,11.012,-7.751,5.366,-55.372,2.453,-21.455
1.3197566000003462,5.406,10.182,0.337,19.24,75.754,39.429,11.33,28.512,10.262,17.968,18.459,19.484,19.291,-4.966,11.276,14.178,-19.082,59.274,0.954,11.392,19.829,12.686,9.185,20.735,1.991,13.557,-48.145,10.647,-9.138
1.319817100000364,9.499,15.295,1.362,22.807,86.436,45.538,3.122,32.069,12.813,21.024,22.539,23.563,18.759,-4.449,16.388,20.823,-21.112,62.801,4.54,14.454,28.519,15.235,12.249,27.374,8.136,22.765,-39.899,17.297,-7.592
1.3344363000001067,-2.294,5.546,-8.886,8.439,80.202,35.246,-11.738,23.84,5.628,9.22,12.27,16.367,10.031,-17.252,10.736,15.679,-32.361,53.517,-5.711,2.144,15.682,5.998,-4.157,10.441,-5.192,12.497,-44.47,5.496,-25.515
1.3361660000000484,-7.415,-3.169,-20.66,-2.84,64.24,21.891,1.082,15.62,-3.599,-4.109,4.574,11.228,5.922,-11.599,2.016,7.979,-30.792,54.488,-14.415,-3.493,4.908,-2.717,-10.3,1.209,-13.383,5.312,-50.574,0.88,-31.125
1.349504700000125,-4.846,0.933,-13.467,7.409,65.713,25.967,11.839,21.239,4.601,3.579,9.18,19.413,12.577,8.392,-1.572,11.045,-17.441,68.778,-8.253,3.17,10.026,-2.715,-4.655,9.405,-5.685,11.454,-45.912,10.613,-17.774
1.3645541000000776,-13.55,-3.679,-7.818,7.914,67.184,26.454,7.729,10.972,6.646,3.576,4.047,17.345,12.564,6.847,-5.669,13.083,-22.035,68.709,-3.634,3.167,5.918,-1.175,-8.236,3.247,-7.217,7.344,-45.866,1.893,-23.392
1.3646194000002652,-20.197,-16.483,-22.155,-4.902,54.822,17.206,6.696,-3.896,-1.558,-6.162,-4.154,8.106,7.428,-11.603,-7.2,6.922,-35.333,64.03,-6.191,2.139,-1.773,-2.198,-10.789,-8.027,-12.845,-1.885,-51.968,-13.99,-45.397
1.3795200000004115,-11.979,-10.831,-22.133,3.3,55.279,22.312,2.079,13.526,7.153,3.578,5.072,14.245,10.495,-26.448,-1.558,6.916,-34.785,72.675,-0.55,6.748,3.352,0.365,-5.143,0.178,-3.611,2.728,-48.33,-7.829,-40.229
1.3795823000000382,-5.82,2.5,-6.229,12.518,64.958,23.314,6.175,25.296,15.855,13.309,10.703,16.28,12.533,-36.156,1.006,7.933,-36.287,74.139,8.16,5.717,4.374,1.39,-4.626,5.301,1.516,5.799,-40.085,0.889,-23.283
1.3944872000001851,-7.351,0.448,-7.76,4.309,61.819,8.434,16.927,7.852,5.593,3.561,3.007,2.432,3.812,-35.095,-2.069,0.241,-49.058,68.942,5.078,3.149,-0.242,-1.686,-7.695,0.173,-4.121,2.207,-33.385,-0.649,-26.845
1.3945432000000437,-3.757,1.472,-10.314,10.452,60.733,11.499,7.689,10.918,1.489,3.558,5.566,1.405,1.759,-21.228,0.494,-2.321,-52.083,75.533,1.487,6.22,2.32,-0.659,-5.638,6.32,3.568,7.84,-24.13,8.573,-24.257
1.4095804000003227,4.443,14.279,3.017,21.713,68.869,24.808,-0.516,26.789,6.099,12.263,14.269,8.063,7.905,-10.96,3.568,-0.27,-46.908,80.068,2.51,5.702,3.855,-0.659,-6.145,8.876,13.298,11.419,-18.47,22.909,-6.814
1.4096426000000974,3.927,17.338,6.6,10.932,67.775,18.635,5.633,12.417,0.969,3.03,5.546,-2.191,2.261,-17.097,-2.584,-8.979,-54.546,73.328,-5.69,-0.964,-3.834,-11.416,-16.385,-5.478,2.527,0.649,-22.55,20.325,-6.295
1.4245612000004257,-2.737,12.198,3.519,7.848,63.097,10.932,-2.058,3.696,-2.105,-7.22,-6.755,-14.484,-7.987,-32.449,-10.266,-19.216,-60.639,70.693,-17.979,-7.623,-14.076,-23.7,-27.639,-13.669,-9.259,-7.037,-28.675,10.058,-14.486
1.4246283000002222,-5.296,9.624,11.713,21.672,63.034,10.921,-5.129,17.012,0.971,-7.212,-9.31,-10.884,-4.905,-38.564,-12.305,-20.221,-55.968,74.209,-20.523,-10.177,-16.623,-27.263,-30.685,-14.168,-12.324,-6.005,-32.233,4.925,-12.422
1.439947000000302,-4.779,5.004,13.238,13.454,56.311,5.275,15.368,13.921,-1.592,-10.279,-9.813,-7.286,-0.802,-30.841,-10.755,-20.201,-59.498,77.208,-17.941,-7.605,-13.021,-24.674,-28.605,-19.277,-15.897,-5.999,-29.127,1.334,-15.484
1.4400108000004366,-3.237,3.462,4.515,3.194,53.693,5.782,17.914,8.784,0.459,-7.195,-5.705,-4.718,-0.801,-20.052,-8.183,-17.107,-61.487,81.742,-13.824,-2.475,-10.446,-19.014,-23.454,-17.208,-16.906,-3.431,-20.901,2.357,-20.591
1.454554900000403,3.939,15.241,5.023,21.634,65.422,17.047,2.015,25.682,11.729,8.182,7.109,4.509,8.934,-10.298,-2.54,-6.844,-50.668,90.369,-5.101,4.7,-5.825,-9.261,-12.672,-4.896,-11.254,2.72,-12.683,12.601,-14.423
1.4546215000000302,8.545,22.398,9.117,31.858,69.967,20.103,7.648,30.779,14.791,12.784,12.737,10.652,16.609,-9.263,2.074,-0.177,-50.105,95.402,2.076,12.38,1.353,-0.543,-6.511,-1.817,-6.632,6.303,-7.035,19.248,-13.384
1.4696467000003395,3.926,15.716,5.009,14.92,61.188,13.936,17.887,15.379,7.604,5.599,5.552,6.543,8.396,-23.598,0.535,-1.201,-60.813,91.72,2.074,12.368,-0.185,-1.567,-8.554,-10.012,-5.601,5.272,-8.565,14.106,-21.567
1.4697129000001041,-2.225,8.528,-2.681,3.635,54.979,11.36,7.11,9.728,3.498,3.544,1.448,3.462,5.313,-39.456,-4.077,-3.762,-58.191,92.653,2.584,9.794,-4.283,-7.713,-11.107,-15.125,-5.083,0.144,-16.753,3.846,-24.107
1.484624100000019,-4.272,2.884,-8.313,2.094,52.875,10.324,-5.192,9.206,1.445,5.59,1.959,7.045,15.042,-39.929,-2.023,0.853,-48.911,102.807,8.729,14.907,-0.693,-5.144,-8.534,-14.085,-3.028,-0.881,-17.249,-0.769,-24.083
1.4846934000001966,-1.194,-1.217,-12.403,-3.543,50.773,8.777,-7.236,3.562,1.444,7.121,2.469,13.698,19.638,-28.106,4.127,10.074,-49.374,102.192,11.282,19.503,2.894,1.009,-3.915,-12.534,3.635,4.243,-10.571,0.256,-26.108
1.4996323000000302,4.955,1.345,-14.44,0.046,55.333,15.428,-10.815,3.558,9.639,12.75,9.127,17.783,16.544,-8.098,7.196,11.088,-53.423,95.942,8.709,17.946,2.891,-4.115,-1.35,-10.985,10.803,1.165,-6.975,-0.768,-26.082
1.499692700000196,6.486,2.881,-16.987,10.292,55.278,20.536,-16.44,9.19,12.704,16.835,14.241,15.716,14.478,4.718,6.164,3.905,-53.882,98.92,6.651,15.879,5.45,-8.209,-4.422,-7.9,13.866,-2.422,-3.382,-2.817,-27.593
1.5146741000003203,2.894,-2.757,-16.97,5.159,41.902,9.244,-11.813,6.107,0.396,7.085,7.567,10.577,12.415,-5.021,4.109,1.339,-54.853,97.284,3.059,15.351,3.907,-2.566,-4.418,-4.818,17.951,5.777,-1.329,1.284,-27.053
1.5147477000000436,4.94,-0.705,-12.343,-6.117,32.639,0.526,-3.604,-0.047,-5.753,-1.632,3.973,10.054,11.89,-19.873,6.154,2.875,-55.823,91.039,-0.531,14.311,1.342,-4.612,-2.364,-7.375,21.519,8.333,-0.303,4.357,-21.903
1.5296743000003516,9.546,3.906,-12.843,-0.988,36.705,11.796,-10.26,1.49,2.45,5.03,11.653,12.093,13.927,-19.34,10.246,2.36,-54.742,91.973,-0.018,12.76,4.927,-11.268,-6.973,-13.003,14.325,1.665,3.796,-0.77,-21.881
1.5447486000002755,9.536,-0.708,-22.051,2.599,43.328,18.957,-14.348,8.149,5.521,10.66,12.154,11.569,11.864,-16.76,9.212,0.308,-58.274,88.807,-2.579,12.747,5.946,-8.695,-9.015,-11.966,8.163,4.737,1.743,-4.356,-26.982
1.5448139000000083,7.99,-5.831,-25.103,-9.699,46.871,6.13,1.547,7.628,1.93,5.014,5.482,11.557,8.266,-19.304,6.129,1.845,-60.777,83.083,-0.528,16.321,6.965,-1.514,-0.297,-1.707,17.377,11.904,-1.333,0.259,-23.369
1.5597106000000167,8.494,-1.726,-15.344,-14.812,48.873,-2.073,1.034,3.01,2.953,2.96,8.038,14.107,10.819,-12.113,8.684,6.966,-51.495,90.684,12.281,19.89,15.155,5.66,8.413,10.59,31.192,14.966,9.939,8.456,-12.587
1.5597674000000552,11.047,4.423,-9.181,-4.551,49.337,4.077,-18.435,4.031,6.023,5.519,10.079,15.63,13.37,2.244,10.212,10.545,-39.66,97.253,16.367,20.895,17.701,12.314,10.454,12.116,33.21,19.562,17.102,16.132,-4.89
1.5758119000001898,11.549,6.468,-12.246,0.577,51.337,6.634,-12.269,7.613,6.017,5.001,5.971,13.565,12.332,8.902,7.128,8.998,-40.133,93.058,6.617,22.411,14.61,8.203,7.369,2.882,29.59,17.493,10.425,15.604,-7.447
1.5758788000002824,7.951,6.974,-10.697,-0.961,52.822,4.578,0.551,5.557,8.061,5.508,8.014,12.015,14.369,3.77,6.096,5.915,-45.216,91.94,4.561,21.876,16.645,1.023,0.19,-1.219,24.95,9.279,9.39,7.903,-11.538
1.5897804000001088,11.017,10.553,0.073,7.237,53.794,10.722,-9.183,9.137,13.176,11.65,15.69,16.101,19.99,-2.894,11.726,6.934,-41.584,91.336,7.63,21.342,19.702,3.583,-2.372,2.881,21.851,11.831,15.016,11.994,-3.329
1.5915068000003885,22.277,21.813,9.806,22.599,60.913,22.494,-3.027,25.01,19.822,20.348,22.847,23.77,22.019,-4.428,18.886,14.099,-35.395,89.195,7.11,26.956,24.293,6.654,2.754,2.366,21.829,18.479,20.124,24.79,9.482
1.604777600000034,22.767,24.353,9.797,24.626,60.339,20.422,16.444,29.083,17.753,19.815,24.361,23.234,20.46,-10.571,20.404,16.134,-40.483,85.52,3.517,23.856,25.805,2.036,-1.86,-5.834,13.611,12.825,23.177,20.666,1.275
1.6048575000004348,9.424,7.422,-0.459,9.232,44.91,6.569,1.571,14.197,6.465,7.5,15.628,15.013,17.366,-26.955,12.187,5.36,-53.25,71.602,-4.684,12.049,16.558,-6.163,-16.715,-17.611,-1.772,2.054,15.47,3.227,-19.218
1.619833700000072,6.853,0.242,-10.193,-1.024,42.816,8.1,-18.923,13.158,5.946,6.98,12.538,16.023,15.812,-30.514,7.564,1.256,-53.709,64.358,-4.167,17.16,14.492,-6.669,-15.674,-22.716,-4.844,2.052,11.356,-1.899,-21.761
1.619896200000312,17.092,14.075,-8.646,3.076,56.605,23.461,-4.047,25.44,13.625,18.244,24.309,26.253,20.919,-17.163,15.241,12.013,-42.897,77.101,7.621,28.413,26.773,2.559,-1.313,-12.448,3.87,11.784,22.103,6.812,-14.054
1.6347964000001411,16.05,14.06,-4.026,4.097,52.45,17.802,7.74,14.657,7.463,12.078,23.26,23.665,22.947,-13.56,18.812,12.001,-43.366,77.537,6.076,20.7,25.209,4.606,-0.288,-8.849,3.353,12.284,22.593,8.855,-19.163
1.6348570000000109,3.227,-1.323,-8.121,-3.079,37.541,2.415,-9.174,-2.264,-0.741,-3.816,7.867,9.809,13.703,-13.034,5.473,-0.306,-49.471,64.651,-3.151,12.483,12.889,-4.108,-11.046,-20.111,-1.773,3.051,8.226,-0.376,-24.267
1.6498238000003767,1.687,0.215,-9.137,-3.588,43.138,5.486,-19.411,5.423,3.871,1.311,7.859,10.312,12.665,-4.312,-0.68,-0.306,-40.712,71.247,1.975,17.593,16.462,-1.03,-7.449,-16.505,5.401,4.584,7.193,-0.375,-16.046
1.6516642000001411,10.394,11.486,-2.468,6.149,52.317,13.678,-10.17,18.737,5.916,10.019,16.561,17.986,19.824,-9.431,8.542,6.866,-31.962,80.909,10.17,21.162,24.643,11.267,6.904,1.443,14.617,15.338,16.919,14.482,-5.784
1.6648729000003186,8.847,10.962,1.121,11.779,43.555,11.615,-6.061,16.669,1.812,2.837,11.933,11.82,13.144,-26.84,10.071,1.224,-36.028,74.168,6.061,20.628,21.032,9.718,5.872,3.49,9.48,16.348,19.464,21.64,-1.167
1.6799653000002763,1.666,9.414,-0.417,5.619,34.803,10.066,-6.568,9.993,2.322,0.272,5.261,4.636,5.447,-26.813,1.864,-5.949,-38.042,69.484,2.469,19.583,16.4,1.512,-3.355,-2.148,5.372,10.696,17.908,16.495,-2.191
1.680028300000231,6.787,13.503,3.681,6.126,42.965,12.106,2.148,9.47,4.881,5.908,10.379,11.292,14.15,-11.929,4.423,-1.845,-33.905,71.976,6.053,19.563,19.457,5.609,0.746,-1.122,24.834,11.71,17.378,17.503,-2.701
1.6800684000004367,14.465,16.564,11.875,17.903,55.217,15.68,3.683,15.608,9.999,8.976,19.078,17.94,21.821,-2.183,13.64,5.842,-30.285,70.879,9.633,23.642,25.073,12.263,6.893,-1.633,42.228,14.26,20.434,20.047,3.45
1.6952853000002506,10.352,16.547,10.326,15.323,52.6,20.275,-10.665,18.154,14.088,10.503,19.059,15.873,18.213,-3.206,13.627,5.323,-30.767,64.66,6.549,23.619,23.511,8.152,1.251,-5.217,25.792,12.708,22.463,15.416,0.372
1.695346900000004,5.219,10.383,1.094,1.988,41.789,17.693,-13.216,13.525,11.0,11.005,12.892,14.833,17.17,-12.936,7.465,-0.317,-35.347,56.399,2.444,16.935,18.365,3.021,-1.824,-7.774,8.86,9.622,16.805,11.302,-10.387
1.7098934000000554,9.824,6.274,3.142,10.183,48.407,13.064,4.728,20.172,16.112,12.531,16.466,21.478,23.301,-17.534,8.995,3.781,-33.262,56.855,9.102,19.992,22.445,9.678,5.862,-4.692,20.634,12.174,15.764,11.291,-0.13
1.7116047000004073,14.425,11.391,16.459,25.03,65.265,18.687,15.994,35.521,29.928,19.179,27.208,30.678,29.425,-6.246,20.257,16.073,-18.885,64.995,17.29,28.169,29.082,20.427,15.078,5.559,31.372,20.871,23.945,12.304,14.727
1.7249518000003263,12.361,10.355,18.492,15.271,65.2,22.767,9.83,31.387,25.288,19.159,26.668,30.647,26.834,1.957,22.798,15.545,-14.767,65.442,14.198,24.042,22.393,19.894,15.063,6.065,21.606,22.387,24.945,11.268,2.929
1.7250169000003552,10.3,1.635,11.813,5.522,62.573,14.035,-2.475,20.597,8.868,9.919,18.957,22.42,19.123,-1.631,10.48,5.283,-26.536,57.692,7.524,18.383,13.149,13.214,6.339,-2.65,12.876,13.655,18.26,5.109,-7.32
1.7400167000000692,11.826,5.22,14.875,17.811,73.781,8.897,-10.157,22.113,9.884,10.933,21.499,20.86,21.665,-4.191,9.957,8.352,-29.071,53.536,7.517,21.438,14.161,13.713,4.283,-1.11,14.912,10.055,19.779,3.567,2.421
1.7549786000004133,16.425,15.461,28.18,26.503,80.88,11.45,-6.561,15.944,15.51,17.07,25.576,25.45,25.229,-7.773,20.705,14.491,-23.406,52.458,9.558,23.466,15.684,18.823,11.451,3.502,20.532,15.681,26.419,14.321,9.079
1.755041600000368,15.897,18.007,44.034,21.866,78.75,4.266,6.766,9.78,8.834,8.856,20.428,20.814,17.52,-19.548,15.562,8.329,-23.383,54.455,12.11,21.906,10.545,20.853,14.514,4.01,18.975,21.3,25.881,23.016,13.168
1.7699995000002673,13.831,20.038,55.261,19.282,77.646,-3.423,14.443,16.43,5.751,2.187,16.821,16.183,12.379,-27.213,8.374,6.271,-21.822,56.962,15.172,21.884,6.436,22.369,15.524,13.74,12.808,24.353,24.83,26.067,22.889
1.7700563000003058,19.965,26.166,65.451,21.824,81.155,5.802,0.084,16.926,10.869,9.87,20.903,21.802,13.904,-22.575,19.124,11.9,-19.239,54.855,16.182,24.423,6.429,25.933,20.631,20.899,22.529,29.452,29.928,32.189,34.649
1.78506600000037,23.532,30.75,84.854,28.463,90.295,14.506,-18.359,14.86,9.833,11.909,21.394,21.78,12.865,-12.819,20.642,8.815,-24.343,49.677,15.141,25.936,3.861,25.907,21.123,14.73,35.314,30.447,33.997,35.743,47.422
1.7851345000003676,16.848,29.695,90.916,33.557,90.205,5.27,-16.803,23.554,0.09,3.7,14.713,11.512,8.241,-5.634,7.813,-1.44,-27.392,42.455,10.003,19.762,-3.827,21.27,14.954,13.691,18.373,25.806,31.401,31.609,46.35
1.8001674000001913,14.27,25.567,69.309,26.864,76.283,-2.42,-5.516,16.871,-5.034,-0.914,7.526,4.84,2.598,-9.214,5.244,-9.636,-26.34,39.339,5.382,13.595,-10.995,17.663,13.915,19.313,6.572,23.731,30.858,27.991,30.422
1.8002321000003576,22.452,25.541,57.456,20.689,78.768,7.316,-3.973,5.583,3.681,4.722,12.641,9.959,4.644,-15.865,10.874,-8.089,-25.289,44.935,9.475,18.192,-14.058,21.232,20.048,21.343,34.23,29.342,36.462,34.111,33.466
1.8154084000002513,26.528,30.639,60.473,23.23,93.034,20.629,-8.068,21.459,16.485,15.988,24.924,19.17,18.472,-18.923,14.962,3.702,-21.166,49.501,13.564,23.297,-14.557,26.846,22.59,22.346,45.978,32.899,37.963,37.15,44.191
1.8154662000001736,20.866,25.997,37.358,21.158,84.231,17.022,-8.572,30.147,13.907,15.46,24.387,17.102,19.991,-28.638,14.434,1.137,-22.169,41.767,5.353,17.126,-23.251,16.573,12.321,13.614,16.731,24.669,29.215,23.281,22.117
1.8300650000001042,12.136,12.139,5.046,12.939,67.241,4.197,-4.465,7.575,-0.964,1.1,12.067,6.839,8.187,-33.22,6.223,-14.234,-27.782,34.553,-3.874,10.449,-36.036,3.748,-1.011,-3.306,3.906,12.862,22.526,6.351,-5.569
1.8301217000002907,11.1,9.565,0.43,7.291,71.272,6.242,-1.899,5.006,-3.525,1.611,14.616,9.906,11.765,-11.67,5.192,-7.56,-22.119,38.617,0.229,15.049,-37.024,9.892,2.064,1.309,22.346,13.361,29.676,7.37,-4.027
1.8451550000004318,16.724,14.167,-3.669,5.235,81.447,17.507,-4.459,26.006,10.823,14.417,23.823,21.679,22.0,6.273,15.433,7.817,-12.875,42.164,6.889,21.182,-29.815,20.129,16.406,18.213,30.52,20.52,35.282,15.047,-1.974
1.8452181000002383,9.022,4.931,-26.719,1.643,74.193,10.829,-3.43,18.807,10.3,6.718,14.066,16.534,14.293,-5.004,12.856,-3.974,-17.986,35.974,1.246,15.013,-37.982,13.448,14.341,13.072,19.731,15.889,25.0,7.86,-18.366
1.8603016000001844,-8.405,-12.493,-48.209,-10.142,56.188,-4.551,-0.352,-6.827,-7.641,-10.707,-3.367,-1.413,0.447,-21.905,-3.038,-23.95,-27.702,26.205,-8.489,2.703,-55.363,1.14,0.494,-0.261,10.49,4.602,12.68,-8.542,-37.303
1.8603693000000021,-9.421,-15.554,-57.895,-19.353,51.521,0.577,-5.475,-7.845,-10.195,-10.184,-5.413,-7.56,-3.14,-28.544,-6.109,-25.463,-27.674,23.105,-8.993,0.651,-59.918,-2.448,2.543,2.301,10.479,5.11,11.643,-12.12,-46.487
1.875177800000074,2.884,-4.268,-53.226,-9.6,64.278,14.409,-5.982,6.508,3.648,1.097,4.327,0.133,3.011,-28.515,1.069,-20.826,-22.011,31.278,-3.861,8.335,-55.76,3.702,14.323,11.52,19.178,13.814,16.242,0.7,-38.756
1.8752333000002182,4.418,4.446,-39.853,4.242,71.898,13.37,2.733,13.674,5.181,5.194,10.982,7.817,10.18,-23.363,3.118,-17.219,-14.816,37.907,-0.271,12.937,-58.265,11.896,14.821,16.632,26.844,16.362,22.373,9.409,-28.471
1.8902249000002485,3.901,6.491,-39.301,9.361,68.752,9.258,0.169,19.295,1.59,3.14,9.434,7.809,8.633,-26.414,4.651,-13.104,-13.265,32.746,-0.783,11.899,-62.818,9.835,9.171,15.078,26.305,16.345,27.474,5.813,-35.102
1.8902859000004355,11.582,10.07,-47.971,14.475,70.22,11.298,-5.467,21.325,4.15,0.575,8.4,6.265,2.989,-35.097,5.159,-14.115,-18.887,26.566,-2.831,8.814,-64.804,5.214,8.137,7.378,22.692,15.817,28.983,4.783,-40.19
1.9052699000003486,8.496,10.06,-50.485,8.313,72.199,8.725,3.248,10.546,-2.002,-1.475,8.392,5.234,2.474,-29.426,2.08,-14.101,-19.893,25.515,-3.341,3.169,-70.375,6.233,5.055,4.297,20.108,14.264,26.393,5.802,-34.002
1.9053367999999864,0.291,7.489,-54.02,-7.065,67.004,4.106,5.806,0.801,-9.172,-3.01,4.797,3.179,3.496,-17.101,1.053,-14.087,-13.213,26.001,-1.8,0.605,-75.428,4.69,3.001,8.904,18.551,14.762,23.805,4.772,-36.018
1.9193411000001106,9.512,13.117,-62.675,-0.91,70.523,10.249,-7.519,5.923,2.62,1.604,8.891,6.762,6.566,-14.011,7.2,-14.073,-9.101,29.049,2.3,6.752,-72.791,6.735,9.146,13.505,23.655,16.796,27.367,11.939,-35.469
1.9194039000003613,17.187,22.325,-68.76,17.021,80.187,19.46,-16.221,18.725,11.839,12.873,19.128,14.952,13.22,-9.898,10.779,-5.862,-4.481,33.631,7.933,13.405,-69.132,14.925,16.309,19.64,32.853,18.316,29.901,19.612,-22.626
1.9346540000001369,8.461,16.155,-72.79,10.857,78.057,21.49,-9.033,19.219,3.63,12.86,17.06,14.425,14.743,-1.179,7.694,-0.733,1.159,34.11,10.487,12.367,-71.624,14.398,17.317,21.669,34.357,21.372,25.261,12.42,-25.165
1.949305600000116,7.428,6.405,-73.23,0.087,71.831,20.956,7.883,12.54,1.065,4.65,11.408,11.337,11.655,4.458,7.174,-4.318,2.694,35.612,9.964,11.33,-73.602,13.359,16.275,19.598,28.688,21.863,26.26,7.285,-36.923
1.9493612000001121,14.593,9.985,-72.132,7.26,78.932,26.571,14.022,17.65,12.335,12.33,18.568,17.986,14.717,9.576,12.803,0.809,6.79,37.114,13.54,16.954,-69.43,22.567,20.357,22.14,29.683,20.816,35.968,11.376,-31.251
1.964298300000337,6.893,8.95,-76.67,7.765,83.464,31.155,-1.361,23.78,13.347,17.953,19.062,21.041,16.239,10.079,11.253,6.443,11.907,34.003,17.625,16.937,-70.897,21.007,23.411,22.63,32.215,21.82,31.833,2.143,-30.707
1.9661339000003863,-6.946,-5.403,-86.328,-7.612,71.085,25.488,-13.655,15.559,3.087,3.591,5.723,10.262,9.051,1.872,1.508,-5.858,4.722,29.358,8.386,6.162,-83.122,6.642,16.215,12.362,23.986,19.237,16.944,-12.204,-47.07
1.9794183000003613,-5.402,-7.447,-90.34,-11.703,60.768,20.34,-10.055,15.032,1.547,0.513,2.644,5.129,6.992,-2.741,2.019,-14.049,-4.504,24.206,-0.844,2.569,-88.162,3.561,8.002,8.763,19.864,13.582,15.903,-8.605,-53.171
1.9794858000000204,1.776,0.245,-85.639,-6.056,68.904,30.053,-9.02,25.775,8.718,12.808,10.838,11.271,13.133,-0.689,9.189,-4.814,-0.401,20.083,4.28,8.202,-82.95,10.73,10.555,16.439,29.065,15.618,22.035,-1.424,-46.97
1.9944593000000168,2.286,-5.391,-82.991,-5.025,77.032,40.269,-7.987,22.675,11.271,10.746,12.876,13.309,12.095,-1.713,7.643,-3.272,4.723,19.038,6.325,6.657,-82.867,9.695,13.619,15.91,30.573,16.627,19.451,-8.083,-48.972
1.9945235000000139,-0.278,-11.533,-82.909,-2.459,71.832,34.082,2.267,16.505,8.698,5.1,8.253,11.247,5.936,-0.174,3.024,-9.929,2.156,16.97,-0.342,2.04,-86.883,2.513,7.97,7.185,21.321,11.487,15.845,-14.223,-53.022
2.0094363000002886,-0.79,-1.788,-74.629,3.691,69.711,27.9,5.851,19.562,2.029,5.607,4.658,9.186,6.442,-3.248,2.509,-10.943,-3.994,9.268,-5.977,2.55,-88.845,-2.613,-0.235,2.567,17.201,7.89,16.342,-11.135,-48.87
2.0095005000002857,-2.326,4.362,-69.943,-0.923,73.739,32.995,-9.524,7.247,-8.731,0.478,2.092,2.005,5.923,-17.589,-2.617,-20.666,-14.236,-2.524,-15.704,-4.625,-92.855,-10.807,-9.969,-5.12,8.475,3.271,12.227,-10.099,-49.846
2.0244979000003696,-9.496,-3.327,-82.169,-13.218,67.006,33.474,-30.007,-5.568,-11.796,-1.571,-1.496,-4.657,-0.23,-24.744,-11.836,-32.941,-18.832,-11.743,-26.447,-14.354,-97.885,-18.481,-19.18,-13.312,-5.366,-4.417,5.043,-15.724,-57.481
2.026231100000132,-15.634,-9.472,-88.747,-17.815,56.692,21.658,-29.977,4.172,-10.76,-2.594,-5.593,-7.727,-3.816,-17.547,-12.848,-27.785,-8.567,-9.17,-20.785,-11.266,-95.738,-16.413,-16.6,-11.249,-3.311,-3.388,1.964,-19.295,-54.862
2.03959980000036,-14.081,-12.024,-87.121,-18.822,52.025,6.779,-15.602,1.094,-22.02,-16.424,-12.248,-12.33,-6.886,-15.48,-10.786,-24.171,-2.411,-5.062,-14.105,-8.181,-93.593,-10.762,-8.898,-8.677,2.84,-0.823,-1.624,-19.788,-52.245
2.0396653000002516,-16.117,-17.135,-98.305,-27.512,46.85,5.235,-26.857,-18.375,-34.805,-23.58,-17.871,-17.953,-14.564,-18.026,-16.923,-35.418,-12.142,-13.766,-21.775,-16.882,-97.086,-15.874,-12.988,-16.352,-6.385,-7.995,-9.82,-25.403,-65.513
2.054552600000079,-21.736,-15.068,-103.842,-33.12,46.803,17.526,-52.958,-14.258,-24.012,-13.31,-14.779,-17.935,-14.037,-13.909,-19.468,-35.895,-12.13,-18.876,-23.803,-16.865,-95.452,-22.006,-17.586,-19.41,-7.403,-7.987,-11.347,-27.427,-68.522
2.0546173000002455,-14.029,-5.832,-84.27,-23.866,52.392,22.631,-35.487,-1.948,-6.57,-8.174,-8.104,-10.232,-6.339,-7.236,-7.665,-22.539,3.251,-10.66,-11.996,-4.553,-80.499,-10.713,-6.297,-6.071,11.048,5.341,0.96,-11.006,-44.887
2.070562400000199,0.329,1.346,-69.329,-13.083,50.802,21.584,-2.663,-0.922,-10.149,-8.678,-2.461,-2.025,-5.308,-3.642,2.589,-13.295,9.908,-10.137,-3.787,3.136,-68.123,3.13,4.467,8.792,21.795,15.07,14.791,6.936,-27.936
2.0706323000003977,-1.208,3.907,-71.821,-5.898,49.215,31.296,-11.37,6.764,-16.287,-2.522,1.64,-0.486,-6.327,-2.102,1.049,-11.232,5.799,-15.762,-3.783,3.133,-68.055,-0.459,2.414,7.247,18.699,13.518,13.752,1.806,-33.031
2.084552800000438,-11.453,0.829,-74.823,-2.818,49.678,35.876,-28.777,12.392,-6.537,-0.982,-0.923,-4.072,-1.198,-5.686,-4.075,-13.782,6.306,-16.259,-8.39,-1.481,-72.086,-9.168,-2.712,-0.957,14.07,5.308,2.467,-9.979,-39.146
2.086251600000196,-18.102,-14.541,-77.822,-16.648,36.82,17.909,-19.527,1.621,-3.969,-7.129,-11.681,-10.215,-2.733,-9.266,-11.756,-25.039,6.812,-23.927,-15.554,-10.188,-76.112,-16.843,-8.344,-5.567,7.908,-4.432,-9.318,-14.58,-44.742
2.099567200000365,-20.133,-23.236,-79.281,-30.463,26.537,10.719,-8.236,-2.991,-13.699,-8.146,-14.743,-13.279,-7.854,-6.695,-18.404,-30.137,6.805,-31.588,-19.124,-13.252,-76.548,-24.511,-13.972,-6.586,5.851,-8.013,-14.432,-18.664,-51.869
2.1145995000001676,-12.428,-9.893,-72.542,-14.551,43.417,31.713,-3.617,10.332,-7.537,1.083,-1.92,-3.02,1.888,-2.078,-11.725,-18.324,12.434,-27.458,-17.056,-8.116,-67.25,-19.364,-9.859,-3.506,9.944,-2.37,-6.221,-12.497,-48.744
2.114664300000186,-6.268,-3.223,-71.445,-0.192,52.595,35.779,-5.663,22.105,2.717,7.23,3.205,3.131,8.034,-5.15,-3.517,-13.183,11.909,-33.578,-21.138,-8.62,-62.572,-14.221,-9.337,-6.064,7.372,-1.343,0.446,-6.849,-45.109
2.129587100000208,-14.971,-18.077,-83.156,-19.66,30.001,15.251,-16.416,11.324,-10.094,-6.61,-10.119,-11.729,-5.806,-15.903,-14.272,-29.051,0.626,-47.377,-31.875,-17.833,-71.731,-29.576,-25.209,-21.939,-5.443,-13.125,-11.85,-24.261,-54.285
2.129648200000247,-18.542,-20.62,-89.733,-25.788,21.774,14.211,-22.547,-7.643,-19.818,-18.386,-16.256,-19.402,-12.461,-21.522,-21.43,-34.145,2.163,-45.792,-32.355,-18.84,-71.147,-35.694,-28.77,-26.528,-10.048,-18.235,-17.986,-33.458,-57.305
2.144576600000164,-4.179,-5.742,-86.057,-3.22,45.831,31.616,-28.672,-0.975,-9.039,-5.56,-4.457,-7.599,-4.764,-20.989,-9.113,-19.254,13.431,-41.136,-21.052,-8.062,-57.244,-16.703,-13.372,-13.182,-3.378,-5.921,-4.648,-13.957,-47.001
2.1446366000000125,-0.076,-4.2,-83.922,-4.242,50.908,25.949,-31.205,11.321,-11.592,-4.53,-2.403,-7.592,-6.296,-24.554,-3.981,-16.161,12.393,-43.656,-17.957,-6.005,-54.112,-13.613,-11.822,-9.07,-2.35,-0.28,-3.106,-8.82,-42.856
2.159682100000282,-11.347,-12.905,-84.35,-23.705,33.439,7.48,-12.219,-4.571,-28.999,-25.53,-14.184,-17.83,-14.486,-25.042,-11.149,-25.879,9.819,-42.588,-23.575,-13.171,-56.108,-25.382,-20.519,-15.209,-9.008,-6.939,-15.911,-19.57,-45.887
2.159744800000226,-12.872,-12.892,-87.852,-25.218,33.405,11.058,-2.985,-13.788,-25.896,-22.943,-13.657,-15.251,-14.472,-18.869,-8.576,-22.779,16.469,-44.082,-20.477,-9.572,-48.367,-19.209,-15.888,-13.657,-6.95,-4.883,-15.895,-16.989,-46.353
2.174635700000181,-5.687,-10.317,-89.814,-22.632,41.569,24.367,-23.474,5.693,-11.525,-6.014,-4.934,-10.625,-10.359,-18.338,-4.469,-16.609,22.601,-47.624,-13.284,-2.902,-44.732,-9.456,-8.7,-9.544,0.23,-1.292,-10.756,-12.873,-44.77
2.1746985000004315,-5.169,-8.77,-77.428,-16.974,41.527,23.318,-26.524,12.347,-7.415,-8.057,-5.442,-7.54,-2.664,-15.245,-4.977,-15.055,28.726,-37.843,-10.71,-1.362,-44.688,-8.422,-4.593,-1.85,5.865,-0.779,-11.258,-11.836,-37.041
2.1900736000002325,-9.775,-7.225,-63.519,-6.198,42.51,18.684,-14.715,1.577,-5.359,-11.635,-7.998,-2.922,1.949,-1.91,-5.484,-11.966,35.869,-32.682,-9.674,-3.41,-40.544,-4.827,1.56,5.324,10.982,3.321,-11.759,-6.701,-27.782
2.1901357000001553,-19.499,-15.927,-76.263,-17.975,35.295,20.202,-24.434,-0.474,-7.403,-10.086,-10.039,-10.604,-5.737,0.653,-14.701,-19.639,28.661,-51.092,-16.837,-12.116,-43.578,-13.019,-7.151,-4.415,5.336,-3.343,-20.969,-15.403,-37.488
2.2046706000000995,-29.213,-25.644,-93.605,-33.326,26.039,17.108,-25.947,-3.035,-16.617,-16.736,-17.201,-19.815,-9.83,-3.958,-25.444,-33.964,17.362,-63.337,-28.603,-18.764,-48.145,-26.839,-20.464,-13.632,-6.965,-14.098,-36.829,-28.708,-52.308
2.204728900000191,-26.11,-18.959,-83.778,-17.924,37.796,12.993,-9.014,-7.131,-10.452,-14.67,-15.647,-10.573,-1.111,8.341,-20.296,-24.708,24.517,-50.978,-22.939,-12.085,-41.437,-19.127,-13.783,-2.348,-0.298,-6.911,-35.255,-18.945,-44.571
2.2198105000002215,-21.473,-10.743,-73.96,-9.709,46.979,17.078,-17.715,-4.562,0.316,-8.508,-6.922,-4.415,0.427,17.554,-15.665,-10.851,31.664,-45.292,-13.695,-10.536,-35.76,-12.448,-7.11,1.753,15.584,-2.294,-30.609,-9.705,-37.354
2.2198761000004197,-26.575,-16.88,-82.083,-25.581,35.149,16.549,-33.066,-1.484,-11.467,-17.721,-12.039,-13.12,-5.721,6.266,-20.772,-19.55,24.46,-53.955,-21.878,-18.21,-39.823,-24.219,-16.836,-12.081,10.445,-11.513,-38.776,-16.355,-46.538
2.234747700000298,-22.962,-14.814,-75.853,-21.969,37.676,11.409,-15.615,3.641,-19.652,-21.289,-15.613,-12.082,-4.178,-4.499,-16.653,-23.116,22.387,-51.34,-20.831,-12.557,-36.709,-21.633,-14.258,-7.458,2.75,-5.866,-33.614,-9.166,-40.856
2.234812200000306,-2.447,6.718,-53.236,0.595,60.18,21.132,4.381,12.859,-2.727,-7.436,-0.74,1.762,2.486,-4.494,-3.316,-5.162,33.123,-38.481,-0.318,0.776,-21.815,-3.168,0.613,12.529,15.043,7.972,-14.113,13.897,-16.737
2.2497474000001603,7.802,16.445,-43.449,8.791,69.341,28.795,3.352,16.944,9.059,-0.768,7.458,5.859,6.07,-2.953,3.347,3.04,39.237,-32.295,4.805,1.8,-12.06,1.446,3.174,13.541,20.663,6.939,-10.0,24.129,-9.548
2.2498138000000836,-0.915,7.207,-45.455,4.684,61.075,11.348,2.324,14.366,1.366,-8.452,-1.771,-1.832,1.965,-0.901,0.27,-8.746,33.563,-32.775,-5.446,-2.301,-12.56,-4.703,-4.514,3.281,7.835,3.859,-19.211,17.957,-17.735
2.2647930000002816,-4.501,7.712,-44.384,2.117,55.89,1.09,0.272,7.692,-4.783,-15.616,-5.356,-9.514,-5.209,5.76,-4.853,-16.422,26.357,-34.791,-4.416,-3.835,-11.523,-7.26,-6.558,2.254,1.167,3.343,-24.315,14.353,-18.23
2.264859500000057,5.75,16.926,-42.291,4.165,60.445,12.872,-9.462,2.561,-4.266,-15.601,-3.301,-10.53,-3.667,16.001,-3.824,-15.381,23.769,-34.244,1.736,-4.344,-5.364,-5.716,-2.966,4.813,1.678,1.802,-23.266,17.412,-16.162
2.279891200000293,8.818,14.86,-43.785,3.648,61.41,16.446,-17.137,4.608,-5.799,-12.511,-6.372,-9.494,0.435,17.522,-1.771,-15.878,22.721,-33.185,-0.315,-1.266,-3.821,-3.149,-0.401,4.296,-6.521,3.85,-18.632,19.957,-22.294
2.29486420000012,2.662,13.308,-44.766,-2.503,49.565,7.72,-21.218,1.017,-10.404,-14.548,-9.439,-13.071,-4.688,-0.427,-4.843,-19.448,18.087,-36.738,-3.901,-0.752,-5.867,-4.17,-2.962,2.755,-5.49,3.846,-19.126,18.4,-26.37
2.2949446000002354,4.196,14.319,-42.16,-4.038,40.806,6.175,-18.635,-6.157,-11.418,-19.656,-8.918,-13.058,-4.684,-16.308,-3.814,-17.892,18.581,-33.628,-3.384,-3.313,-3.812,-7.752,-7.058,0.19,14.496,-0.256,-27.304,14.795,-21.733
2.3101873000000523,5.729,9.694,-41.093,0.065,46.913,8.218,-6.321,3.583,-8.333,-19.124,-8.909,-4.336,4.542,-9.119,1.313,-10.19,26.247,-22.323,0.205,1.814,-0.734,-5.695,-3.977,-1.859,17.555,0.256,-29.838,12.731,-19.662
2.3102469000000383,-0.425,8.66,-49.249,-1.472,52.502,8.21,4.443,15.363,-3.202,-13.47,-8.387,-2.794,6.075,-0.913,-0.737,-6.593,27.758,-22.813,0.717,4.886,0.291,-3.64,-2.436,-0.32,0.119,2.817,-27.759,12.206,-25.79
2.3248099000002185,-1.961,7.114,-58.421,-11.205,48.351,6.665,5.464,11.249,2.437,-11.407,-7.867,-8.427,2.483,-6.035,-2.273,-11.197,19.021,-32.524,-4.406,-3.316,-2.27,-8.248,-7.557,-0.32,-4.492,-2.821,-36.953,8.095,-33.961
2.324885400000312,-2.472,-4.676,-63.998,-22.464,44.204,-0.002,2.384,8.676,7.558,-12.933,-7.859,-5.857,5.554,-4.492,-1.759,-14.26,13.879,-33.004,-5.939,-5.362,-5.854,-13.875,-9.086,-3.394,-0.901,-9.99,-45.625,-2.671,-42.636
2.339866300000267,-6.568,-6.72,-71.107,-28.589,42.623,-2.563,5.968,8.155,6.013,-12.92,-7.339,-2.265,7.085,1.66,-6.368,-12.197,14.377,-35.02,-4.908,-0.234,-5.336,-13.861,-9.077,-4.927,-3.974,-8.956,-42.506,-8.304,-48.229
2.341729700000087,-1.95,0.971,-76.671,-22.925,44.629,1.538,10.573,-0.05,-0.653,-11.882,-8.868,-7.386,2.98,-5.002,-6.361,-15.77,8.728,-45.744,-9.002,-4.332,-5.331,-12.822,-13.166,-4.41,0.641,-6.898,-39.389,-3.172,-44.595
2.354921000000104,6.249,4.044,-68.397,-14.706,53.806,0.512,5.439,5.073,-1.164,-13.92,-8.347,-10.452,1.952,-12.169,-0.207,-21.39,6.157,-47.747,-11.555,-7.401,-6.35,-11.785,-11.104,-2.356,9.349,-5.354,-39.862,4.003,-38.402
2.354985100000249,11.878,14.798,-51.423,-7.519,62.462,-1.026,1.335,19.413,3.96,-15.955,-4.24,-7.88,2.463,-6.522,4.916,-13.684,13.324,-43.601,-4.371,0.803,1.341,-5.625,-0.847,5.843,8.828,4.898,-33.675,12.708,-32.216
2.3699711000003845,22.112,30.153,-40.613,4.784,67.522,7.172,9.531,17.344,7.03,-12.353,-0.138,-3.774,3.997,3.731,12.596,-1.887,20.482,-40.484,1.781,8.999,11.073,4.626,6.839,18.133,11.381,17.701,-24.419,23.966,-19.376
2.3700380000000223,29.774,28.586,-39.035,12.976,77.701,15.362,9.521,19.888,10.096,-5.168,6.523,4.427,7.067,12.437,18.731,4.262,27.634,-33.271,6.903,13.089,10.55,12.306,11.443,23.75,20.591,17.683,-21.833,30.602,-9.623
2.384953800000403,27.183,25.483,-36.435,12.964,85.308,18.933,1.827,37.799,17.771,-1.064,15.738,11.595,9.621,13.961,19.737,12.455,40.414,-25.041,12.531,19.223,9.515,15.368,16.042,24.751,23.644,14.591,-22.836,29.035,-10.126
2.385020000000168,26.644,27.507,-30.763,11.926,79.587,22.5,6.948,37.762,20.315,-0.551,18.283,12.608,13.71,8.312,22.278,16.541,46.009,-25.528,10.469,19.204,8.993,13.303,17.051,26.263,24.645,16.626,-21.276,24.907,-9.091
2.3999675000000025,22.519,16.209,-33.294,8.328,66.188,19.916,10.528,23.891,12.61,-3.624,11.605,9.521,13.184,4.205,20.207,6.791,40.328,-33.187,3.287,9.963,0.787,5.605,11.91,21.626,24.62,12.511,-25.354,17.71,-11.131
2.4016790000000583,13.275,1.336,-42.994,-2.439,54.851,9.65,3.345,24.892,5.937,-8.744,6.47,5.413,8.048,2.152,11.477,0.636,34.652,-40.838,-0.815,5.855,-5.361,0.477,4.214,13.407,19.985,1.74,-34.55,10.008,-21.878
2.4150172000004204,16.335,4.408,-46.025,-4.998,50.185,12.202,10.002,34.601,12.079,-5.661,13.636,11.555,13.163,-0.924,16.077,9.345,38.716,-40.798,1.747,13.021,-1.77,4.575,5.234,13.394,23.039,4.3,-30.417,9.998,-23.393
2.415078800000174,28.102,17.724,-38.294,8.839,55.258,29.608,19.213,36.103,24.362,7.664,25.406,24.864,25.445,2.15,29.381,18.045,46.874,-34.609,6.869,19.668,1.818,8.156,17.012,19.528,33.262,12.492,-17.579,17.16,-13.124
2.4300802000002477,26.024,18.731,-31.596,15.49,56.227,29.066,16.12,32.481,23.313,8.681,22.306,23.814,24.395,12.394,26.79,16.49,44.778,-38.673,6.862,16.575,-2.282,7.124,17.508,20.533,26.056,8.894,-20.635,17.655,-9.012
2.4301454000001286,16.777,9.49,-32.077,4.204,45.412,10.594,18.153,26.813,14.581,-6.184,8.964,12.52,14.637,18.017,17.541,8.276,35.0,-48.88,-0.317,10.41,-10.989,3.53,6.219,16.414,5.538,3.762,-31.885,10.978,-7.979
2.4454038000003493,16.76,9.993,-31.533,1.126,42.806,14.17,16.598,22.176,18.665,-6.69,12.029,15.581,15.135,22.61,21.11,6.731,35.477,-47.295,1.22,12.449,-12.003,2.502,9.287,13.836,3.483,6.32,-29.292,14.04,-5.922
2.4454823000000943,21.354,17.668,-29.964,10.347,51.472,29.012,4.286,24.203,25.818,4.587,21.239,19.664,18.193,31.809,26.724,12.872,42.614,-40.587,8.391,17.048,-7.892,4.549,16.962,10.236,18.849,8.362,-21.065,17.613,-10.014
2.460064500000044,20.308,14.064,-36.594,8.799,48.859,18.225,-0.329,29.814,15.034,-2.59,11.483,9.911,13.564,38.95,22.087,9.785,40.01,-42.596,3.772,10.883,-16.594,0.446,3.625,-0.532,20.367,3.231,-24.118,7.349,-19.738
2.461763400000109,17.726,9.439,-44.754,3.667,42.15,9.497,-7.501,30.809,5.285,-12.321,4.3,7.339,10.989,37.886,17.454,1.578,36.383,-46.652,-4.941,3.7,-27.336,-9.288,-8.161,-6.68,4.977,-1.383,-29.73,2.218,-22.792
2.47512770000003,20.782,14.04,-42.66,5.713,47.231,21.271,-17.74,18.995,8.354,-6.161,12.492,11.943,8.929,22.479,18.461,2.602,36.859,-47.117,-2.887,7.282,-24.234,-9.279,-0.469,-0.525,-4.249,1.692,-25.601,12.462,-18.158
2.4752008000000387,22.299,15.051,-33.909,-0.44,46.671,16.127,-1.328,7.193,-0.364,-8.204,8.381,5.271,3.797,-1.622,18.443,3.111,28.113,-51.169,-1.347,7.275,-24.21,-2.61,1.069,5.623,2.927,6.301,-21.477,17.573,-14.042
2.49015240000017,20.227,16.573,-31.825,-4.026,41.502,5.864,17.629,14.358,-8.56,-15.368,1.713,2.704,5.33,-15.453,18.424,-2.015,23.474,-53.167,-4.932,2.144,-30.846,-4.144,-5.592,4.593,11.121,6.295,-24.017,16.531,-12.491
2.505144200000359,19.182,20.655,-33.843,7.249,44.534,16.617,8.902,24.59,4.768,-8.181,10.42,8.336,12.497,-17.487,19.943,0.036,31.135,-49.527,-4.927,5.216,-33.377,-7.214,-4.562,2.027,4.963,4.752,-22.456,15.49,-11.454
2.505207900000187,13.015,11.413,-33.297,5.704,40.391,15.576,6.331,15.856,10.399,-7.66,6.312,3.717,8.386,-18.494,15.312,-1.501,29.055,-50.503,-7.996,5.723,-42.052,-9.768,-6.095,-4.123,-6.313,1.673,-24.995,4.716,-15.541
2.520198000000164,3.268,0.643,-35.313,-10.695,29.08,6.851,13.497,13.791,3.728,-13.288,-6.502,-1.922,3.767,-13.352,8.637,-12.77,17.243,-54.038,-16.185,-4.016,-53.793,-16.418,-13.773,-12.316,-5.795,-4.476,-36.754,-3.486,-24.747
2.520268700000088,2.753,2.179,-41.425,-9.147,32.637,19.652,0.164,27.609,10.897,-7.639,0.164,1.154,8.886,-7.191,7.603,-15.319,20.812,-50.398,-16.169,-5.037,-56.814,-20.501,-14.272,-10.767,-1.69,-8.57,-38.766,0.104,-25.747
2.5353909000000385,5.824,-0.385,-39.334,-2.991,31.067,17.071,-1.886,26.557,13.448,-9.681,3.238,1.665,9.902,-13.332,7.083,-9.156,30.525,-42.663,-8.468,2.653,-57.781,-18.431,-12.208,-6.657,-0.664,-8.049,-32.067,-1.433,-17.012
2.5354731000002175,4.794,-3.971,-30.586,-7.086,21.303,1.684,18.096,17.309,7.286,-17.868,-3.425,3.713,7.843,-11.781,7.589,-6.073,33.568,-37.497,-4.361,2.65,-57.724,-14.314,-10.659,-5.626,4.972,-4.967,-33.06,-3.481,-14.945
2.5503215000003365,7.863,3.206,-29.531,-4.517,31.527,16.027,16.541,20.878,15.988,-7.604,5.287,10.881,13.47,11.797,14.753,-0.944,36.608,-34.386,-0.258,4.184,-53.567,-6.615,-2.451,0.015,12.652,-1.889,-33.539,2.67,-19.541
2.550385600000027,12.466,5.764,-33.599,-0.414,42.254,27.794,3.205,21.882,20.071,-0.936,10.405,13.432,17.555,29.716,18.325,4.18,37.596,-30.765,3.328,9.816,-54.538,-1.998,5.236,6.163,15.201,1.187,-26.333,6.253,-17.985
2.565419500000189,11.941,2.172,-34.078,-2.976,29.917,16.496,7.812,20.835,9.292,-9.132,2.198,12.394,11.902,24.051,16.77,2.127,33.973,-28.685,1.788,7.756,-57.558,-4.045,5.23,3.595,17.747,4.772,-24.77,7.784,-13.356
2.5654836000003343,12.441,9.342,-35.581,1.126,24.251,14.942,11.903,29.524,9.283,-8.099,5.269,11.357,8.304,15.317,16.753,-1.461,34.451,-34.292,-1.288,3.138,-59.549,-5.065,2.151,-1.019,16.705,2.718,-27.819,13.924,-13.343
2.5793015000003834,16.527,16.505,-32.984,3.686,33.449,14.927,10.354,24.883,10.811,-5.529,9.362,8.784,9.833,18.376,18.785,-0.435,37.49,-35.795,0.763,6.209,-62.564,-2.499,0.612,2.568,11.565,0.154,-19.594,18.009,-9.743
2.5793674999999894,25.22,20.075,-21.168,5.219,39.051,14.4,14.442,16.149,7.214,-5.011,9.865,14.923,12.897,26.554,25.427,10.324,42.064,-26.025,8.959,11.838,-57.89,4.164,6.759,11.787,14.627,10.912,-5.742,27.724,2.05
2.5943372000001546,33.904,26.715,-20.122,18.022,44.647,29.755,4.182,32.527,14.379,5.24,23.176,24.642,18.007,25.503,33.598,20.56,44.583,-23.438,15.098,17.461,-52.197,13.381,16.486,17.41,19.736,21.66,-3.175,35.894,4.609
2.5943991000003734,29.259,25.664,-31.885,18.516,44.09,30.75,-11.192,37.105,19.487,5.747,25.202,19.494,16.965,11.645,29.466,14.904,36.854,-34.173,9.447,16.419,-61.879,10.806,11.347,12.782,15.105,13.953,-9.32,25.099,-8.715
2.6093745000002855,22.57,19.49,-30.829,-0.458,35.337,17.911,0.09,11.453,11.271,-5.529,12.369,13.327,11.825,7.023,23.289,7.716,33.231,-38.237,4.315,10.255,-67.965,3.623,3.651,7.646,18.164,7.28,-7.773,16.877,-12.805
2.6094481000000087,30.744,24.081,-22.088,1.592,39.912,26.603,9.824,10.417,13.821,0.112,17.479,20.998,16.936,16.75,30.438,16.418,42.419,-31.539,9.946,15.368,-60.212,9.767,11.844,12.249,29.416,15.981,-1.106,26.594,2.577
2.624328400000195,35.837,27.131,-23.091,17.472,49.094,34.261,-3.506,29.874,27.127,8.308,27.708,25.588,24.091,14.684,35.018,21.525,39.815,-32.019,11.985,22.013,-61.176,14.88,15.419,14.286,23.239,18.527,-2.129,29.641,7.185
2.6243954999999914,28.116,22.493,-24.605,16.942,42.385,25.005,-0.429,28.307,29.15,2.665,22.557,23.001,20.481,3.398,29.86,16.892,31.579,-40.697,7.875,16.355,-65.726,10.767,7.206,8.637,11.945,12.873,-4.176,22.952,-5.118
2.639278700000432,29.625,23.495,-23.556,14.364,36.195,25.492,18.015,28.279,18.874,2.662,22.022,25.539,17.387,8.518,31.879,20.462,39.744,-46.291,8.379,16.339,-62.074,11.781,10.785,9.14,12.446,13.885,1.976,21.392,-6.649
2.6393409000002066,35.743,26.033,-29.68,14.349,39.232,33.151,7.751,39.009,11.683,6.245,27.636,24.489,18.394,15.169,37.483,22.49,40.729,-48.294,10.42,19.909,-63.549,16.38,14.873,13.742,9.872,16.945,2.998,16.76,-6.13
2.6543430000001536,33.658,21.909,-34.261,3.577,37.656,34.143,-13.262,28.211,15.258,3.678,25.047,18.317,13.765,9.519,35.909,15.296,30.442,-54.394,6.311,12.204,-69.633,11.753,7.173,11.167,9.349,13.342,-1.615,10.595,-16.37
2.6544056000002456,32.087,18.301,-31.153,-1.55,32.495,30.522,-1.465,14.863,18.316,1.625,22.46,18.811,11.702,16.169,32.286,13.231,37.584,-59.462,3.231,9.63,-70.588,7.643,6.654,8.082,22.148,11.791,-0.589,15.708,-13.792
2.6693197000004147,34.105,19.307,-28.048,5.624,29.389,22.807,21.59,23.045,13.175,-0.426,23.462,21.866,14.764,29.473,33.791,18.341,50.354,-55.304,6.814,16.793,-71.03,11.221,12.283,13.197,25.712,13.829,4.022,22.352,0.054
2.6846811000000343,34.583,21.849,-24.434,8.692,33.458,27.908,18.495,31.731,15.723,2.136,26.513,25.943,17.823,30.981,37.856,23.446,52.865,-47.564,10.905,16.776,-68.91,13.771,9.709,18.307,19.538,15.352,6.58,23.867,1.59
2.6847387000002527,31.987,22.34,-22.872,7.146,37.523,38.126,4.132,26.577,23.904,7.769,28.535,31.552,20.367,31.974,38.33,23.422,56.911,-51.103,8.845,14.198,-67.304,9.659,6.625,14.702,21.568,13.8,5.036,23.33,-3.022
2.699318100000255,21.709,14.121,-31.046,4.065,25.19,23.231,2.591,19.378,15.684,-3.509,16.724,19.225,16.248,32.967,27.021,12.128,51.218,-65.397,-0.385,10.085,-80.044,1.453,2.52,7.003,17.96,7.638,-5.215,16.647,-5.58
2.6993749000002936,15.027,11.545,-29.991,7.135,15.943,11.424,2.076,22.945,9.52,-12.727,5.949,6.911,11.621,26.274,19.309,3.919,42.458,-70.454,-3.971,3.415,-89.186,0.939,0.468,8.02,13.844,7.631,-11.358,15.094,-6.599
2.7143223000002763,26.283,25.366,-13.054,25.059,36.42,31.393,-8.685,39.828,28.978,4.704,20.8,22.785,21.343,27.272,30.561,15.698,55.223,-64.236,4.742,9.56,-77.313,9.647,12.763,20.82,25.613,17.357,-1.1,27.374,1.604
2.716004000000339,32.916,28.414,-10.992,25.546,48.166,38.534,-10.725,44.399,38.171,12.896,29.488,31.984,24.395,24.683,36.678,23.367,63.877,-68.27,5.762,17.747,-71.601,10.662,18.898,25.922,27.125,15.803,1.975,27.346,7.238
2.7295034000003398,16.49,9.943,-21.74,-0.095,29.675,18.515,4.654,23.862,13.542,-4.535,11.015,9.923,8.49,6.728,20.248,7.974,49.469,-82.547,-8.588,5.946,-86.386,-1.132,4.535,13.601,13.777,2.467,-10.835,11.438,-0.454
2.72956430000022,9.813,8.396,-8.398,0.93,26.572,16.96,16.945,13.592,-1.841,-9.654,2.807,4.79,5.92,7.746,12.543,2.331,49.419,-83.489,-9.092,1.329,-87.324,-3.18,2.993,8.464,21.961,4.001,-12.361,15.012,4.67
2.7445654000002833,22.099,28.367,15.177,27.569,46.525,32.312,13.854,32.021,16.092,4.7,19.198,24.765,19.746,37.452,24.826,20.772,71.399,-71.622,8.336,15.673,-70.843,9.119,20.921,23.313,39.357,17.829,-1.59,33.953,25.669
2.744627000000037,22.589,28.851,13.625,22.931,44.942,30.231,10.254,44.285,27.346,7.257,23.79,25.765,19.726,51.247,29.924,25.874,77.475,-71.551,8.84,15.657,-70.26,11.159,22.437,25.339,30.608,16.787,-3.125,31.87,28.205
2.7593959000000723,11.295,10.379,-0.734,0.878,26.966,19.442,14.855,28.871,13.487,-2.996,9.934,10.882,9.973,40.949,18.623,11.504,64.078,-84.799,-7.051,1.809,-80.948,-0.635,4.996,6.358,13.159,3.963,-14.393,13.907,8.709
2.7594529000002694,11.284,6.271,-9.442,1.902,26.427,20.447,10.742,17.572,6.301,-7.604,5.826,9.847,7.913,28.101,12.969,7.906,57.354,-91.374,-7.556,-0.242,-78.306,-5.245,-1.157,1.229,9.048,3.446,-15.916,6.721,-1.545
2.774410800000169,21.519,17.023,-15.068,9.072,35.109,23.501,-0.54,26.263,14.492,-6.059,12.992,14.448,6.881,15.265,17.567,13.533,63.444,-87.184,0.648,4.369,-69.518,1.932,7.042,11.986,11.6,11.127,-8.215,13.886,4.092
2.7761366000004273,27.645,25.203,-11.979,10.6,35.587,20.916,-1.564,23.675,17.551,-6.053,14.516,12.896,4.825,10.639,21.648,13.52,69.528,-85.56,-0.377,5.902,-66.887,5.516,12.158,16.072,19.273,14.702,-0.522,22.069,10.747
2.789519100000234,29.155,27.227,-3.77,19.299,39.65,23.456,-0.538,13.918,13.435,-5.023,13.989,14.933,7.381,20.362,24.188,17.093,69.971,-87.524,0.136,8.969,-58.111,8.072,14.195,19.642,25.914,18.274,4.089,26.658,12.786
2.7895915000003697,32.199,29.249,-3.766,21.841,47.807,30.093,-0.537,23.638,6.762,-2.968,18.586,19.016,8.399,24.953,26.725,23.223,71.95,-86.924,7.82,12.547,-47.807,14.724,20.328,26.283,26.4,23.379,6.134,30.73,14.31
2.8045209000001705,32.679,31.781,-7.349,10.036,44.173,26.476,6.636,28.737,0.095,-3.99,20.104,18.485,7.366,21.342,26.186,22.175,74.952,-86.837,8.325,13.046,-45.71,16.246,24.406,24.719,27.911,23.868,4.591,32.748,16.345
2.804584000000432,28.548,30.212,-7.854,7.465,37.469,23.888,4.58,18.462,5.218,-1.937,17.523,15.905,10.944,20.296,25.647,20.616,71.291,-87.263,3.193,9.96,-46.688,9.058,20.796,18.547,26.858,20.77,-2.586,29.642,16.329
2.8198726000000534,26.47,24.547,-8.358,15.142,39.993,31.549,-5.159,25.616,16.996,2.164,19.042,15.376,13.495,15.665,24.597,21.108,70.708,-86.151,3.19,4.314,-43.056,4.95,17.189,18.016,21.196,16.651,-8.219,26.026,14.263
2.8199322000000393,26.956,21.961,-3.739,12.565,42.514,28.956,0.994,32.251,15.954,0.112,19.535,18.947,13.482,14.624,22.011,21.599,80.883,-84.528,6.261,4.31,-34.816,8.019,17.684,19.535,21.175,16.122,-5.136,28.561,13.737
2.8344914000003882,23.343,20.402,0.875,8.966,36.324,22.267,2.53,19.923,10.303,-2.45,15.417,19.953,15.517,29.467,19.94,25.676,83.876,-83.931,5.23,8.404,-26.584,6.987,17.154,20.028,22.691,16.618,-5.131,24.434,14.235
2.8362968000001274,16.66,12.697,-5.786,9.982,23.992,28.905,-11.817,17.342,10.292,-2.447,10.279,12.248,9.354,39.683,17.358,21.552,74.571,-86.408,0.102,1.736,-22.459,-0.193,12.014,17.959,17.545,11.478,-11.786,11.602,9.098
2.8495459000000665,9.471,3.975,-11.927,0.751,14.747,26.827,-7.707,16.812,7.721,-8.08,5.658,5.064,1.148,37.594,10.169,9.747,73.984,-89.908,-1.948,-5.438,-17.826,-1.217,7.391,12.818,17.015,7.881,-18.434,8.517,3.966
2.8645902000002934,5.875,3.971,-10.891,-8.984,14.22,17.066,6.646,2.963,5.151,-11.658,5.14,8.133,4.733,39.606,8.109,13.324,81.082,-90.843,-0.921,-0.822,-8.074,2.883,9.433,13.829,21.097,10.434,-21.49,15.681,9.597
2.8646537000004173,13.042,9.09,-10.88,-2.827,23.427,26.783,-0.533,12.181,5.146,-6.011,10.77,11.711,10.363,35.468,15.786,23.556,84.075,-90.752,2.154,2.765,3.717,6.466,17.108,22.012,23.125,14.01,-18.907,20.276,17.272
2.879565400000047,24.812,15.229,-8.308,10.496,36.724,40.588,-8.73,36.76,7.703,1.167,20.493,14.773,11.89,23.137,23.455,25.582,85.528,-91.174,9.324,4.299,20.107,14.144,24.263,30.187,28.225,20.144,-8.642,28.965,16.23
2.879626500000086,26.836,18.287,-7.787,12.534,42.322,43.109,-3.086,34.162,15.379,7.826,25.596,23.98,15.464,20.552,23.943,30.68,85.954,-92.619,10.339,8.905,31.87,17.716,23.727,30.157,30.246,24.222,-4.022,31.497,8.017
2.894554700000299,14.002,8.023,-23.148,-1.311,25.374,43.066,2.553,17.734,9.729,2.695,16.349,18.32,9.813,19.507,16.235,27.575,78.184,-103.285,-2.479,1.212,27.228,2.329,8.846,15.27,17.92,12.415,-16.314,8.924,-7.873
2.894612600000073,3.229,-1.719,-29.785,-9.506,3.319,37.388,7.161,13.105,-7.187,-13.189,3.012,0.371,1.607,15.389,7.509,8.592,69.909,-115.99,-10.673,-11.085,23.614,-9.456,-3.971,0.91,8.681,0.107,-27.568,-5.429,-16.574
2.9097112000004017,10.398,9.041,-11.312,7.922,8.951,38.375,2.031,20.264,0.505,-6.004,7.62,6.518,8.265,21.009,11.6,10.12,72.913,-112.8,-2.466,-4.926,38.96,1.312,4.23,8.082,14.82,7.791,-21.393,11.995,-5.287
2.9097740000001977,20.122,19.278,-1.055,22.258,21.238,52.681,-12.828,26.392,15.873,10.909,19.908,21.881,13.38,20.476,21.835,28.041,81.037,-110.125,3.684,3.788,52.241,10.02,14.984,16.27,18.391,15.468,-12.15,21.716,4.965
2.9246290000000954,16.003,13.624,-6.177,7.892,9.433,44.944,-11.278,13.558,1.513,-2.935,15.277,15.712,8.756,9.185,20.276,25.451,84.03,-121.286,1.119,-0.314,51.164,4.886,12.92,12.156,15.299,11.354,-16.749,15.035,3.935
2.924697500000093,13.938,15.659,1.514,-0.313,3.276,28.505,-1.533,0.736,-8.223,-14.202,9.626,13.134,9.772,15.835,18.207,22.352,90.093,-121.165,4.704,2.248,58.798,12.054,17.518,22.902,25.529,18.515,-17.756,27.827,15.714
2.9400871000002553,23.145,26.914,11.758,12.495,18.642,40.26,-9.729,10.982,6.643,4.255,18.838,23.88,14.885,33.75,24.848,36.162,100.249,-110.797,11.872,8.906,71.546,25.874,30.308,43.371,36.775,31.817,-4.419,46.243,31.58
2.94015010000021,23.635,29.961,5.087,20.679,22.21,50.466,-15.867,15.069,6.636,9.374,22.406,19.757,13.845,40.377,22.774,36.126,101.174,-117.859,8.786,3.774,68.913,20.213,29.253,41.791,33.664,27.174,-2.877,41.073,26.426
2.9546768000000156,19.0,29.931,3.032,21.171,13.478,39.144,-9.703,9.419,-2.592,-3.443,14.186,12.053,11.782,42.898,15.067,24.307,95.949,-127.987,1.093,-1.866,63.209,9.946,22.564,32.528,34.655,18.438,-12.608,36.421,20.251
2.9547346000003927,21.543,32.975,10.202,23.711,17.051,37.056,-9.693,21.193,5.095,-1.391,14.172,15.627,8.697,42.343,16.077,24.795,97.903,-124.273,2.629,0.186,67.757,14.547,25.615,40.18,42.305,23.542,-11.571,45.094,27.404
2.9696873000002597,23.058,30.893,7.118,18.564,21.645,40.605,-14.807,26.294,8.676,4.758,17.232,14.587,7.151,28.98,17.597,27.844,99.854,-127.223,5.7,-1.352,68.713,18.631,25.59,43.726,36.115,24.543,-10.535,43.0,23.79
2.969751500000257,19.449,25.739,-0.574,10.861,16.5,41.077,-20.94,14.997,5.594,4.241,15.165,12.523,8.681,16.144,16.043,24.742,96.168,-136.829,1.596,-4.424,63.522,11.44,17.88,31.899,24.296,14.785,-18.721,31.174,13.008
2.984820000000127,17.892,22.639,-0.061,10.85,14.434,45.134,-19.894,21.642,8.149,5.262,14.126,13.535,7.135,16.127,17.564,21.644,98.633,-139.766,-3.529,-3.907,60.897,6.818,10.177,24.695,19.661,12.209,-21.776,27.044,14.019
2.984888899999987,11.727,19.543,2.5,9.815,8.784,39.966,2.155,26.232,1.994,-1.916,10.013,5.837,4.567,23.284,12.423,15.474,100.072,-145.774,-5.575,-8.514,60.323,5.274,5.044,24.67,14.518,13.221,-24.316,24.456,11.956
2.9997879000002285,3.518,15.425,3.01,6.731,0.066,30.704,17.522,6.225,-5.693,-6.012,3.855,0.196,4.05,22.236,3.701,8.799,93.824,-154.338,-10.18,-14.653,57.189,-1.391,1.965,19.01,9.38,7.573,-30.44,16.747,3.235
2.999852700000247,6.589,12.336,0.446,2.626,2.628,39.895,0.598,0.071,1.997,1.678,6.413,5.831,3.533,7.869,6.259,9.815,92.705,-151.622,-13.244,-12.589,53.546,-1.902,2.988,15.405,8.346,6.028,-28.36,11.094,3.744
3.0148384000003716,8.119,9.762,-7.239,-6.086,5.187,41.905,-16.308,11.854,6.606,-2.422,7.431,5.313,3.018,3.25,8.815,13.391,99.273,-151.47,-10.669,-9.503,54.005,1.686,2.472,16.414,7.313,8.584,-27.307,8.522,2.716
3.0149061000001893,0.426,5.141,-12.868,-9.154,-4.552,25.469,-20.391,9.281,-4.159,-14.715,-0.261,-1.865,1.478,15.03,1.633,10.304,98.661,-161.053,-12.195,-13.592,54.975,-1.389,-1.629,14.349,5.257,4.989,-33.94,2.366,-7.021
3.0298790000001645,3.5,6.161,-9.269,-2.484,-6.597,23.394,-20.37,6.198,-9.79,-11.114,-0.261,0.186,-0.061,16.04,4.193,8.244,94.464,-160.892,-14.232,-15.115,54.92,0.149,1.959,15.359,5.764,5.496,-30.832,4.925,-3.428
3.044876100000238,17.841,18.962,-1.575,3.666,7.242,39.252,-13.177,16.438,-2.096,-1.369,10.498,8.383,3.013,12.95,17.509,19.507,103.591,-152.534,-2.947,-3.829,63.062,15.518,17.839,30.2,15.492,15.224,-20.042,23.363,13.994
3.0449406000002455,22.434,26.116,5.087,6.224,13.895,42.799,-10.603,20.52,6.103,-1.88,14.586,12.473,7.109,24.208,21.078,29.221,114.758,-150.844,7.302,3.347,73.245,24.212,25.505,41.441,26.747,21.869,-13.362,33.586,21.152
3.0609198000001925,19.337,17.893,11.742,9.804,7.221,35.072,-13.666,15.376,1.486,-7.514,9.961,10.924,4.028,31.868,15.421,22.532,111.57,-154.28,0.122,-5.878,67.024,17.015,17.283,36.789,24.671,21.847,-12.837,26.892,18.57
3.0609816000001047,18.806,16.85,17.365,13.38,7.214,31.963,0.692,15.873,-5.175,-9.555,8.414,7.839,0.95,24.151,14.894,16.362,107.36,-155.662,-6.538,-11.508,57.224,11.875,12.143,30.604,15.425,18.752,-15.898,23.279,21.113
3.0748685000003206,17.25,23.493,20.934,15.416,14.379,35.517,6.839,17.907,-1.584,-5.96,7.893,3.733,1.461,17.467,16.416,18.394,110.326,-158.58,-6.531,-7.91,56.654,14.425,15.204,30.061,13.36,13.61,-17.419,23.256,23.653
3.0749312000002647,16.208,19.884,21.426,15.913,12.827,37.531,-12.123,13.278,0.979,-4.417,7.373,-0.37,1.46,19.499,13.325,13.765,109.703,-160.983,-8.574,-9.951,53.524,14.41,12.628,28.494,13.347,12.572,-15.864,21.183,17.994
3.0898606000000655,23.364,20.888,22.941,18.458,16.913,40.055,-9.549,12.752,-1.071,-1.338,16.075,4.241,2.995,31.775,16.898,15.288,109.081,-159.798,-2.93,-7.892,55.519,16.958,14.664,34.101,15.383,20.756,-12.775,29.359,18.488
3.09156750000011,32.05,34.7,27.017,27.661,33.29,51.798,10.44,24.01,8.152,11.471,26.305,16.02,9.14,46.6,27.127,31.155,118.194,-158.101,8.344,2.362,66.735,28.211,24.896,42.776,22.54,27.908,-8.151,37.014,29.228
3.105267300000378,30.481,33.64,26.99,30.708,29.671,58.918,1.208,32.696,12.754,16.07,22.692,19.078,12.204,47.578,26.076,33.685,122.687,-157.943,7.311,2.872,61.545,30.232,23.334,38.635,18.931,24.806,-8.143,28.268,27.15
3.1053288000002794,21.229,19.262,20.303,16.845,9.149,48.613,-8.527,23.441,-0.066,4.271,16.522,17.522,12.192,44.969,19.902,26.991,123.076,-156.248,6.279,0.82,53.799,23.542,17.675,33.473,13.789,19.658,-14.283,20.555,12.266
3.119931500000348,22.232,19.755,17.721,10.168,9.139,43.954,6.851,15.221,-5.189,4.267,25.215,24.677,15.254,51.584,24.493,39.772,133.199,-149.432,18.056,12.09,63.479,29.154,27.904,40.1,24.534,24.761,-11.194,26.17,12.766
3.119993500000419,31.432,25.883,21.802,20.916,17.84,50.57,10.943,22.378,1.988,14.508,31.337,29.775,20.874,46.922,31.128,52.54,142.8,-143.135,24.698,15.151,62.903,38.346,35.048,43.646,27.583,30.372,-3.499,30.755,21.462
3.134921000000304,28.327,22.271,22.292,22.944,16.797,49.495,6.321,22.868,5.573,15.518,23.621,27.184,21.878,33.555,26.999,44.291,141.632,-145.553,19.55,6.427,49.52,30.623,23.742,35.918,15.773,23.682,-9.643,30.212,14.269
3.134979900000417,16.515,17.126,16.122,11.138,18.317,43.298,10.925,9.013,3.518,11.405,16.938,22.546,19.294,40.694,19.287,32.975,138.929,-154.629,13.895,4.884,46.909,19.834,12.96,29.734,13.708,15.461,-23.978,25.058,3.496
3.1499377000000095,15.474,15.572,8.934,6.004,18.299,34.033,2.718,3.881,-2.121,6.782,11.798,11.765,15.689,56.022,13.632,27.819,133.155,-160.11,11.319,4.366,43.788,19.814,12.947,28.167,13.182,14.421,-28.565,17.861,0.419
3.151653300000362,19.045,18.63,9.437,8.56,15.719,24.777,-10.093,12.586,0.955,5.239,7.687,6.63,13.112,55.454,12.594,23.693,127.899,-163.536,12.333,1.801,38.109,21.332,16.52,31.213,10.607,16.456,-22.901,23.478,2.98
3.1649968000001536,19.026,32.444,19.674,15.723,24.925,32.949,-0.349,18.209,11.712,11.893,12.29,9.697,13.611,48.226,15.655,19.059,130.845,-167.983,12.32,2.311,39.095,17.724,14.967,34.768,15.719,16.952,-19.292,36.775,18.346
3.16506070000014,15.42,37.022,24.265,22.368,22.338,35.478,11.947,14.604,5.041,6.758,7.155,-0.558,8.474,40.493,7.443,7.257,125.591,-178.061,2.574,-5.376,27.273,7.973,3.681,26.024,11.093,11.812,-27.982,33.664,22.938
3.1800663000003624,8.745,23.153,12.97,15.685,1.824,11.876,9.373,6.393,-11.358,-9.642,-10.783,-16.439,-2.805,30.719,-7.934,-10.169,111.633,-189.154,-7.162,-15.617,11.364,-2.794,-6.056,14.215,-2.238,1.554,-40.761,20.823,-0.651
3.1801297000001796,9.761,22.105,6.297,10.546,2.334,8.278,9.876,-0.273,-8.785,-5.534,-9.235,-11.812,-0.241,28.639,-4.852,-11.184,111.521,-191.526,-6.13,-11.503,19.038,-0.742,-0.927,17.275,1.862,2.577,-39.184,20.29,-10.384
3.1953996000002007,19.485,35.915,16.537,18.221,15.14,29.787,10.379,0.239,-3.141,5.23,3.582,-5.653,7.956,29.123,5.911,-3.488,117.557,-190.823,-3.563,-6.88,27.216,8.48,5.221,22.893,6.471,10.771,-30.435,29.491,6.533
3.1954617000001235,21.002,31.781,14.983,12.567,8.977,26.171,0.122,2.8,-11.847,-1.435,-2.57,-13.332,1.801,25.507,1.807,-6.558,113.854,-197.292,-5.096,-7.898,20.016,5.398,-1.956,17.747,-4.294,6.662,-33.479,28.437,3.452
3.21005120000018,16.371,21.503,0.111,0.259,2.82,12.312,-12.173,-1.813,-14.397,-3.483,-9.227,-13.831,-1.787,25.994,0.268,-9.113,113.74,-201.193,-4.066,-6.353,21.533,-0.243,-6.565,15.68,-7.363,0.507,-38.056,19.187,-12.433
3.2119359000002987,21.99,26.604,-0.401,5.894,8.965,17.936,-13.698,-4.885,-9.772,1.643,-0.509,-5.108,6.412,28.53,8.977,0.117,121.823,-196.381,-0.989,-3.273,27.659,6.93,-0.923,19.763,-3.77,7.167,-30.846,18.655,-8.322
3.225179400000343,31.189,32.725,10.358,14.085,16.641,20.479,-8.561,1.267,-7.201,4.203,7.177,2.582,8.967,24.915,14.091,11.388,127.337,-191.062,5.16,3.39,30.193,15.632,5.226,24.354,-4.791,14.844,-23.642,28.371,0.908
3.2252449000002343,35.769,38.328,13.934,17.145,28.407,21.996,-4.967,6.389,-1.046,14.958,13.317,11.801,12.032,25.402,19.2,20.086,133.357,-188.309,10.278,13.121,37.335,18.69,6.757,28.428,-1.2,15.854,-20.033,33.978,3.469
3.2401231000003463,37.782,43.925,14.432,21.226,34.014,31.195,-0.863,8.432,7.152,23.652,19.451,15.375,21.241,31.012,24.816,23.14,140.396,-190.17,9.756,12.083,40.372,18.159,7.263,29.936,2.388,14.301,-18.476,34.968,6.027
3.2551652000001923,35.183,40.295,15.954,18.643,26.808,25.529,10.921,14.571,8.17,16.456,16.358,10.237,17.634,35.08,20.181,19.018,141.28,-195.103,7.697,6.436,34.696,13.018,7.256,27.345,0.336,13.262,-24.093,36.47,9.094
3.255228299999999,31.049,37.693,17.475,19.137,26.269,17.306,13.471,17.118,6.625,14.39,11.731,7.665,10.444,43.242,16.575,15.925,140.627,-192.858,8.201,8.991,34.661,11.468,7.761,28.342,0.336,12.737,-30.216,33.872,11.647
3.2701457000002847,27.432,37.143,18.483,23.729,28.292,25.486,0.138,11.466,7.643,18.474,12.232,7.145,14.532,51.395,16.558,14.885,142.023,-191.641,4.607,7.957,35.139,11.457,7.753,28.314,1.36,10.675,-30.698,26.666,8.049
3.2702045000000908,23.306,25.835,11.804,9.36,17.505,21.362,0.138,7.356,8.66,13.845,6.072,2.527,14.005,41.61,11.418,10.259,140.344,-198.622,-0.009,1.801,31.518,5.81,4.159,22.65,0.334,5.029,-34.766,21.004,-2.717
3.2852297000004,20.721,20.686,10.255,1.666,14.413,10.582,17.044,12.472,5.065,10.245,3.504,2.013,9.892,24.662,9.87,7.175,141.228,-199.448,3.065,3.849,35.584,8.366,5.692,23.652,3.408,6.048,-38.83,22.008,-0.153
3.285299500000292,21.725,27.838,21.004,19.596,20.547,15.182,22.662,14.508,-0.576,11.772,10.673,5.597,17.567,24.125,14.983,12.803,149.284,-191.051,8.698,10.505,43.746,19.628,16.957,31.313,7.503,13.215,-34.692,27.621,10.605
3.3002808000001096,18.63,22.687,17.909,18.039,15.915,16.704,15.979,4.248,0.962,10.735,10.662,7.64,21.648,38.446,12.919,16.889,152.721,-191.885,9.713,8.958,45.239,18.071,18.989,30.257,6.471,10.128,-35.682,22.983,2.398
3.300345600000128,11.439,8.832,3.034,-7.082,10.776,10.027,6.742,-2.929,4.035,8.163,2.967,6.608,15.991,49.678,5.221,11.749,148.982,-199.378,5.605,4.85,43.657,8.32,8.212,20.493,-0.196,2.433,-46.405,8.615,-9.9
3.3155751000003875,10.403,6.774,9.178,-8.1,13.327,7.968,-5.048,1.172,-3.654,8.667,0.915,3.528,14.95,47.067,3.679,6.614,149.345,-199.69,2.526,2.796,43.101,8.311,5.13,15.862,-5.831,3.967,-49.945,7.582,-1.693
3.3156384000003527,13.978,12.915,21.465,2.667,10.24,4.886,-8.629,-2.927,-8.261,8.659,0.914,2.499,16.985,38.823,6.237,6.607,152.27,-198.466,5.597,4.842,45.107,10.864,11.784,19.944,-0.702,6.525,-45.284,19.87,7.53
3.330194500000289,16.526,14.439,13.759,-0.41,10.742,6.418,-3.497,-11.633,-3.13,10.187,2.45,3.522,14.919,36.223,9.305,7.625,150.068,-200.317,7.641,9.448,47.623,10.341,13.822,24.023,6.471,6.006,-41.653,22.411,1.887
3.3302541000002748,21.12,12.375,7.597,-1.946,16.879,15.633,-8.105,-4.962,-1.077,12.738,7.57,2.493,13.879,37.723,11.345,8.13,147.869,-201.141,1.485,7.902,51.674,10.843,10.734,23.999,0.829,9.074,-39.562,16.753,-1.188
3.3453491000000213,20.587,12.875,13.225,-1.432,11.227,13.056,-13.22,3.24,-3.125,11.701,6.026,-0.583,12.84,39.222,9.796,5.56,147.721,-203.502,-1.59,4.308,58.283,10.832,9.699,22.95,-6.344,9.577,-41.571,17.761,1.887
3.345414500000061,14.419,15.424,15.773,1.131,4.556,6.383,-7.059,-3.423,-0.561,11.177,0.385,-1.607,9.754,42.769,8.25,0.944,146.549,-207.397,3.535,7.378,60.786,10.822,11.226,21.902,-2.752,9.055,-42.555,20.817,1.372
3.359338900000239,16.966,16.945,16.27,12.401,14.797,12.524,-6.539,-4.444,0.977,15.776,4.995,0.956,11.281,48.362,12.852,2.992,148.451,-206.677,8.654,9.932,62.262,13.885,14.801,27.004,1.35,15.194,-36.877,22.334,1.371
3.359400600000299,28.732,23.076,15.229,15.975,27.078,18.147,-10.119,8.368,2.0,22.933,12.675,7.615,14.856,45.752,17.45,10.674,152.401,-204.421,10.695,10.434,70.909,15.92,17.348,34.661,0.324,18.765,-32.741,25.897,3.419
3.3743483000002925,34.338,31.762,9.066,6.737,32.686,21.203,-3.449,13.995,9.683,28.545,17.785,15.805,16.89,37.509,21.019,16.299,155.835,-203.704,14.27,15.034,78.523,20.002,22.453,37.188,2.885,17.209,-30.147,29.458,-3.245
3.374414400000205,34.304,30.194,5.983,7.755,37.264,26.305,4.752,2.198,15.821,29.541,23.403,21.936,21.996,37.984,26.633,26.016,161.315,-198.377,21.428,18.605,79.981,25.618,28.579,35.614,10.567,19.754,-23.457,31.477,-10.926
3.3893590000002405,26.585,20.43,1.879,6.21,27.493,19.106,3.21,-7.026,3.51,22.852,17.744,18.841,19.925,43.582,23.02,27.527,157.055,-200.228,20.382,15.513,78.364,18.932,21.378,28.918,6.458,15.635,-29.581,25.298,-13.989
3.389421500000026,11.702,11.188,-5.808,-7.628,7.486,3.718,-0.892,-1.896,-14.425,12.071,0.82,8.063,8.122,42.513,8.14,12.13,142.553,-210.274,8.067,10.374,68.552,5.593,7.524,17.106,-9.43,2.3,-50.556,9.391,-12.95
3.4044212000003427,13.227,11.689,7.006,-4.035,12.601,7.813,5.257,4.766,-3.652,15.132,4.918,11.129,10.163,56.816,8.132,13.655,147.021,-201.867,8.571,11.389,68.996,10.711,13.664,22.212,0.825,3.834,-47.944,10.407,5.506
3.4044850000000224,27.046,22.948,30.565,13.9,35.13,23.686,17.035,7.835,19.406,30.486,23.356,25.463,22.961,84.423,24.006,31.572,160.707,-185.271,21.37,17.013,85.321,22.995,29.532,38.072,27.977,16.638,-30.99,29.352,24.456
3.4194626000003154,21.384,22.925,20.8,13.886,33.046,19.052,4.722,10.389,12.726,28.919,16.672,16.728,15.766,71.019,19.883,19.245,147.738,-197.381,12.127,10.848,79.088,14.776,20.793,30.861,13.092,11.498,-39.156,27.785,7.013
3.4195283000003656,10.604,13.168,-0.737,7.212,21.23,5.2,-11.676,4.743,-1.119,15.57,0.774,-1.732,2.942,38.672,2.957,-3.315,131.197,-212.553,-4.279,0.079,60.053,1.441,7.965,18.023,-13.561,1.241,-51.412,12.388,-12.974
3.434770800000024,20.327,22.889,15.657,13.865,34.528,11.855,8.315,-1.409,9.129,23.239,9.995,8.004,12.161,44.782,8.59,7.959,142.849,-198.508,6.996,5.714,69.727,9.124,17.178,27.739,5.92,9.949,-40.09,26.208,4.457
3.4494284000002153,27.991,38.235,33.06,18.462,49.351,23.114,20.602,6.789,16.292,34.999,20.743,20.803,18.809,66.254,18.827,18.197,148.853,-188.064,16.211,12.368,79.391,17.824,22.284,33.346,19.746,19.16,-33.39,43.088,15.723
3.4494862999999896,21.816,31.537,18.17,12.296,40.592,19.505,-6.57,13.442,5.517,26.767,14.063,15.147,13.154,57.99,15.735,8.445,136.922,-191.974,6.973,8.257,70.09,12.171,14.577,24.091,-0.766,12.481,-38.992,31.262,3.925
3.4644647000000077,25.38,24.845,15.078,8.698,30.818,17.436,-14.761,4.207,4.487,22.13,14.561,15.644,16.215,54.859,16.743,12.023,138.322,-183.073,11.577,11.323,75.143,13.183,19.174,27.653,-0.765,8.37,-34.342,23.546,5.458
3.4662304000003132,30.478,28.919,23.772,8.177,30.275,16.394,0.623,-6.043,9.093,27.743,17.62,20.239,18.76,57.365,20.313,19.695,142.282,-175.205,18.737,15.922,81.216,19.318,26.327,30.7,8.97,12.973,-32.771,29.158,8.526
3.4795266000000993,25.324,25.304,12.478,4.07,27.683,9.718,-3.476,-7.062,1.4,23.104,10.943,14.584,10.545,39.889,14.657,13.528,131.893,-176.055,11.034,11.296,70.888,16.737,16.567,20.423,-6.409,10.91,-37.861,24.518,-4.802
3.4795932000001812,27.86,25.791,5.805,6.115,32.778,11.757,-1.936,3.191,-2.7,21.544,15.03,17.131,12.583,36.776,19.253,18.637,129.712,-164.096,13.585,13.334,72.354,16.208,13.989,22.452,-6.915,9.875,-29.626,24.493,-5.822
3.494735500000388,35.517,35.499,12.459,11.232,42.992,16.869,7.8,11.897,3.962,30.232,23.212,23.774,20.255,48.522,27.431,28.353,136.242,-153.685,19.719,17.931,77.917,18.241,21.147,31.651,8.462,16.013,-21.912,32.666,1.356
3.494795100000374,28.309,31.365,5.787,6.61,39.875,12.753,-8.601,2.664,6.52,28.665,15.504,17.09,13.575,38.227,17.67,16.029,125.348,-159.679,5.867,10.229,65.032,9.001,11.392,22.397,-0.768,13.435,-31.624,24.436,-5.818
3.509559100000388,22.133,22.624,1.683,6.091,34.712,11.716,-19.864,-0.925,4.977,24.025,10.366,10.925,8.438,28.455,11.504,4.23,111.39,-157.983,-0.287,4.583,57.794,1.82,1.134,11.617,-10.501,5.225,-37.228,16.727,-9.398
3.5096220000000358,30.82,31.823,13.976,18.893,42.362,16.827,-8.573,12.908,9.07,31.174,18.552,15.525,15.602,34.062,20.202,9.861,114.352,-144.505,8.935,9.701,63.372,8.478,11.892,19.29,0.267,9.318,-30.53,27.981,0.345
3.524622000000363,32.839,37.939,15.499,18.874,44.369,16.298,-7.027,11.871,13.672,34.729,20.583,16.022,16.611,30.442,20.694,11.388,116.8,-137.188,7.901,9.179,60.235,11.543,18.54,25.418,4.366,12.383,-28.451,34.101,3.931
3.5264861000000565,24.609,24.069,6.775,-0.613,33.053,11.671,-3.947,1.101,7.51,25.985,12.365,10.883,7.886,23.239,13.501,4.204,107.461,-136.026,0.721,2.51,54.027,5.384,9.812,19.245,1.8,7.247,-33.033,24.845,0.341
3.539620400000331,20.998,16.36,4.206,-6.247,30.459,4.999,5.279,6.735,-0.694,20.323,7.742,7.286,3.779,23.216,11.951,3.175,100.694,-133.841,3.282,1.995,53.46,4.354,8.265,16.152,2.823,9.289,-33.0,17.648,-3.758
3.5396860000000743,18.416,20.442,0.616,-0.094,31.965,-3.203,-6.509,3.654,-1.206,17.741,6.71,8.303,6.337,21.144,9.377,7.271,100.593,-128.072,7.89,5.58,53.919,9.473,12.868,19.722,0.771,13.378,-32.455,15.069,-7.853
3.5546806000002107,10.713,11.713,-5.532,-10.34,22.199,-8.322,-19.823,-17.866,-4.791,11.576,3.629,9.319,6.331,22.147,4.757,9.313,98.443,-120.771,7.882,6.086,51.304,10.488,10.806,19.702,2.307,8.754,-39.595,12.492,-7.845
3.5547459000003983,6.091,-1.107,-9.625,-22.625,13.98,-9.851,-18.266,-20.922,-11.446,10.54,0.039,8.285,3.25,25.199,6.289,7.254,94.759,-118.089,4.288,4.543,46.129,6.379,10.283,16.609,7.94,4.647,-45.703,9.406,-4.763
3.570686300000034,6.597,0.431,-9.103,-17.991,17.553,-9.329,-19.785,-8.094,-8.873,14.628,-0.985,8.789,5.809,22.1,9.357,6.735,91.59,-113.872,3.771,4.539,43.522,4.836,14.371,17.617,8.444,4.642,-44.632,8.884,-3.221
3.5707619000004343,9.665,5.554,-1.922,-10.801,20.609,-5.733,-7.982,-4.499,-2.204,16.15,3.114,10.317,12.463,27.201,7.298,10.314,96.622,-101.463,7.866,6.584,45.527,6.368,14.356,21.697,13.046,6.175,-43.563,13.999,2.417
3.584680400000252,14.266,8.11,5.765,-7.204,26.224,7.08,8.932,0.116,5.995,24.331,11.82,12.356,15.524,37.42,9.852,12.353,102.673,-91.115,6.321,8.114,43.433,6.874,17.928,26.799,22.255,11.291,-39.933,21.669,11.124
3.599748300000101,13.739,8.102,3.71,-4.635,31.833,18.856,-6.446,10.874,16.235,33.528,14.882,12.344,14.996,30.722,11.892,4.656,90.787,-94.098,-0.345,4.007,36.729,2.256,19.959,25.235,15.06,9.231,-38.357,14.988,8.039
3.599817300000268,-1.644,-5.739,-9.614,-19.488,12.846,1.931,-19.247,3.179,4.948,18.125,-0.502,0.036,6.785,18.396,-1.952,-12.255,71.228,-104.763,-8.03,-7.78,26.959,-10.554,5.595,9.328,-3.91,-6.148,-53.687,-5.52,-8.363
3.6147110000001703,-15.475,-18.028,-19.851,-35.35,-7.66,-22.662,-7.957,-12.194,-15.549,-0.336,-16.383,-15.333,-4.493,15.304,-16.807,-24.026,63.473,-108.244,-14.169,-15.969,15.149,-20.789,-5.169,-1.439,-11.078,-14.851,-64.904,-14.223,-18.088
3.6147775000004003,-12.385,-9.301,-18.806,-24.556,6.18,-10.856,-18.708,-7.571,-8.873,12.984,-9.706,-9.17,-2.439,12.215,-10.131,-16.317,62.385,-98.914,-11.594,-9.805,13.084,-16.158,0.984,3.685,-2.358,-8.688,-56.13,-2.938,-12.947
3.629715600000054,-7.25,-5.193,-16.738,-14.797,20.519,4.012,-35.595,-2.44,2.406,22.705,-1.5,1.598,3.711,4.518,-1.411,-8.104,58.224,-91.643,-9.021,-3.135,16.657,-11.019,-0.554,2.144,0.206,-6.118,-54.537,0.138,-8.836
3.629776100000072,-8.779,-12.36,-16.721,-24.004,10.252,-8.8,-18.141,-14.733,-8.867,10.387,-7.134,-4.039,-1.928,-0.61,-2.434,-11.17,57.653,-88.477,-9.524,-4.669,15.616,-9.471,-3.115,-2.981,-7.479,-6.624,-60.118,-6.522,-9.852
3.6447062000002006,-0.574,-5.176,-5.434,-18.345,11.266,-6.23,-9.926,-16.768,-12.444,12.938,-2.516,1.6,-0.902,-3.171,4.74,-0.4,62.719,-77.118,0.22,1.995,24.31,3.859,10.72,9.318,-5.422,1.58,-47.763,2.194,-3.694
3.644763100000091,9.161,2.514,2.768,-7.056,21.501,9.146,-34.507,-10.091,-7.309,24.708,8.758,15.943,8.321,-2.655,13.957,14.457,64.705,-67.307,8.929,10.703,36.581,15.126,14.808,16.993,2.268,8.238,-36.444,10.389,-0.104
3.659752600000047,7.615,-3.636,-8.505,-12.172,19.943,4.526,-45.743,-14.179,-6.789,21.61,8.749,10.804,6.263,4.52,11.382,8.295,61.567,-68.265,2.26,8.13,29.884,10.5,8.133,8.779,-0.808,7.205,-37.432,0.644,-8.301
3.659815100000287,10.168,-1.583,-12.595,-7.549,26.583,8.62,-35.964,-8.017,7.562,24.662,9.765,7.719,7.282,13.225,10.858,3.676,56.382,-66.659,3.794,7.61,24.731,11.514,18.883,14.918,-0.295,9.759,-34.321,1.668,-8.805
3.6747847999999976,13.744,2.004,-1.312,-3.443,28.093,13.734,-23.12,2.749,11.141,27.199,9.755,12.323,10.86,9.625,11.359,6.746,48.641,-66.08,8.914,10.164,28.805,16.113,25.012,25.661,9.951,10.774,-33.774,9.864,0.425
3.674845000000005,-0.102,-11.318,-4.384,-25.981,3.987,-8.309,-6.191,-8.524,-20.121,8.729,-3.575,-1.522,-1.958,-6.778,1.614,-8.117,39.883,-71.137,-5.952,-0.092,14.944,1.752,7.569,14.365,8.404,1.542,-42.962,-1.417,-6.235
3.6903096000000915,-10.86,-20.528,-18.725,-35.176,-4.214,-10.862,-8.746,-16.713,-25.224,5.134,-7.67,-10.23,-3.493,-15.481,-1.974,-20.405,39.331,-67.992,-16.192,-8.289,0.584,-12.594,-0.636,6.154,2.76,-4.607,-49.579,-11.662,-21.598
3.6903769000000466,-5.726,-17.433,-22.804,-24.383,9.622,10.666,-32.816,-11.573,4.515,20.498,-1.002,-0.486,7.781,-6.244,1.102,-13.724,41.853,-61.777,-8.492,-4.695,4.17,-8.995,4.488,10.758,6.344,-2.553,-52.603,-8.064,-21.576
3.7048444000001837,-5.208,-22.027,-24.318,-37.166,-2.17,5.02,-32.783,-14.123,1.437,16.891,-6.636,-7.145,-1.448,2.472,-4.022,-15.76,35.664,-65.301,-9.508,-6.739,2.116,-10.011,2.434,5.624,3.264,-4.6,-53.575,-15.74,-18.481
3.7049026000004233,-5.203,-22.517,-22.757,-41.227,-18.05,-1.645,-17.381,-7.449,-12.909,10.727,-7.654,-14.31,-6.058,1.445,-5.043,-20.867,32.042,-65.236,-15.134,-8.782,-1.472,-15.636,0.383,2.033,0.187,-9.206,-45.325,-19.311,-21.024
3.7199322000001303,2.487,-11.224,-16.074,-19.669,-5.736,15.263,-22.999,6.391,5.547,22.499,4.649,-1.488,8.805,2.468,2.135,-13.162,35.596,-57.486,-7.946,-3.138,3.653,-8.961,2.944,9.715,4.797,-6.123,-41.181,-5.972,-19.466
3.720000600000276,-1.102,-13.774,-22.718,-26.822,-5.731,12.686,-28.099,-12.058,2.467,19.403,-1.504,-3.536,3.674,4.002,-1.453,-14.173,32.486,-58.965,-5.889,-5.696,-1.474,-5.878,0.892,6.632,-0.331,-5.092,-46.775,-5.966,-19.447
3.734901500000433,-6.736,-19.396,-31.405,-42.677,-19.557,-1.159,-17.825,-32.026,-21.614,5.039,-11.748,-9.68,-5.552,2.461,-5.038,-15.183,28.355,-62.493,-7.932,-7.74,-5.059,-7.921,-0.134,0.477,-7.503,-5.087,-45.192,-14.669,-21.989
3.7349709000000075,7.615,-2.47,-17.541,-13.432,-1.094,12.162,-21.393,-5.354,-4.686,16.817,6.706,8.772,9.311,8.094,8.799,5.836,36.012,-55.258,1.297,7.125,7.754,5.407,7.039,10.723,2.239,6.188,-35.925,-1.334,-13.258
3.749913000000106,19.391,10.852,-6.253,9.635,28.108,24.445,-33.155,14.119,12.225,32.681,17.97,19.01,15.449,14.234,16.987,18.126,40.074,-51.616,4.37,12.241,11.333,13.598,10.105,15.835,1.724,11.818,-33.327,9.938,-6.072
3.749972600000092,8.101,-1.966,-15.98,-14.453,20.395,12.125,-25.949,-10.486,-10.329,21.378,1.046,2.597,2.114,6.535,5.187,1.202,31.837,-58.737,-8.442,-3.14,0.563,0.265,0.874,6.086,-15.184,-1.002,-41.491,-1.855,-15.8
3.764964300000429,1.945,-6.575,-17.501,-27.246,10.129,6.99,-13.628,-18.16,-8.269,15.721,1.045,-1.504,3.136,2.942,0.059,-4.947,29.756,-58.166,-9.971,-7.236,-0.975,-3.322,-0.152,6.592,-8.509,-1.513,-42.474,-4.415,-18.858
3.7650233000003936,16.8,11.875,-4.676,-3.653,32.66,26.451,-22.836,13.621,24.527,36.71,21.537,14.379,14.916,10.624,11.842,10.939,39.46,-45.812,3.359,5.067,6.199,12.051,16.242,21.442,9.431,12.833,-29.112,11.983,-5.007
3.779994400000305,21.906,21.597,-1.598,11.208,47.485,40.257,-35.108,24.366,19.891,41.797,22.027,18.463,13.877,12.15,16.441,13.49,39.421,-42.181,3.356,3.013,5.68,13.063,20.837,23.982,7.884,10.771,-26.521,17.095,0.121
3.780060300000059,6.515,11.841,-5.694,-0.074,27.969,32.02,-8.433,2.824,-7.793,20.75,5.099,2.563,3.617,8.04,2.08,-2.918,26.574,-51.872,-11.505,-9.286,-4.572,-2.319,8.521,14.737,2.241,0.002,-41.864,5.807,-8.076
3.7951184000003195,-3.738,1.583,-8.25,-11.857,8.986,24.815,16.166,-4.863,-9.322,11.508,-4.64,-9.223,-4.072,7.007,-7.656,-14.185,18.862,-60.53,-15.592,-11.838,-12.252,-9.489,3.901,13.185,3.776,2.051,-48.994,-1.371,-12.678
3.795186400000148,-3.222,-3.029,-12.853,-12.358,7.952,26.327,-16.126,1.29,1.446,14.058,-10.271,-10.238,-5.092,0.34,-7.136,-18.782,16.794,-62.518,-11.99,-12.339,-11.215,-5.381,6.459,17.27,2.747,3.073,-50.994,-4.444,-16.764
3.810365400000137,-5.268,-6.612,-13.352,-13.37,6.92,22.203,-41.213,-4.347,-0.093,10.458,-12.822,-12.277,-3.038,-4.271,-11.227,-17.739,18.314,-57.845,-9.929,-11.302,-7.105,0.26,9.014,20.839,4.794,-0.516,-57.603,-5.976,-20.333
3.824962300000152,0.373,-4.044,-5.654,-18.48,6.913,24.23,-8.896,-4.855,-4.191,14.546,-3.075,-5.092,1.064,4.955,-7.118,-3.889,30.591,-46.004,-1.722,0.493,0.586,7.944,18.226,29.015,14.011,7.169,-49.349,2.227,-10.067
3.8250222000001486,11.644,0.571,1.011,-12.826,16.64,38.038,2.896,7.445,0.424,25.29,8.199,11.307,6.698,11.097,9.283,10.46,36.709,-43.909,4.94,7.665,8.27,13.059,21.794,28.474,18.095,12.798,-33.93,6.835,0.189
3.8400140000003375,8.046,-3.528,-1.551,-0.005,20.209,36.463,-23.235,4.876,2.473,21.678,4.604,8.734,3.617,-0.184,9.274,6.863,24.376,-56.16,-3.774,-2.589,5.188,5.362,8.453,15.638,6.806,2.539,-40.556,-2.906,-6.471
3.8416928000001462,-1.184,-9.672,-7.697,-3.592,14.042,22.594,-28.334,-8.449,-6.751,14.484,-2.06,-5.62,-6.12,-10.43,-2.518,-3.902,18.717,-59.178,-11.455,-10.271,-0.965,-5.402,-1.29,12.036,-6.008,-5.661,-50.762,-8.026,-13.637
3.8550560000003316,2.403,-8.638,-8.202,-14.346,18.126,25.133,-27.281,-4.854,-8.282,21.642,4.09,1.046,0.034,-3.248,0.558,-1.849,29.456,-50.922,-7.857,-3.601,2.11,-3.86,2.298,18.172,-3.441,-0.02,-46.613,-3.919,-11.062
3.8551221000002442,5.987,-5.556,-7.169,-8.697,26.817,32.792,-31.353,4.885,5.559,31.354,11.77,12.316,10.792,8.539,7.73,5.838,33.013,-51.896,-5.288,-1.548,6.207,0.755,6.906,16.104,2.71,3.566,-45.029,-3.403,-12.075
3.870132900000044,4.957,-5.038,-8.187,-2.028,26.278,27.637,-11.341,0.781,7.603,30.298,9.197,8.205,6.171,9.042,5.16,4.807,27.857,-56.454,-5.283,-4.108,6.713,0.754,9.461,18.138,1.683,1.514,-44.984,-1.863,-13.088
3.8701951000002737,9.05,-0.422,-2.031,-2.538,25.739,30.683,-0.059,3.342,4.521,28.731,10.212,10.246,6.677,10.058,7.205,6.339,31.928,-51.275,-1.691,-1.03,12.854,6.901,15.087,30.927,8.341,5.098,-34.693,5.824,-5.39
3.885058200000003,10.066,5.726,5.144,4.124,28.787,43.46,-16.453,18.708,14.763,36.387,17.374,18.945,13.842,17.733,11.808,10.944,38.556,-47.637,1.384,1.02,15.915,12.529,16.609,34.995,17.042,10.729,-31.072,10.941,0.763
3.8851207000002432,2.371,-1.452,-3.058,-2.028,15.951,36.756,-14.9,9.98,10.137,33.277,5.574,7.655,3.07,12.592,2.575,-0.338,32.37,-53.225,-2.203,-5.641,9.751,3.295,9.932,28.812,9.853,7.132,-41.287,3.758,-4.873
3.9001184000003377,-5.828,-14.258,-13.302,-25.079,-3.533,15.203,-2.077,-12.059,-8.828,15.313,-15.436,-11.308,-9.228,-2.278,-10.748,-15.195,25.677,-56.758,-7.836,-10.758,5.131,-2.343,5.824,26.222,3.695,-1.072,-47.906,-8.029,-15.114
3.9019593000002715,-4.798,-11.17,-8.165,-20.956,1.594,14.163,-6.173,-1.289,-4.209,12.223,-11.835,-9.76,-3.584,-4.837,-10.225,-7.495,32.311,-50.554,-2.706,-7.162,9.224,5.856,12.99,26.195,10.352,-0.559,-44.272,-8.021,-17.148
3.9151739000003545,3.916,0.112,-1.497,2.119,19.011,29.006,-8.216,18.693,8.091,26.556,6.108,2.546,2.568,-0.221,0.544,8.394,42.525,-42.819,9.593,0.53,19.973,13.535,20.149,28.731,13.927,8.151,-36.543,2.233,-12.008
3.915236300000288,12.109,1.649,-5.082,0.58,26.164,31.026,-8.208,15.6,3.984,33.702,11.737,9.715,5.127,0.291,6.691,14.534,44.02,-42.263,11.12,5.653,30.199,17.62,19.105,31.776,9.815,12.241,-31.383,2.231,-11.484
3.930221200000233,12.097,-0.402,-13.786,-7.618,29.724,28.433,-18.446,10.974,4.493,34.692,12.238,12.267,9.732,2.852,6.172,15.031,44.488,-45.807,3.424,2.061,28.632,15.041,11.401,22.01,2.633,4.544,-31.864,-8.53,-19.669
3.930281300000388,1.839,-5.013,-21.457,-11.196,24.571,25.843,-21.502,-0.308,2.951,30.559,7.615,9.181,6.136,6.436,0.531,10.406,43.419,-48.323,-4.264,-5.626,18.87,0.681,-3.467,5.082,-12.227,-8.268,-41.054,-18.255,-31.945
3.9455777000002854,-4.311,-9.618,-17.337,-24.505,12.251,14.547,-16.869,-22.849,-10.884,18.746,-1.615,1.487,-0.53,6.429,-4.593,2.711,39.789,-47.25,-7.846,-10.231,17.826,-5.98,-13.198,4.052,-17.85,-11.334,-49.722,-17.212,-29.352
3.9456419000002825,9.526,6.785,-1.438,-13.722,26.584,15.557,-15.316,-12.068,-4.725,21.801,5.047,5.584,4.081,10.521,2.584,6.806,44.873,-40.543,-2.203,-8.684,26.005,3.76,-1.401,17.881,-2.463,-3.638,-41.476,2.785,-6.781
3.960179700000026,21.299,26.246,3.174,13.444,49.611,32.96,-11.714,9.973,8.087,34.074,16.313,12.751,9.2,9.998,9.241,13.459,46.877,-39.478,2.923,-5.601,31.102,9.392,9.871,24.523,6.249,3.538,-30.676,20.201,2.96
3.9620569000003343,5.909,16.486,-9.636,0.111,33.68,25.754,-13.752,-9.504,-6.266,25.843,2.464,1.467,0.482,-1.795,-3.063,3.2,36.072,-48.147,-5.789,-9.182,32.096,6.821,2.689,21.424,-1.954,3.022,-38.842,8.91,-11.9
3.9753130000003694,-8.954,0.076,-14.75,-20.382,11.617,4.212,-21.935,-22.303,-14.969,15.571,-11.883,-11.342,-8.228,-2.817,-13.306,-5.513,30.912,-51.173,-7.833,-13.271,32.576,11.937,5.76,22.428,-1.952,3.532,-45.975,-6.468,-15.474
3.975380200000018,-2.285,1.612,-10.124,-7.554,22.876,10.355,-17.814,-0.763,-1.121,24.265,-3.162,-4.158,-2.072,9.993,-4.584,4.739,38.054,-42.925,3.958,-6.085,35.105,21.147,23.172,30.602,7.271,9.164,-38.757,-1.339,-7.774
3.9892854000004263,-0.746,4.685,-9.602,-4.472,34.124,24.177,-11.137,7.947,3.491,30.901,4.014,5.068,6.64,18.692,-0.481,13.444,39.553,-37.247,5.491,0.068,42.242,23.687,25.198,34.67,7.776,12.228,-35.132,0.712,-16.476
4.004305000000386,-5.356,-0.443,-7.543,-9.591,28.967,18.518,-7.027,7.426,5.024,31.894,0.936,5.575,5.096,26.871,-4.067,13.43,36.952,-37.722,2.412,-4.542,48.348,18.54,17.489,32.074,7.769,9.142,-40.22,-6.974,-22.607
4.0043682000000445,-2.277,-6.59,-2.413,4.251,25.864,11.839,12.96,16.64,15.265,35.961,1.96,6.594,3.554,36.577,-5.087,11.367,34.353,-37.684,4.459,-8.124,48.299,12.374,12.86,28.455,9.81,3.498,-41.717,-6.967,-17.461
4.019301700000142,-6.373,-14.781,-5.996,0.661,21.227,10.29,25.755,8.939,13.713,31.827,0.421,4.538,5.6,27.832,-10.717,4.184,25.61,-37.646,-3.231,-11.702,45.69,7.239,2.601,21.767,1.603,-2.141,-43.724,-12.083,-23.591
4.0193749000000025,-9.44,-18.352,-12.65,-18.295,20.181,10.792,4.724,1.246,7.552,26.672,-3.166,-1.102,5.594,11.922,-15.83,-2.48,17.899,-39.146,-12.961,-17.838,43.595,-0.453,-4.061,10.987,-11.206,-6.238,-47.779,-21.805,-31.765
4.034381700000267,1.328,-8.6,-11.101,-8.031,30.92,21.028,-10.137,16.101,13.692,36.379,2.473,0.948,5.076,5.763,-11.715,0.084,18.394,-37.057,-10.899,-15.771,44.576,-4.551,-3.545,6.365,-14.269,-7.256,-46.707,-13.074,-24.048
4.034449800000402,9.011,5.241,-2.38,11.445,45.233,30.74,1.656,26.331,17.776,43.515,9.642,6.583,9.682,0.122,-7.605,2.133,22.474,-26.774,-4.74,-10.12,56.314,2.626,-3.541,13.019,-8.107,-4.175,-36.414,2.309,-12.241
4.049421500000335,12.588,14.97,8.38,9.896,51.848,27.124,8.314,19.133,12.636,41.422,10.657,7.601,13.771,-2.44,-5.036,4.18,25.525,-15.989,0.9,-9.597,68.041,13.894,5.171,22.227,-2.976,3.002,-24.594,8.454,-5.569
4.049488400000428,14.625,19.565,13.495,-0.872,46.673,14.289,6.257,-0.866,4.426,35.745,5.524,4.007,10.683,2.173,-3.494,6.737,20.889,-16.485,3.973,-10.612,68.997,15.417,12.851,24.254,-5.022,6.585,-24.57,16.643,-3.514
4.065443899999991,8.462,18.009,11.432,-0.871,38.43,-3.656,4.201,-15.722,-1.726,24.951,-3.191,-2.657,3.5,6.269,-8.101,2.12,12.159,-18.518,4.993,-10.09,70.465,17.963,7.203,22.693,-8.091,6.578,-29.668,21.749,-4.535
4.065504500000316,12.552,23.114,12.958,13.987,48.637,-8.776,-7.586,-1.874,2.374,26.975,1.935,1.957,4.521,18.559,-3.483,8.265,17.782,-4.667,18.308,-1.883,87.301,33.314,14.368,29.33,-1.423,14.769,-21.442,23.264,-1.969
4.079428700000335,28.934,35.899,18.58,21.145,63.446,5.578,-14.751,7.349,10.056,41.805,18.327,17.836,13.738,33.909,9.329,29.774,29.035,12.756,33.659,12.976,104.632,46.088,32.284,43.133,9.85,24.488,-9.637,30.413,2.644
4.079493200000343,27.368,37.912,17.537,6.779,57.747,7.109,-6.539,-14.175,5.436,37.153,16.26,18.331,13.724,28.752,7.27,32.306,22.858,17.354,31.064,12.963,107.089,42.969,27.641,47.701,12.914,22.926,-13.214,31.92,3.153
4.094440200000008,17.094,32.239,9.835,3.186,48.468,-6.218,-6.532,-16.723,-1.23,24.308,2.923,7.042,7.563,11.305,1.115,20.49,12.589,17.849,25.91,2.192,104.933,36.266,21.466,42.53,11.876,18.293,-16.274,26.252,3.662
4.094505700000354,21.688,34.768,1.628,11.892,49.956,-1.089,-11.137,-1.337,3.894,33.505,6.507,8.059,9.092,2.072,5.725,20.982,13.601,19.368,25.884,2.702,110.463,35.205,27.592,39.414,9.815,16.225,-11.135,28.275,-1.977
4.1094340000004195,24.74,33.709,-0.423,7.27,46.832,13.769,-4.978,-4.921,12.6,44.742,14.185,13.174,14.719,-0.491,5.719,19.937,7.952,17.299,19.71,2.699,112.914,30.046,17.831,32.714,4.682,10.573,-14.198,25.173,-12.221
4.1094949000003,19.592,30.089,6.238,7.775,42.687,12.219,-0.362,1.231,17.71,42.136,11.097,7.526,14.704,2.071,2.127,8.646,-2.302,19.331,13.031,-3.963,106.141,20.283,5.517,21.411,1.091,4.927,-21.356,14.902,-12.209
4.1244571000002,16.499,35.694,11.867,16.476,42.644,2.985,5.274,16.599,17.18,39.532,4.426,-2.216,12.128,2.581,-4.023,-0.584,-4.861,20.849,6.87,-7.033,102.961,14.627,6.024,18.316,-1.984,0.824,-20.822,16.936,-9.123
4.124520200000006,10.847,33.097,12.367,7.75,37.478,-3.166,24.224,8.898,12.04,34.37,-3.264,-5.8,9.042,-4.082,-13.753,-7.756,-9.467,16.217,-0.821,-12.662,105.932,11.538,-1.154,18.81,-11.203,-3.275,-23.875,19.993,-12.7
4.139447500000188,14.422,27.941,13.38,8.255,41.539,-2.65,28.298,11.963,16.126,35.872,-2.236,1.378,9.545,-4.59,-10.153,-4.674,-14.581,22.861,4.302,-13.674,112.999,15.113,-0.128,19.303,-11.192,1.339,-24.876,18.436,-11.15
4.154433500000323,28.753,40.208,13.366,24.128,59.941,8.111,10.339,29.369,29.43,49.156,12.624,11.111,15.171,-1.512,3.69,12.236,-5.857,39.232,16.593,0.172,123.644,27.393,17.29,27.481,1.115,10.047,-13.068,26.102,-4.479
4.156162000000222,28.212,39.656,10.791,15.907,58.344,7.078,6.23,19.094,24.79,47.058,13.635,12.124,16.18,-7.658,1.125,17.86,-0.728,43.291,15.04,3.758,128.131,31.977,16.248,32.576,2.138,10.037,-7.932,24.539,-6.524
4.169522200000301,17.937,18.611,11.805,-0.503,40.355,-9.835,16.982,3.706,8.371,32.154,1.326,11.6,11.553,-6.625,-6.049,14.256,-5.85,46.322,13.488,-4.442,126.979,26.822,6.498,25.371,-4.012,5.928,-15.096,11.707,-11.64
4.169585400000415,19.968,18.593,8.207,4.109,39.802,-9.313,13.379,4.726,5.802,32.634,5.424,16.711,14.103,7.213,1.13,20.901,-5.844,54.985,18.598,1.198,132.487,30.381,16.225,24.834,-3.495,6.435,-15.081,11.696,-11.628
4.184921300000042,21.998,26.771,-1.535,2.568,47.959,-1.107,-7.126,-2.451,10.406,36.7,10.541,12.596,17.675,10.28,4.202,22.417,-5.838,50.831,11.919,3.758,135.428,32.4,18.771,28.395,-5.029,6.94,-9.943,13.221,-12.129
4.184985100000176,16.34,19.572,-0.509,-4.607,48.424,-10.84,-12.242,-3.473,10.908,31.54,2.334,5.924,13.047,6.171,-0.925,16.247,-9.931,46.682,5.759,-5.98,133.244,24.17,11.58,24.268,-6.048,4.884,-13.007,7.572,-13.654
4.199528999999984,16.836,21.089,9.738,6.156,56.06,-14.415,5.188,11.388,16.021,34.583,4.381,14.115,10.985,7.702,1.637,20.329,-7.36,57.906,13.438,-2.9,136.697,28.757,17.716,28.342,3.179,5.392,-14.018,15.249,-10.566
4.199588700000277,17.332,27.728,12.29,13.322,64.201,-6.204,13.892,11.889,21.64,41.208,10.524,16.15,12.511,4.108,-0.413,19.284,-10.426,59.898,11.888,-1.36,140.146,32.827,19.747,33.949,5.738,8.46,-9.906,19.332,-8.507
4.214521200000036,12.704,22.065,9.716,5.624,59.014,-11.32,6.194,7.778,19.569,38.093,3.853,3.326,9.424,-4.093,-13.733,4.921,-25.273,48.567,-0.419,-13.142,133.346,17.425,9.481,24.694,-0.928,5.378,-11.433,11.116,-7.986
4.216355300000032,14.74,24.605,12.78,6.643,60.492,-17.969,11.823,16.992,18.013,34.981,2.825,-0.776,9.927,-3.576,-15.256,1.329,-28.321,46.981,-0.931,-14.153,127.065,13.821,6.398,21.595,-0.927,1.786,-12.446,15.203,-2.855
4.229601800000182,20.873,35.338,18.915,15.346,74.263,-8.73,14.373,16.463,18.507,34.946,7.433,4.86,9.917,-2.036,-6.019,6.451,-22.657,51.033,4.193,-9.016,131.036,26.615,9.978,30.283,0.611,4.858,-4.237,21.848,1.759
4.229673100000127,22.389,35.815,16.847,19.429,79.312,-5.647,-7.159,6.2,15.414,31.837,3.327,3.318,3.76,-10.231,-5.501,5.42,-25.709,49.957,4.701,-10.544,137.565,24.539,12.017,28.204,-3.489,11.001,0.378,17.728,-0.292
4.244669300000169,23.904,38.341,12.219,20.434,78.208,-15.888,-6.639,4.657,12.325,30.781,3.836,2.803,6.317,-11.757,-7.033,10.025,-26.195,51.956,8.282,-5.923,142.038,24.515,17.128,28.175,-1.948,14.064,-0.134,22.833,-0.804
4.244740200000251,26.954,43.426,19.379,19.389,78.642,-20.482,18.983,6.189,11.801,31.775,9.98,10.485,12.459,-0.475,-3.952,19.749,-17.972,56.515,11.86,0.743,145.995,37.81,18.648,37.369,2.665,16.612,3.452,31.52,6.369
4.259634500000175,24.365,39.284,29.094,16.808,75.49,-16.876,15.378,8.745,10.252,34.304,6.384,14.06,10.909,3.624,-5.997,21.266,-17.954,59.02,10.824,-1.819,146.873,35.723,16.068,32.721,-1.437,18.132,7.547,28.414,9.436
4.259696200000235,19.73,36.683,23.429,15.254,75.927,-18.396,-3.593,9.76,9.217,34.782,5.353,11.485,10.898,2.083,-7.016,22.27,-21.01,58.449,11.837,-2.842,146.727,28.003,18.101,26.028,-6.558,16.064,9.589,27.361,3.792
4.274640700000418,18.173,40.745,17.771,11.141,76.875,-24.013,-0.003,4.115,8.183,28.088,7.397,8.399,12.424,8.741,-3.422,22.76,-16.378,56.341,12.85,-1.814,148.629,32.585,18.595,33.686,-3.478,15.536,12.141,31.432,2.763
4.276356200000009,15.594,39.68,21.851,9.593,67.065,-26.55,-0.003,-1.012,4.589,21.4,0.217,6.342,9.338,7.708,-9.567,17.102,-16.874,54.748,6.69,-6.936,143.87,27.942,10.38,29.042,-3.474,11.934,8.542,26.79,5.322
4.289732300000196,8.406,32.468,19.268,10.608,61.362,-26.012,-8.2,2.063,4.584,24.452,-5.419,5.311,9.329,-6.644,-18.779,11.962,-22.493,53.669,0.535,-12.564,133.992,16.131,5.246,15.181,-7.569,2.701,1.361,18.054,1.73
