Timestamp,Cz,Fz,Fp1,F3,C1,C3,T7,C5,CP5,CP3,CP1,P1,P3,O1,CPz,Pz,Oz,O2,P4,P2,CP2,CP4,CP6,C6,T8,C4,C2,F4,Fp2
0.0,-4.006,-46.86,-288.106,-113.463,10.174,-48.891,323.976,8.208,-39.785,-26.951,-7.65,10.427,-11.861,-21.948,2.64,26.985,6.346,-8.958,-13.885,-3.168,-28.392,-9.522,8.274,-3.762,-12.403,-14.906,-14.849,-49.304,-123.897
6.470000016634003e-05,1.121,-44.252,-291.404,-112.325,11.701,-48.33,356.44,9.737,-36.159,-23.338,-6.618,14.515,-6.726,-1.434,11.346,36.179,15.561,-5.875,-8.236,0.421,-23.24,-5.414,12.877,-3.759,-1.12,-11.818,-12.272,-42.595,-139.142
0.014693099999931292,-12.713,-48.306,-305.969,-123.483,-1.118,-56.991,323.808,10.752,-46.369,-36.634,-17.37,5.791,-23.625,-4.506,3.138,28.971,5.811,-16.627,-16.424,-11.874,-28.852,-12.068,1.593,-17.075,-13.414,-22.052,-15.334,-59.458,-144.638
0.01475990000017191,-21.921,-64.652,-318.471,-141.803,-12.388,-73.328,336.292,-8.727,-63.229,-55.553,-32.21,-8.047,-40.508,-27.556,-10.698,11.523,-7.514,-20.709,-31.777,-27.232,-38.557,-30.499,-11.216,-28.841,-44.139,-35.862,-26.077,-82.965,-145.006
0.029665700000350625,-10.629,-71.759,-313.029,-148.834,-8.277,-79.914,368.744,-15.378,-62.653,-53.448,-32.69,-5.99,-36.881,-26.503,-11.199,12.024,-2.384,-14.541,-29.696,-25.668,-35.445,-28.932,-5.057,-19.591,-30.263,-35.826,-27.075,-79.808,-134.102
0.02973199999996723,0.14,-49.658,-296.835,-128.192,8.125,-55.756,336.1,17.425,-40.049,-31.365,-13.702,8.873,-20.45,-3.935,1.62,28.406,15.037,-6.329,-7.125,-7.199,-19.016,-6.362,12.879,-0.616,2.555,-16.835,-11.167,-56.675,-111.427
0.045319800000015675,-6.007,-41.412,-286.292,-115.257,-1.617,-45.966,358.305,24.58,-36.423,-28.26,-10.614,6.815,-18.893,-4.956,0.081,29.914,11.948,-7.86,-2.507,-6.679,-16.947,-7.38,11.329,-9.324,7.163,-15.794,-10.131,-59.692,-107.729
0.045386100000087026,-16.248,-65.449,-298.301,-140.757,-33.378,-75.634,390.734,-7.72,-62.514,-51.286,-34.682,-9.586,-35.78,-22.37,-18.362,15.54,-8.044,-18.61,-24.021,-24.603,-33.324,-28.377,-8.15,-32.369,-25.119,-40.369,-27.027,-79.612,-138.872
0.05971510000017588,-16.231,-71.531,-320.032,-162.645,-28.222,-86.317,358.068,-12.835,-69.111,-58.407,-41.82,-12.65,-41.38,-22.86,-20.393,11.938,-5.987,-18.08,-28.096,-25.091,-31.242,-27.836,-8.142,-31.312,-30.217,-41.353,-27.0,-71.336,-157.176
0.07467110000015964,-12.117,-59.677,-322.273,-152.749,-3.603,-67.275,325.435,19.965,-52.648,-46.565,-29.995,-10.076,-35.191,-17.714,-10.639,19.611,3.753,-8.84,-14.748,-15.844,-12.768,-19.099,0.575,-22.571,-17.892,-27.992,-17.752,-63.58,-142.675
0.074739000000136,-18.765,-75.498,-322.463,-157.207,-12.821,-76.43,357.897,3.039,-60.793,-54.203,-38.162,-18.775,-43.353,-31.528,-16.776,16.005,-11.107,-22.151,-25.492,-26.587,-17.878,-29.326,-13.257,-32.282,-35.804,-41.796,-29.005,-93.23,-144.581
0.08965000000034706,-28.992,-92.329,-333.412,-183.177,-28.69,-96.333,390.327,-29.239,-77.638,-71.568,-52.468,-23.879,-54.58,-41.743,-26.493,7.792,-19.806,-35.449,-43.909,-37.319,-32.717,-38.006,-23.49,-39.935,-58.31,-53.537,-40.759,-111.58,-158.781
0.08971210000026986,-21.791,-69.695,-321.808,-170.699,-16.878,-73.695,357.661,3.578,-57.58,-54.59,-36.534,-11.56,-39.156,-24.795,-14.683,18.543,0.194,-13.897,-24.397,-21.912,-18.852,-22.599,-3.487,-21.452,-44.932,-31.967,-26.886,-82.267,-144.79
0.10462350000034348,-6.4,-49.133,-296.383,-137.74,-0.467,-43.908,325.028,36.362,-34.469,-26.358,-13.956,1.259,-18.112,-3.765,3.262,37.48,11.465,5.073,3.292,-2.423,-1.415,-0.547,15.984,1.624,-20.808,-12.467,-10.977,-55.544,-126.714
0.10841250000021319,-8.442,-63.429,-300.185,-138.115,-9.176,-58.721,357.491,4.05,-51.853,-38.115,-22.139,-1.816,-27.828,-11.446,-1.864,33.344,-4.428,-14.912,-11.569,-10.105,-11.147,-8.744,4.698,-7.6,-18.226,-22.701,-18.138,-75.981,-130.174
0.1203958999999486,-17.656,-81.808,-315.766,-170.252,-31.196,-86.839,389.921,-28.229,-73.83,-61.643,-41.072,-13.085,-45.731,-36.026,-22.867,16.917,-19.793,-36.927,-38.197,-30.075,-23.431,-34.35,-14.263,-35.257,-26.405,-41.633,-32.465,-103.57,-132.093
0.1204608000002736,-14.564,-76.091,-309.815,-171.619,-24.505,-80.604,357.256,-6.684,-61.461,-52.36,-37.957,-11.535,-36.464,-39.576,-19.77,21.51,-16.187,-31.254,-29.45,-25.434,-16.748,-30.217,-8.101,-30.611,-24.841,-40.055,-28.334,-88.609,-131.449
0.1346797000001061,-10.451,-60.134,-298.747,-138.659,8.307,-59.007,324.623,26.11,-46.03,-36.938,-23.575,-1.789,-25.669,-29.802,3.816,33.784,-8.486,-24.563,-15.588,-9.015,-10.583,-10.207,5.228,-7.014,-17.644,-22.084,-15.498,-63.93,-142.588
0.1347462000003361,-14.539,-62.635,-305.62,-140.058,8.811,-62.022,339.155,20.449,-54.694,-46.123,-29.699,-5.886,-39.988,-36.433,-0.799,26.578,-18.212,-34.272,-30.429,-18.74,-18.77,-19.418,-6.048,-17.253,-22.237,-26.673,-19.581,-77.698,-148.593
0.14971190000005663,-17.598,-80.503,-318.635,-168.607,-23.473,-79.891,371.604,-8.773,-70.008,-58.885,-47.088,-19.2,-52.243,-48.692,-31.536,14.769,-31.001,-43.46,-46.28,-36.139,-28.997,-38.354,-22.436,-40.802,-35.535,-50.725,-33.906,-100.162,-146.395
0.14977890000000116,-18.605,-78.886,-301.922,-157.68,-30.109,-80.323,404.02,-11.839,-68.401,-57.801,-44.479,-19.181,-46.556,-42.495,-36.116,13.729,-22.261,-37.781,-39.574,-30.468,-27.431,-34.218,-15.242,-31.027,-37.549,-46.575,-32.847,-88.791,-140.101
0.16464210000003732,-19.099,-59.339,-268.833,-126.784,-5.488,-62.824,400.03,14.301,-52.964,-48.522,-30.602,-9.94,-37.8,-31.694,-18.149,21.912,-9.943,-28.522,-30.825,-18.654,-18.694,-22.913,-3.956,-11.016,-26.241,-25.524,-23.081,-66.673,-118.444
0.16871620000028997,-19.08,-59.792,-266.002,-128.706,-4.971,-56.614,367.354,27.094,-46.763,-42.838,-31.084,-10.443,-35.2,-33.712,-15.569,29.063,-12.495,-31.055,-33.868,-21.709,-17.651,-26.476,-10.099,-16.641,-27.751,-32.671,-25.619,-70.193,-111.666
0.18202670000027865,-19.061,-75.101,-298.012,-145.483,-21.359,-69.365,369.548,10.673,-58.499,-48.943,-38.225,-16.068,-37.727,-35.215,-24.263,24.935,-14.019,-33.585,-37.933,-27.323,-20.707,-35.159,-19.823,-34.042,-40.019,-47.495,-31.741,-86.516,-141.78
0.1820981999999276,-20.066,-72.977,-294.64,-145.85,-20.826,-74.418,401.967,-3.682,-62.539,-51.455,-36.138,-12.978,-36.664,-23.397,-21.677,23.373,-9.907,-24.33,-34.821,-25.247,-15.564,-33.074,-17.242,-32.471,-37.417,-39.251,-29.66,-84.381,-146.249
0.19481180000002496,-22.096,-63.683,-269.242,-143.143,-11.583,-65.122,434.352,0.933,-52.231,-43.207,-33.028,-9.379,-30.48,-18.762,-18.581,33.596,-9.897,-23.281,-30.688,-23.684,-10.937,-22.795,-10.052,-18.094,-34.818,-30.502,-26.557,-69.952,-116.389
0.20979860000034023,-23.61,-68.742,-281.268,-148.635,-15.67,-66.082,401.643,4.006,-54.228,-45.725,-38.63,-15.005,-36.085,-38.211,-22.149,29.464,-15.522,-38.627,-35.78,-29.296,-16.562,-27.895,-12.091,-19.101,-50.153,-39.693,-29.092,-72.443,-122.933
0.20986240000002,-24.611,-74.309,-296.868,-147.462,-21.29,-73.701,368.966,2.977,-66.981,-56.438,-46.276,-21.65,-49.369,-51.493,-24.688,14.578,-26.265,-47.81,-42.404,-34.902,-19.619,-41.187,-20.276,-34.963,-54.201,-46.826,-34.698,-88.765,-145.864
0.20990460000029998,-23.562,-69.111,-285.301,-138.093,-12.047,-65.43,336.321,14.757,-64.865,-53.82,-43.668,-19.066,-48.807,-41.196,-24.664,20.199,-28.801,-42.639,-39.288,-32.306,-14.989,-37.56,-18.719,-36.978,-41.852,-41.656,-34.151,-93.287,-132.398
0.22473540000009962,-24.563,-65.456,-286.04,-133.344,-10.498,-58.704,368.773,20.89,-57.115,-48.643,-36.965,-14.437,-43.635,-35.519,-27.201,30.937,-17.501,-32.862,-35.15,-28.175,-14.461,-28.813,-13.577,-28.231,-44.371,-36.491,-28.994,-86.021,-128.167
0.22869670000000042,-24.026,-66.927,-296.0,-132.698,-27.906,-67.355,401.192,1.914,-60.644,-52.693,-38.977,-14.934,-44.616,-41.631,-31.272,26.807,-13.385,-28.731,-37.165,-28.147,-18.545,-34.932,-18.174,-31.277,-47.401,-40.041,-29.477,-80.3,-142.896
0.24166360000026543,-19.904,-66.348,-285.97,-132.566,-24.804,-68.825,414.11,-11.408,-60.584,-47.517,-37.913,-14.407,-37.912,-35.954,-29.191,30.367,-15.421,-31.264,-34.566,-26.069,-15.965,-36.946,-19.181,-33.295,-39.156,-41.026,-32.522,-79.707,-124.31
0.2417318000002524,-17.322,-64.233,-272.364,-135.507,2.373,-55.948,381.421,10.12,-47.715,-34.15,-26.092,-7.22,-25.578,-24.647,-16.867,42.119,-6.696,-27.134,-25.822,-19.383,-12.363,-26.663,-9.94,-24.04,-42.191,-34.325,-26.854,-86.8,-103.181
0.25483900000017456,-20.891,-64.681,-273.629,-137.421,0.833,-51.281,361.059,28.553,-45.106,-34.116,-25.554,-5.164,-27.09,-23.598,-13.776,41.053,-3.103,-19.422,-25.796,-19.364,-17.474,-26.637,-11.467,-25.553,-49.834,-34.29,-24.778,-93.885,-119.984
0.26979930000015884,-22.407,-70.764,-286.163,-134.722,-21.197,-61.476,390.925,8.545,-60.43,-48.938,-38.848,-16.942,-38.333,-24.087,-26.57,36.401,-10.273,-23.501,-32.43,-26.517,-26.678,-35.832,-21.702,-36.286,-51.833,-43.99,-33.462,-94.816,-137.794
0.2698603000003459,-19.823,-74.791,-296.123,-128.952,-15.54,-69.099,412.563,-7.858,-64.981,-53.5,-38.297,-19.486,-39.832,-24.063,-27.568,37.901,-8.213,-25.527,-31.886,-24.953,-27.163,-32.722,-18.094,-33.176,-61.003,-45.483,-32.916,-96.258,-137.144
0.28480930000023363,-17.754,-66.007,-286.093,-120.626,-2.205,-57.759,379.875,13.155,-48.522,-37.565,-25.963,-2.561,-30.058,-27.625,-10.122,44.011,-4.106,-15.768,-23.145,-15.707,-20.989,-20.394,-7.317,-22.896,-62.991,-35.703,-20.588,-94.625,-131.372
0.28486720000000787,-14.663,-59.281,-271.462,-116.407,-9.887,-41.308,347.22,30.56,-39.252,-25.744,-20.814,3.077,-21.319,-28.622,-4.989,51.139,-7.176,-15.752,-16.461,-12.617,-16.869,-12.689,-4.236,-19.287,-52.169,-30.032,-15.444,-83.259,-128.679
0.30079539999996996,-11.062,-59.734,-272.728,-114.753,-11.414,-41.267,372.488,22.332,-44.848,-28.793,-20.281,-5.123,-19.761,-24.495,-11.131,50.576,-7.169,-20.347,-13.883,-12.093,-15.315,-11.139,-0.133,-12.608,-46.482,-27.953,-14.916,-69.344,-135.21
0.3008608000000095,-9.514,-51.478,-272.967,-106.954,0.38,-44.299,404.903,20.261,-40.192,-27.739,-15.138,0.005,-20.766,-18.323,-8.559,49.501,-5.113,-14.179,-10.796,-9.007,-14.788,-10.103,5.502,-5.423,-30.554,-23.827,-11.315,-63.127,-131.489
0.3148943999999574,-7.967,-47.328,-273.207,-104.798,3.966,-41.693,430.626,19.216,-36.054,-28.736,-16.147,4.104,-24.843,-20.866,-2.403,49.964,-9.718,-19.8,-15.396,-13.608,-17.847,-12.655,-2.188,-12.59,-14.642,-28.926,-16.427,-72.285,-114.963
0.3149593000002824,-7.447,-57.527,-282.667,-114.939,4.475,-49.336,397.92,2.291,-53.948,-40.49,-25.353,-8.708,-33.015,-32.116,-3.425,43.766,-16.881,-35.15,-25.114,-20.767,-22.44,-19.302,-11.92,-22.824,-36.656,-38.631,-24.095,-88.607,-115.873
0.32994060000009995,-10.514,-53.371,-270.602,-110.726,6.519,-51.848,367.808,4.338,-61.067,-39.938,-24.815,-10.236,-31.958,-32.596,-8.544,44.235,-18.401,-31.528,-23.04,-12.549,-21.905,-17.746,-5.248,-17.165,-51.477,-31.932,-17.411,-84.932,-118.319
0.3300082000000657,-12.04,-36.411,-245.74,-93.709,6.001,-35.915,351.046,29.436,-41.026,-24.016,-11.47,1.557,-19.118,-27.953,-9.56,58.535,-11.21,-23.812,-13.283,-4.852,-17.272,-9.531,5.004,-6.39,-26.834,-19.093,-8.172,-64.355,-103.344
0.3449147000001176,-12.54,-43.035,-256.765,-94.127,5.995,-36.904,374.261,28.382,-34.837,-25.529,-13.508,-1.006,-18.074,-35.609,-6.989,57.964,-7.613,-31.473,-16.343,-13.044,-20.841,-10.546,0.388,-8.433,-21.684,-23.684,-12.263,-61.729,-110.925
0.3449740999999449,-19.7,-60.41,-280.075,-110.427,-2.721,-58.896,406.675,0.177,-55.294,-43.434,-31.938,-11.763,-31.889,-42.234,-12.618,42.537,-18.876,-38.102,-28.622,-21.74,-29.53,-21.807,-11.396,-16.621,-46.254,-36.98,-21.984,-78.061,-133.355
0.36081560000002355,-23.779,-58.813,-273.135,-121.075,-14.501,-63.448,383.727,-4.434,-62.924,-48.514,-36.004,-15.338,-39.541,-37.068,-21.314,40.957,-26.542,-34.99,-35.766,-24.28,-30.525,-27.42,-17.532,-22.24,-54.404,-41.042,-24.524,-88.229,-120.927
0.3608839000003172,-14.021,-47.483,-250.832,-113.782,-3.728,-43.404,351.068,25.284,-45.955,-35.145,-22.648,-7.638,-31.305,-32.933,-12.072,50.138,-14.732,-29.319,-33.169,-22.719,-20.248,-23.807,-12.904,-20.681,-50.251,-35.878,-16.302,-79.432,-95.19
0.37602890000016487,-5.81,-42.313,-235.212,-97.274,10.62,-31.578,383.504,40.116,-32.076,-23.327,-15.453,1.079,-18.466,-29.314,0.236,55.211,-6.52,-28.265,-26.476,-14.499,-11.006,-16.611,-4.694,-11.951,-40.467,-28.67,-9.626,-66.032,-93.558
0.376103200000216,-10.928,-50.98,-242.149,-100.763,-3.735,-45.379,415.908,13.948,-44.852,-36.112,-25.684,-7.631,-25.107,-33.383,-13.597,49.52,-20.346,-41.045,-32.085,-19.096,-19.192,-22.229,-13.398,-15.525,-30.181,-36.838,-18.838,-76.725,-103.711
0.3900134000000435,-17.064,-64.249,-263.424,-114.495,-19.613,-58.653,383.217,3.176,-59.664,-51.957,-37.954,-20.431,-43.525,-47.694,-32.026,38.2,-31.084,-47.151,-42.299,-33.421,-31.981,-33.478,-23.119,-27.805,-41.421,-48.072,-26.504,-92.529,-111.292
0.3900806999999986,-9.363,-51.377,-259.062,-100.548,-9.347,-38.615,350.558,35.96,-41.674,-32.437,-25.62,-8.116,-33.236,-40.474,-25.334,45.334,-15.172,-26.612,-27.399,-20.068,-23.239,-19.612,-6.189,-13.945,-41.38,-33.679,-11.62,-67.846,-116.816
0.40502550000019255,-1.669,-28.784,-240.872,-81.492,-0.116,-22.182,382.996,42.072,-24.726,-12.937,-8.176,5.725,-10.661,-20.966,-13.526,60.146,-1.324,-16.851,-9.954,-0.58,-8.872,-2.174,7.649,5.537,-18.797,-18.789,-0.338,-42.163,-116.187
0.4050907000000734,-9.864,-42.075,-248.828,-96.267,-7.288,-45.726,415.4,9.754,-46.218,-33.929,-23.025,-7.601,-26.02,-34.777,-16.074,46.766,-17.717,-38.864,-27.874,-18.51,-17.572,-20.615,-9.265,-6.764,-34.66,-34.651,-13.145,-65.174,-108.898
0.4209200000000237,-15.489,-59.451,-251.653,-106.417,-8.306,-57.976,382.71,11.794,-61.029,-47.215,-38.883,-16.815,-44.949,-54.722,-19.644,30.837,-33.068,-52.145,-44.24,-33.861,-25.239,-34.939,-19.502,-21.102,-66.9,-45.375,-23.378,-82.015,-99.568
0.4351455999999416,-6.252,-45.047,-237.057,-90.429,-2.662,-38.963,388.987,40.984,-44.061,-30.774,-27.574,-8.601,-32.096,-42.885,-20.649,41.565,-21.764,-40.822,-31.388,-20.507,-15.48,-19.022,-9.748,-12.884,-55.05,-36.108,-15.158,-66.564,-103.054
0.43521030000010796,-4.709,-38.342,-245.529,-91.876,-7.782,-41.485,421.386,21.475,-37.357,-30.231,-24.985,-10.129,-25.916,-35.157,-26.263,44.085,-15.595,-33.609,-27.771,-21.511,-13.927,-17.979,-11.788,-14.408,-25.794,-38.121,-15.143,-70.084,-119.345
0.45010050000018964,-15.463,-52.136,-251.944,-110.227,-15.972,-55.276,452.215,-2.625,-44.492,-36.861,-32.644,-13.705,-32.551,-44.343,-25.213,33.795,-25.313,-41.772,-35.94,-31.224,-20.574,-27.695,-16.387,-24.127,-24.231,-44.743,-22.3,-87.944,-115.64
0.4501665000002504,-18.521,-51.572,-233.761,-104.994,-10.832,-40.364,419.487,21.968,-39.837,-22.991,-24.927,-4.983,-24.321,-41.738,-16.99,37.859,-25.288,-46.854,-28.732,-21.458,-15.43,-17.421,-7.149,-17.956,-26.768,-37.526,-15.618,-83.246,-100.155
0.46511959999998,-13.38,-45.373,-237.113,-93.618,-2.112,-32.639,386.792,43.463,-34.674,-21.944,-19.267,-4.465,-20.711,-42.208,-12.363,42.432,-21.676,-41.171,-25.117,-19.9,-13.365,-11.256,-3.556,-13.839,-22.643,-33.39,-8.942,-74.453,-110.813
0.46517930000027263,-8.756,-48.913,-256.856,-98.135,-0.573,-45.926,419.193,29.588,-38.738,-32.68,-25.395,-9.072,-26.838,-55.486,-5.178,37.779,-26.265,-35.495,-29.703,-27.052,-18.987,-16.367,-5.601,-17.924,-21.084,-34.894,-14.056,-72.33,-118.387
0.4801206000001912,-10.796,-53.475,-252.501,-99.062,-0.573,-45.368,425.434,21.361,-40.748,-28.549,-26.394,-5.476,-24.762,-51.332,-5.685,37.741,-26.239,-41.607,-28.648,-24.464,-19.481,-19.937,-6.108,-15.857,-31.821,-36.396,-17.628,-75.843,-103.924
0.48417680000011387,-22.056,-58.032,-248.15,-99.475,-1.085,-39.175,392.733,33.635,-43.782,-31.082,-28.929,-10.594,-29.348,-34.375,-23.098,35.142,-23.139,-47.713,-34.767,-29.562,-20.486,-27.602,-14.299,-17.89,-50.744,-45.581,-20.172,-91.649,-108.943
0.4960926000003383,-22.034,-54.388,-246.877,-103.474,-2.62,-44.259,400.538,38.212,-49.885,-40.273,-32.999,-18.268,-38.54,-31.266,-26.149,31.521,-20.554,-35.37,-36.269,-34.144,-19.953,-28.599,-14.284,-21.971,-44.546,-46.56,-21.689,-84.385,-122.154
0.49615369999992254,-8.18,-41.014,-230.237,-93.636,-0.056,-45.239,432.925,18.706,-49.323,-35.622,-27.843,-10.053,-30.304,-31.235,-12.29,38.661,-10.288,-18.428,-22.913,-22.326,-10.711,-15.763,-2.487,-13.239,-26.058,-29.095,-10.909,-51.513,-112.81
0.5102577000002384,-9.196,-40.973,-230.006,-86.883,-1.593,-46.731,410.463,6.392,-49.786,-37.123,-27.303,-7.993,-28.225,-33.253,-17.401,39.647,-10.79,-22.508,-25.964,-19.743,-9.676,-14.722,-9.145,-9.128,-40.889,-24.967,-6.799,-53.511,-108.087
0.5103220000000874,-16.359,-52.203,-246.682,-100.628,-8.764,-49.246,377.777,27.903,-52.81,-43.233,-30.862,-14.645,-36.906,-44.491,-27.117,34.485,-25.124,-38.88,-35.16,-27.407,-16.326,-21.368,-19.382,-19.877,-44.947,-38.262,-14.99,-85.733,-103.88
0.5252033000001575,-9.683,-51.126,-240.288,-106.163,-7.73,-42.536,410.187,39.658,-47.122,-32.944,-25.195,-7.459,-29.184,-41.885,-15.82,41.623,-21.512,-36.792,-19.243,-18.159,-9.138,-12.125,-3.481,-18.32,-12.114,-33.613,-11.388,-87.184,-87.895
0.5252602999998999,-11.21,-49.538,-236.974,-103.495,-1.575,-46.08,442.564,7.343,-46.05,-33.936,-21.584,-0.279,-19.421,-26.473,-12.73,46.704,-7.146,-20.873,-8.978,-8.919,-7.079,-3.403,7.794,-4.982,-10.565,-21.284,-4.717,-73.777,-101.127
0.5402328000000125,-22.982,-54.099,-252.618,-106.466,-6.184,-59.866,424.703,-13.157,-53.689,-43.636,-24.124,-5.402,-22.988,-27.984,-24.5,41.022,-12.774,-21.877,-17.678,-15.058,-19.368,-10.06,-3.485,-8.051,-42.83,-29.972,-12.909,-80.363,-127.666
0.544481899999937,-17.324,-51.996,-242.632,-97.65,-4.641,-48.023,392.003,14.009,-43.901,-29.76,-20.001,-2.835,-17.33,-37.177,-19.865,44.567,-16.86,-31.589,-16.123,-15.043,-16.275,-13.636,-7.58,-20.338,-34.078,-38.652,-15.458,-81.307,-114.731
0.5572420000003149,-8.597,-42.21,-219.336,-87.306,9.196,-31.581,404.931,38.586,-26.951,-15.385,-15.883,4.853,-7.578,-32.529,-6.013,51.182,-5.572,-25.41,-9.447,-8.368,-1.914,-7.987,0.625,-17.244,-14.576,-31.953,-8.27,-64.832,-98.222
0.5573106000001644,-16.273,-41.655,-229.875,-97.465,0.99,-42.821,415.797,29.325,-36.658,-27.153,-22.015,0.237,-17.305,-30.96,-9.081,47.033,-9.665,-24.36,-17.122,-15.019,-3.961,-7.467,-1.425,-11.079,-31.98,-28.335,-9.286,-61.693,-113.493
0.5693937000000915,-21.38,-53.909,-252.699,-105.564,-23.09,-56.098,383.106,20.587,-53.528,-40.958,-31.214,-10.009,-33.169,-37.589,-19.318,38.789,-25.025,-41.242,-29.401,-28.324,-11.642,-18.218,-15.256,-22.851,-44.243,-35.991,-15.937,-81.612,-122.089
0.5694570000000567,-21.871,-62.564,-253.983,-104.947,-18.968,-55.529,378.112,22.616,-54.499,-44.503,-37.843,-17.171,-38.771,-39.601,-24.421,33.115,-25.512,-44.274,-38.593,-33.931,-12.142,-31.007,-24.463,-37.173,-39.076,-45.177,-21.044,-92.801,-115.307
0.5843626000000768,-30.046,-59.94,-245.532,-115.088,-6.654,-62.646,410.521,4.662,-56.494,-48.557,-39.854,-20.228,-38.732,-39.049,-29.52,30.008,-21.901,-35.521,-37.017,-33.897,-14.179,-32.001,-20.852,-35.086,-45.697,-49.23,-25.122,-84.511,-114.679
0.5844276000002537,-30.528,-57.319,-244.774,-117.534,-16.893,-69.756,442.899,-15.835,-62.072,-49.533,-39.815,-16.622,-37.669,-42.084,-33.589,33.052,-25.465,-39.071,-29.296,-33.351,-16.727,-24.284,-14.683,-23.78,-48.213,-43.545,-24.584,-79.304,-113.027
0.5993320000002313,-17.69,-55.725,-247.091,-96.412,-14.827,-57.391,410.18,6.723,-53.301,-42.824,-37.213,-10.457,-32.508,-36.406,-28.945,37.629,-21.341,-36.471,-28.242,-30.244,-12.099,-19.137,-11.595,-17.097,-30.234,-35.305,-20.974,-79.224,-107.279
0.6032899000001635,-16.135,-46.447,-236.598,-86.582,5.168,-44.526,377.495,39.504,-38.903,-30.998,-28.467,-7.373,-22.742,-28.173,-19.694,39.641,-13.635,-23.627,-25.652,-24.066,-7.989,-16.556,-9.022,-18.104,-21.494,-34.757,-15.317,-74.022,-108.709
0.6161866000002192,-23.291,-46.913,-222.016,-100.328,3.113,-47.555,409.905,30.242,-40.401,-30.455,-24.34,-8.39,-21.182,-32.243,-17.625,39.601,-16.183,-26.164,-19.991,-20.968,-9.518,-17.564,-10.037,-21.672,-34.281,-40.358,-12.228,-76.509,-115.26
0.6162512000000788,-16.608,-54.551,-225.893,-106.887,-10.21,-49.044,403.347,16.38,-52.144,-41.695,-29.439,-10.431,-29.87,-38.871,-21.706,37.512,-18.728,-30.237,-22.02,-22.996,-6.947,-19.084,-11.564,-23.187,-39.369,-40.317,-14.265,-82.068,-116.169
0.6294198999999026,-7.37,-47.324,-231.815,-93.46,-7.126,-37.724,382.452,29.171,-49.018,-34.481,-24.286,-5.81,-27.791,-35.246,-23.221,40.549,-16.66,-24.059,-19.949,-20.412,3.819,-12.404,-4.38,-20.09,-18.325,-27.982,-9.64,-69.691,-102.221
0.6444604000002983,-9.412,-36.518,-220.824,-80.559,-4.045,-26.928,414.857,36.827,-32.063,-13.954,-12.991,1.88,-12.394,-31.624,-19.612,49.73,-15.619,-26.596,-11.22,-12.194,8.426,-4.195,1.772,-14.435,-3.963,-16.683,0.616,-58.863,-86.749
0.6445274000002428,-10.427,-41.092,-218.554,-86.626,-9.164,-30.487,430.836,32.179,-32.031,-18.551,-18.101,-2.732,-12.382,-33.642,-17.543,48.655,-15.603,-32.205,-14.795,-12.695,4.319,-7.265,-0.792,-11.347,-23.426,-19.74,-3.483,-68.025,-94.347
0.6594183000001976,-13.49,-56.933,-233.705,-107.032,-16.327,-52.998,451.41,15.241,-55.565,-44.66,-34.989,-18.099,-34.911,-38.731,-27.259,32.725,-22.76,-31.661,-26.051,-26.514,-2.345,-18.016,-8.988,-19.02,-45.944,-32.016,-16.8,-84.863,-110.647
0.6594816000001629,-24.235,-70.708,-240.131,-122.294,-20.409,-77.536,483.746,-13.976,-72.928,-60.497,-48.787,-25.253,-52.294,-47.402,-40.552,21.422,-34.008,-41.875,-34.734,-37.758,-10.54,-28.756,-21.274,-32.833,-51.534,-42.742,-22.931,-96.562,-109.511
0.6752997000003234,-22.162,-65.515,-233.231,-114.487,-10.655,-72.848,450.987,-7.814,-60.047,-56.338,-45.664,-18.568,-45.07,-52.478,-35.389,27.548,-33.974,-47.981,-38.797,-34.134,-12.066,-31.801,-24.327,-34.85,-55.068,-46.798,-22.908,-90.317,-102.23
0.6753665000001092,-10.357,-50.592,-228.899,-102.077,-2.96,-48.184,418.26,22.42,-42.056,-37.839,-28.712,-8.815,-29.656,-51.913,-23.57,35.205,-25.231,-38.711,-30.562,-24.879,-1.808,-26.647,-14.568,-30.204,-46.816,-43.165,-18.786,-75.883,-109.812
0.6895002000001114,-16.494,-54.64,-230.72,-107.098,-10.129,-40.964,442.945,22.909,-44.576,-29.604,-23.56,-6.245,-27.064,-51.349,-25.596,32.096,-22.132,-35.599,-20.797,-22.805,3.317,-22.522,-9.943,-36.834,-23.716,-42.61,-16.206,-81.442,-121.998
0.6895660000000134,-20.064,-62.27,-225.878,-106.991,-3.971,-43.997,447.113,22.887,-47.605,-33.673,-27.123,-7.776,-28.062,-37.977,-23.521,33.088,-17.499,-31.977,-22.826,-22.27,2.801,-19.937,-11.47,-37.309,-26.254,-43.079,-16.702,-86.996,-114.703
0.7044893000002048,-7.748,-57.597,-221.554,-99.2,5.254,-40.879,449.227,34.134,-38.848,-29.541,-22.485,-6.231,-21.886,-22.058,-14.276,37.666,-11.334,-21.699,-27.414,-21.223,7.921,-20.43,-12.996,-24.464,-58.503,-37.401,-15.149,-81.274,-98.195
0.7045504000002438,-11.327,-69.835,-239.263,-112.933,-16.268,-56.207,481.566,6.948,-49.056,-37.196,-31.684,-12.885,-29.549,-35.356,-28.606,23.796,-22.593,-34.997,-38.145,-30.423,3.815,-34.242,-23.741,-32.637,-74.326,-45.56,-20.769,-96.562,-109.88
0.71953590000021,-24.635,-81.036,-254.393,-126.652,-31.621,-75.106,458.543,-17.137,-67.962,-58.675,-48.558,-23.63,-46.938,-54.788,-43.947,6.354,-35.891,-51.868,-48.865,-39.102,-5.41,-42.404,-29.865,-50.535,-46.587,-58.835,-29.97,-102.1,-131.287
0.7196038000001863,-15.901,-53.29,-226.986,-102.959,-11.097,-54.539,425.809,15.155,-55.086,-45.809,-34.678,-13.873,-41.768,-43.975,-28.534,16.081,-28.17,-39.521,-33.447,-28.304,7.915,-24.431,-12.929,-33.066,-14.777,-39.821,-18.669,-69.211,-116.811
0.736352700000225,-6.152,-28.646,-194.484,-81.34,2.747,-27.332,431.018,44.854,-33.514,-20.148,-14.151,1.51,-23.795,-31.635,-15.185,32.459,-17.896,-26.674,-14.458,-14.444,21.739,-8.013,0.916,-9.467,-21.935,-16.727,-1.232,-51.211,-91.591
0.7364293000000544,-15.367,-38.351,-199.925,-89.967,-0.33,-32.428,457.227,36.612,-36.042,-22.689,-19.772,-3.614,-22.747,-34.678,-20.293,31.914,-16.341,-29.209,-16.493,-13.917,12.496,-10.054,-3.183,-17.142,-41.38,-23.37,-5.329,-77.287,-87.913
0.7500803000002634,-17.401,-45.997,-210.484,-98.587,4.793,-41.105,489.558,22.743,-41.642,-26.253,-21.801,-9.246,-26.31,-31.569,-16.174,28.809,-12.226,-27.643,-15.964,-13.903,8.898,-10.044,-2.155,-23.272,-23.408,-27.445,-10.447,-83.87,-84.239
0.7501473000002079,-8.162,-43.39,-206.175,-95.414,5.813,-40.551,521.856,8.376,-41.6,-24.177,-16.656,-4.626,-26.284,-28.464,-10.523,27.755,-11.702,-26.59,-12.362,-12.352,15.549,-9.522,1.945,-16.589,1.206,-21.782,-5.825,-69.441,-83.643
0.7645775999999387,-10.715,-51.543,-212.628,-97.368,-2.39,-46.658,489.059,6.318,-49.755,-38.498,-28.423,-8.208,-33.43,-38.681,-19.734,19.531,-19.374,-31.687,-26.182,-20.024,10.41,-20.271,-8.303,-24.257,-16.726,-32.519,-12.992,-75.007,-96.367
0.7646414999999251,-18.902,-54.566,-221.125,-103.931,-4.436,-52.247,456.294,21.169,-52.267,-43.582,-34.542,-13.835,-36.47,-41.717,-25.349,14.9,-20.892,-30.631,-32.816,-25.127,6.301,-26.91,-16.491,-31.917,-43.349,-39.659,-21.688,-83.641,-95.758
0.7796244999999544,-17.858,-44.265,-209.633,-104.339,-5.969,-49.633,488.626,21.148,-46.067,-32.268,-25.798,-8.698,-28.237,-30.404,-20.713,18.984,-16.26,-23.94,-22.024,-18.442,18.078,-17.662,-7.253,-20.615,-39.72,-28.348,-15.519,-77.41,-90.539
0.7796885000002476,-15.279,-39.098,-199.177,-92.452,-6.475,-44.461,499.92,18.565,-46.021,-32.748,-24.236,-6.64,-26.672,-27.812,-18.643,18.453,-15.732,-23.916,-18.929,-14.838,25.232,-8.423,-0.074,-12.91,-27.385,-21.66,-7.819,-72.21,-104.281
0.7965163000003486,-18.85,-43.669,-208.712,-84.675,-2.37,-41.855,467.145,32.891,-47.512,-36.301,-27.798,-9.707,-34.33,-39.567,-14.014,12.799,-19.302,-31.064,-25.57,-21.483,24.695,-13.025,-8.271,-22.63,-29.919,-25.225,-10.372,-75.211,-104.689
0.7965812000002188,-17.294,-45.675,-214.139,-91.762,-2.88,-41.813,499.465,29.272,-43.878,-27.556,-22.134,-5.087,-31.222,-40.04,-6.828,13.811,-17.746,-33.083,-22.983,-20.437,28.768,-17.111,-10.312,-27.219,-40.135,-25.199,-12.411,-73.599,-80.506
0.8097276000003149,-5.493,-37.432,-199.068,-93.207,1.221,-36.648,531.754,16.435,-37.687,-17.794,-11.354,3.115,-18.383,-23.606,-6.821,21.481,-8.507,-23.828,-12.201,-6.584,33.35,-4.798,3.531,-12.847,-34.972,-17.49,-5.226,-62.255,-74.79
0.8247172999999748,-1.389,-31.247,-191.696,-86.966,7.88,-29.439,498.947,30.251,-34.063,-17.777,-11.342,1.063,-15.803,-26.656,-11.425,21.46,-11.06,-21.755,-9.627,-4.016,31.78,0.842,7.626,-6.686,-10.346,-14.398,-2.147,-60.143,-95.72
0.8247857999999724,-14.708,-43.511,-207.386,-100.199,-7.497,-42.217,466.172,28.684,-47.349,-35.177,-29.774,-11.746,-34.742,-53.782,-21.147,4.02,-29.492,-38.127,-24.987,-23.48,19.965,-19.651,-8.776,-30.758,-3.164,-32.315,-14.441,-81.6,-108.432
0.8397168999999849,-27.501,-61.398,-223.573,-121.616,-28.494,-65.741,498.494,-3.62,-67.794,-56.659,-48.7,-23.005,-52.126,-60.901,-35.983,-10.329,-34.585,-45.773,-42.38,-35.752,7.65,-35.513,-20.55,-50.707,-30.825,-52.775,-29.795,-100.986,-107.811
0.8397745000002033,-26.449,-61.337,-227.96,-118.421,-26.417,-69.774,530.783,-23.084,-67.726,-55.065,-46.602,-20.42,-45.414,-37.786,-39.021,-6.22,-22.255,-32.92,-38.24,-29.056,12.765,-27.793,-15.406,-38.361,-50.262,-47.086,-29.766,-94.225,-115.9
0.8547102000002269,-18.226,-51.542,-222.609,-102.933,-20.242,-53.31,497.977,1.017,-52.289,-39.641,-31.186,-9.641,-31.536,-22.379,-27.199,1.983,-13.012,-20.079,-24.369,-19.805,27.609,-19.056,-6.169,-23.978,-34.842,-31.67,-16.928,-78.249,-120.907
0.8588149000001977,-12.06,-45.855,-208.554,-99.756,-21.247,-36.863,465.203,33.804,-41.991,-31.917,-23.983,-6.046,-29.455,-25.43,-22.561,1.981,-10.437,-16.985,-20.759,-19.273,35.267,-18.524,-3.602,-27.028,-18.414,-32.151,-10.764,-77.147,-99.269
0.8708922000000712,-14.097,-46.321,-205.271,-103.755,-20.713,-39.9,469.349,40.942,-43.485,-33.422,-28.569,-11.675,-32.5,-35.139,-29.71,-1.095,-14.525,-22.604,-26.373,-21.815,33.694,-19.53,-8.721,-34.173,-25.568,-38.266,-17.925,-83.729,-84.825
0.8709561000000576,-18.181,-52.423,-216.337,-103.139,-16.594,-53.692,501.667,14.774,-51.639,-40.048,-33.664,-13.712,-35.029,-39.202,-28.656,-5.192,-24.757,-33.34,-26.859,-22.306,29.05,-21.048,-12.298,-33.627,-33.227,-37.203,-23.03,-81.084,-100.11
0.8848170000001119,-17.138,-51.858,-209.461,-99.45,-8.381,-54.151,533.953,-1.635,-53.124,-42.058,-30.556,-8.063,-36.018,-37.626,-21.455,-8.261,-25.757,-38.429,-21.197,-20.234,27.996,-17.953,-6.651,-28.47,-28.583,-35.117,-18.396,-76.392,-100.522
0.8848835000003419,-22.757,-48.732,-192.345,-102.936,-11.958,-49.998,501.144,8.613,-51.534,-44.577,-34.624,-12.154,-40.593,-45.785,-29.631,-13.375,-25.218,-40.953,-27.836,-25.849,26.431,-19.472,-7.669,-28.954,-36.239,-38.668,-21.964,-85.025,-85.565
0.8998587999999472,-30.419,-54.319,-184.98,-107.444,-31.414,-59.17,468.367,15.264,-60.192,-55.803,-45.348,-21.875,-50.286,-55.986,-44.458,-21.559,-30.829,-42.449,-39.591,-34.02,21.794,-31.236,-18.932,-37.634,-51.059,-46.314,-29.627,-87.502,-84.454
0.8999254000000292,-17.068,-48.117,-161.741,-92.992,-30.358,-56.037,500.687,18.835,-56.033,-51.649,-36.593,-12.632,-46.65,-42.097,-37.241,-17.951,-19.015,-30.623,-28.793,-25.277,30.994,-26.081,-12.765,-31.961,-34.614,-40.12,-21.913,-62.311,-62.853
0.9148195000002488,-4.756,-28.089,-128.792,-72.407,-10.348,-38.05,532.974,29.062,-38.559,-32.642,-21.188,1.213,-30.209,-29.76,-19.785,-6.15,-6.7,-23.42,-16.469,-16.03,44.795,-12.223,2.104,-16.56,-6.403,-25.223,-12.157,-37.146,-30.003
0.9187743000002229,-20.12,-27.036,-110.22,-70.798,-13.411,-41.086,500.165,29.033,-42.619,-35.683,-30.388,-8.522,-32.741,-43.562,-24.889,-11.779,-22.575,-37.741,-29.772,-25.236,39.627,-20.92,-5.07,-20.13,-12.544,-29.296,-16.755,-39.67,-5.382
0.9319629999999961,-23.174,-30.595,-83.982,-68.677,-25.693,-47.705,479.173,29.517,-49.748,-43.844,-35.481,-14.661,-41.417,-43.519,-34.085,-16.891,-24.089,-34.63,-30.767,-24.186,40.1,-26.022,-9.676,-27.282,-23.802,-36.439,-18.276,-43.729,13.067
0.9320330999998987,2.465,-6.999,-51.111,-46.067,-9.786,-27.677,511.481,41.27,-29.206,-20.747,-11.367,4.309,-21.908,-16.835,-14.071,1.569,5.136,-3.344,-4.096,-3.157,60.552,-2.942,9.289,-10.348,-8.922,-15.398,-3.4,-27.804,45.841
0.9449256000002606,10.147,14.525,-18.272,-28.603,14.302,-13.817,543.758,45.327,-18.419,-3.82,1.965,16.088,-3.443,-7.085,6.947,12.838,11.791,4.344,5.642,6.58,64.59,11.918,20.039,7.593,5.944,2.548,7.361,-7.796,70.899
0.9449910000003001,1.427,9.9,-21.327,-30.623,18.386,-20.976,510.939,42.208,-31.72,-16.111,-8.796,7.875,-12.661,-21.934,-0.744,0.53,-4.615,-14.616,-8.196,-1.624,50.693,1.147,10.285,3.487,2.864,-5.651,2.743,-2.665,45.212
0.959860700000263,5.012,2.206,-42.823,-34.179,6.073,-21.467,478.152,43.191,-34.762,-23.268,-13.398,2.744,-22.382,-28.06,-12.526,-8.18,-5.122,-18.7,-11.774,-8.282,49.618,-9.1,5.151,-6.763,-4.311,-13.33,-3.919,-12.396,29.798
0.9599213000001328,8.081,3.74,-59.686,-32.608,-0.081,-15.298,459.231,49.295,-27.043,-14.023,-6.212,7.864,-16.212,-17.274,-4.829,-2.536,6.154,-4.849,-5.102,-3.151,56.741,-3.455,9.245,-7.781,-6.356,-8.706,0.695,-19.556,35.916
0.9749018000002252,4.999,7.835,-66.799,-30.526,12.727,-8.11,426.496,63.078,-21.893,-5.3,-0.058,12.467,-7.999,-6.498,5.422,6.688,14.344,3.865,2.587,7.099,61.295,9.356,13.334,-0.601,-6.349,-3.062,7.355,-16.463,32.294
0.9788406000002396,6.531,2.192,-87.737,-37.668,11.689,-9.639,458.858,56.867,-24.945,-11.954,-6.206,7.844,-12.09,-14.688,-5.342,3.608,7.67,-6.897,-0.489,1.968,62.258,5.76,9.734,-1.112,-21.712,-5.621,-0.337,-26.18,5.621
0.9922547000001032,0.377,-23.426,-119.924,-65.807,-14.962,-37.806,491.186,24.535,-47.461,-37.045,-28.229,-8.046,-32.57,-35.166,-26.854,-17.401,-12.83,-30.456,-20.469,-19.038,49.388,-16.787,-5.132,-19.554,-48.843,-24.57,-18.268,-52.794,-26.66
1.0052160000000185,-9.87,-39.796,-149.006,-87.77,-15.972,-57.236,493.257,0.432,-61.758,-49.816,-35.885,-14.698,-45.345,-35.643,-26.315,-25.068,-12.305,-28.377,-26.596,-21.068,44.728,-21.893,-11.275,-27.219,-39.572,-36.841,-20.811,-61.963,-51.224
1.0052891000000272,-2.688,-22.85,-123.754,-73.338,13.758,-34.125,460.488,33.219,-39.155,-27.225,-12.795,1.198,-27.369,-18.701,-3.747,-3.526,9.224,-4.782,-5.565,-0.043,66.2,-2.404,5.643,-9.774,-6.745,-17.849,-3.372,-49.093,-37.34
1.0200963000002048,6.537,-8.995,-112.359,-59.945,18.867,-13.086,427.752,65.974,-20.673,-8.754,0.537,10.931,-10.435,-17.146,3.429,6.211,10.24,-7.851,1.613,6.105,76.38,8.869,16.395,2.531,-7.763,1.124,5.341,-36.236,-40.377
1.0201615999999376,-6.79,-24.355,-144.522,-80.889,1.43,-26.393,460.112,44.903,-32.435,-21.041,-15.345,0.162,-20.671,-35.059,-10.919,-10.701,-8.726,-29.873,-17.344,-7.221,56.324,-3.947,0.497,-9.767,-40.031,-11.685,-6.96,-43.884,-72.612
1.035012800000004,-23.689,-44.823,-176.653,-96.69,-8.305,-43.273,476.046,21.292,-48.284,-39.463,-31.211,-10.597,-38.581,-52.955,-23.203,-24.523,-22.037,-36.503,-31.671,-20.534,41.41,-24.436,-16.409,-29.224,-42.552,-33.19,-20.785,-74.067,-85.859
1.0350770000000011,-19.567,-49.902,-181.087,-89.933,-12.908,-51.427,480.693,13.074,-56.433,-43.522,-33.229,-11.611,-44.178,-52.902,-25.742,-25.01,-23.552,-35.442,-28.566,-22.563,45.467,-26.46,-14.344,-31.244,-35.337,-35.718,-22.301,-90.899,-79.113
1.0506467000000157,-5.203,-42.679,-169.636,-87.794,-10.846,-49.838,513.0,7.938,-53.303,-36.306,-23.462,-5.964,-34.912,-35.431,-18.544,-18.838,-12.258,-30.283,-15.729,-10.757,53.106,-5.942,0.528,-12.258,-52.72,-21.338,-14.082,-70.828,-80.571
1.0507127000000764,-3.661,-39.563,-173.052,-90.268,-2.638,-40.055,480.212,21.25,-39.417,-28.073,-14.729,2.239,-23.607,-26.174,-8.279,-12.671,-5.585,-20.519,-9.054,-4.599,57.664,0.212,6.675,-1.999,-55.229,-14.657,-7.92,-59.999,-82.027
1.0650774000000638,-9.292,-43.109,-186.711,-85.567,-1.611,-40.527,447.456,34.036,-39.378,-30.606,-18.813,2.749,-25.632,-35.881,-7.758,-14.708,-11.728,-24.597,-16.729,-11.766,61.705,-11.059,-2.041,-15.83,-36.219,-22.839,-12.011,-79.406,-90.655
1.0651418000002195,-4.672,-36.919,-183.451,-80.871,4.026,-40.999,479.796,22.219,-48.048,-28.527,-16.233,3.259,-25.094,-34.821,-2.627,-12.644,-6.08,-26.622,-14.663,-5.094,69.328,-2.851,-4.601,-18.375,-22.862,-20.767,-10.462,-78.815,-99.273
1.0800905999999486,3.017,-21.0,-162.263,-73.105,20.928,-19.953,512.104,27.832,-32.63,-9.543,3.764,14.526,-8.675,-16.343,14.794,2.226,10.832,-7.64,3.282,12.329,78.992,14.57,8.724,-1.963,-13.106,-6.401,3.381,-54.657,-83.805
1.080155399999967,1.477,-15.344,-160.563,-64.835,25.006,-6.613,479.317,56.494,-14.155,3.275,8.371,21.172,0.555,-12.228,19.39,6.322,13.895,0.565,5.84,10.268,76.864,10.457,12.302,-0.937,-19.753,-7.42,4.914,-48.967,-84.233
1.0950950000001285,-0.574,-23.525,-182.944,-66.819,13.71,-17.877,469.616,53.876,-22.337,-3.901,-4.445,13.466,-6.106,-21.95,5.538,-4.443,8.246,-11.219,-9.022,0.523,69.615,1.225,1.018,-11.182,-46.373,-18.683,-6.874,-59.165,-114.375
1.0951586000001043,0.964,-31.186,-194.032,-74.437,5.499,-27.593,501.934,28.719,-35.635,-17.729,-9.564,6.28,-11.735,-23.465,-2.152,-8.537,5.676,-14.794,-11.063,2.06,69.033,-0.313,-2.056,-12.195,-49.913,-23.275,-8.404,-68.327,-109.65
1.1109191000000465,-2.623,-33.717,-187.178,-79.998,4.469,-34.226,529.097,17.932,-38.161,-26.933,-11.091,6.274,-15.309,-25.491,-0.613,-8.016,2.596,-15.291,-5.928,2.058,68.452,-3.386,2.044,-14.232,-31.932,-25.813,-5.834,-76.455,-88.023
1.1109857000001284,-8.768,-33.683,-185.454,-81.455,4.977,-39.827,532.666,13.815,-39.147,-25.369,-14.666,6.78,-17.343,-34.174,-0.613,-13.643,2.594,-20.911,-13.095,-4.604,66.334,-5.432,-1.544,-18.317,-29.339,-27.324,-8.902,-73.305,-108.428
1.125548400000298,-10.297,-33.137,-188.343,-74.201,0.361,-31.59,499.858,19.949,-36.034,-16.635,-12.09,4.724,-14.252,-32.603,-4.198,-14.654,4.64,-18.329,-16.155,-5.112,71.391,-4.402,-2.055,-15.224,-34.945,-24.223,-8.381,-68.109,-120.102
1.125611299999946,-10.286,-33.104,-188.154,-76.176,-6.811,-22.337,467.083,38.884,-30.875,-15.594,-6.955,6.256,-12.189,-19.251,-7.268,-9.004,8.734,-11.138,-2.307,1.553,77.467,1.238,9.218,-9.062,-29.787,-21.637,-6.835,-76.238,-96.928
1.140166600000157,-7.202,-30.509,-190.528,-88.908,-0.144,-25.901,499.403,36.796,-31.357,-18.652,-6.436,11.373,-11.664,-14.108,-1.625,-6.946,16.922,-3.442,8.454,7.699,78.414,10.458,16.381,-4.442,-21.048,-15.98,-5.292,-76.161,-103.491
1.1402329000002283,-6.17,-33.04,-200.071,-87.282,12.663,-32.535,531.692,22.415,-32.862,-20.682,-11.552,8.8,-14.726,-30.488,0.938,-15.648,14.344,-3.439,-4.875,-1.018,71.164,2.763,5.606,-12.122,-27.174,-21.6,-7.336,-69.938,-129.003
1.1552200999999513,-12.312,-47.352,-213.191,-84.633,1.892,-44.285,498.884,18.806,-43.076,-34.494,-27.422,-5.554,-31.106,-51.462,-20.58,-29.977,-5.651,-24.44,-29.461,-21.509,56.235,-23.368,-14.892,-32.09,-56.349,-46.169,-22.697,-85.749,-126.825
1.1552867000000333,-10.763,-53.452,-215.539,-100.43,-22.188,-56.024,512.218,6.492,-58.402,-49.829,-34.055,-10.159,-41.321,-45.775,-36.953,-33.533,-10.256,-34.662,-34.042,-23.024,56.691,-26.418,-17.951,-35.131,-63.977,-50.734,-28.822,-96.934,-122.6
1.1708042000000205,-0.506,-41.616,-200.979,-104.94,-20.117,-45.21,544.493,0.85,-52.708,-36.459,-16.603,3.684,-26.422,-20.627,-20.522,-19.155,9.735,-11.061,-15.052,-4.046,77.127,-2.826,1.535,-18.19,-31.125,-25.067,-11.887,-79.419,-123.502
1.1708638000000064,-5.628,-35.939,-194.118,-92.028,0.908,-29.795,511.673,23.903,-37.798,-16.955,-5.827,11.877,-12.051,-17.02,-5.645,-9.915,15.36,-4.39,-4.791,1.081,84.222,3.837,8.706,-14.074,-25.971,-17.358,-7.265,-73.192,-111.595
1.1852662999999666,-16.893,-49.735,-209.805,-96.547,0.395,-36.938,484.522,25.929,-44.421,-27.696,-19.142,-0.43,-21.261,-33.397,-15.373,-20.663,-1.049,-28.464,-18.619,-13.265,74.404,-12.56,-8.209,-24.818,-58.22,-35.783,-21.09,-92.074,-118.656
1.2002706000002945,-8.68,-56.858,-221.379,-106.696,-15.487,-46.122,516.825,2.849,-53.598,-39.964,-24.246,-8.114,-29.949,-37.974,-22.53,-28.327,-6.683,-33.046,-27.309,-15.813,76.379,-17.671,-12.299,-32.99,-45.867,-41.383,-21.069,-97.105,-142.616
1.2003363000003446,-0.986,-44.505,-211.936,-96.343,-12.398,-37.367,488.131,12.068,-41.249,-27.629,-12.438,3.677,-20.697,-31.276,-16.872,-17.54,4.594,-17.644,-14.474,-1.965,86.037,-6.895,0.521,-31.42,-13.033,-29.046,-10.802,-85.225,-132.227
1.215327100000195,-6.108,-35.239,-200.965,-84.976,0.422,-31.182,455.368,27.937,-36.597,-24.015,-10.377,8.796,-15.041,-30.22,-11.732,-12.4,6.639,-19.163,-4.726,3.673,84.926,-2.789,2.057,-24.216,-36.074,-22.87,-8.741,-80.016,-111.602
1.2154058000000987,-6.102,-41.352,-202.301,-88.477,1.959,-37.299,487.7,9.466,-47.319,-35.262,-18.051,-0.947,-22.711,-35.313,-9.159,-23.658,-2.589,-29.903,-11.894,-5.553,80.742,-7.91,-4.605,-23.168,-68.313,-27.457,-11.807,-80.961,-126.86
1.230337700000291,-5.072,-45.921,-209.784,-91.463,0.932,-36.237,473.38,8.432,-43.173,-30.103,-18.033,-2.995,-23.713,-38.864,-9.662,-28.757,-3.611,-30.897,-19.566,-11.182,81.174,-11.488,-6.137,-29.292,-60.048,-33.065,-17.942,-83.954,-139.541
1.2343332000000373,-10.702,-41.777,-210.599,-86.761,5.542,-27.491,440.631,33.527,-31.347,-17.265,-12.892,3.156,-14.467,-33.702,-9.652,-21.556,5.614,-22.157,-15.448,-8.097,82.117,-8.403,-3.57,-27.214,-27.2,-34.057,-20.486,-90.018,-119.421
1.2473164000002726,-7.105,-42.247,-199.117,-89.748,6.561,-29.001,472.978,26.321,-40.024,-22.884,-10.83,5.202,-13.428,-26.496,-6.056,-16.412,11.756,-11.889,-9.798,-5.015,87.158,-5.32,1.557,-24.113,-11.292,-30.949,-13.806,-93.514,-112.642
1.2473813999999948,-0.95,-47.328,-195.844,-99.904,1.944,-38.705,479.165,5.802,-51.255,-31.57,-14.405,3.66,-18.538,-29.031,-8.1,-20.494,10.719,-10.852,-8.763,-1.937,93.219,-4.803,5.654,-29.211,-22.039,-27.332,-10.718,-88.809,-131.485
1.2593823000001976,-5.048,-45.744,-203.845,-97.243,-1.132,-40.204,446.411,18.092,-43.007,-28.464,-16.952,3.144,-20.056,-30.539,-12.702,-24.059,9.172,-16.989,-6.193,-1.935,92.613,-4.286,7.185,-26.621,-31.751,-24.231,-14.806,-84.622,-132.378
1.2594496000001527,-6.58,-43.649,-199.543,-89.461,0.918,-35.553,478.752,27.295,-36.304,-24.85,-14.374,3.653,-19.012,-25.385,-10.128,-24.035,10.187,-14.923,-7.724,-6.543,83.812,-5.306,7.178,-15.836,-28.133,-24.719,-15.303,-88.636,-114.827
1.2743405000001076,-6.573,-51.802,-197.806,-101.154,-1.644,-39.616,511.061,12.411,-43.952,-31.997,-18.97,-0.449,-22.066,-30.995,-15.753,-29.647,6.079,-14.908,-19.499,-12.172,73.482,-15.547,-2.051,-19.918,-37.838,-34.428,-19.386,-100.33,-117.274
1.2744020000000091,-19.886,-63.534,-221.687,-116.422,-18.549,-48.798,478.275,11.374,-52.105,-43.748,-35.345,-13.769,-32.291,-49.92,-35.718,-40.376,-11.346,-35.385,-33.824,-22.406,63.162,-30.9,-19.467,-41.928,-67.514,-50.275,-32.175,-109.964,-141.235
1.2893361999999797,-29.088,-67.056,-233.249,-116.306,-29.801,-50.286,460.378,14.949,-56.664,-50.365,-40.945,-21.952,-44.554,-60.628,-41.83,-44.946,-26.191,-57.379,-42.499,-32.63,59.0,-40.091,-26.108,-53.669,-77.181,-57.397,-36.241,-110.879,-151.34
1.2933311000001595,-19.838,-59.817,-215.085,-111.067,-18.5,-48.698,492.705,-3.509,-57.12,-47.24,-33.219,-12.196,-41.435,-53.395,-25.906,-38.753,-16.431,-49.637,-40.92,-26.45,64.577,-35.953,-17.885,-44.906,-60.71,-50.68,-29.032,-103.595,-134.282
1.3065449999999146,-13.67,-50.023,-203.599,-104.296,-5.674,-49.674,525.0,-10.678,-48.866,-40.533,-30.112,-0.913,-26.025,-37.46,-17.683,-30.005,-1.558,-31.145,-30.121,-15.665,71.685,-26.183,-12.744,-40.762,-42.206,-41.408,-25.93,-92.733,-119.291
1.3066114000002926,-18.267,-49.461,-205.957,-101.117,-12.328,-49.112,492.2,8.288,-43.181,-39.468,-28.545,-2.449,-23.949,-33.324,-24.838,-27.926,-2.581,-35.212,-26.504,-18.723,68.539,-26.669,-13.243,-45.332,-32.942,-42.903,-27.441,-91.616,-122.758
1.3194800000001123,-16.2,-57.096,-205.238,-110.238,-18.976,-47.014,459.432,14.427,-45.187,-39.941,-23.906,-6.545,-28.536,-39.439,-28.912,-30.972,-2.579,-39.787,-30.576,-22.803,61.81,-29.716,-9.644,-37.603,-42.643,-47.471,-26.388,-103.82,-122.123
1.319561799999974,-9.523,-52.94,-206.058,-106.029,-6.662,-39.795,487.15,11.339,-41.044,-31.192,-19.271,-1.415,-20.311,-30.69,-17.612,-24.793,8.182,-18.231,-17.226,-12.021,68.921,-15.342,-0.925,-21.683,-52.334,-35.64,-19.702,-102.179,-116.365
1.3344310000002224,-3.878,-32.907,-198.167,-79.795,12.3,-22.849,470.781,29.258,-26.146,-16.304,-7.469,10.369,-6.97,-15.802,-2.225,-8.375,19.445,0.231,5.333,6.434,84.734,6.703,9.834,-16.539,-31.79,-12.039,-8.924,-73.388,-121.372
1.3345189000001483,5.859,-25.702,-182.087,-74.08,11.776,-13.604,438.035,46.135,-19.972,-9.627,2.785,15.994,-1.328,-18.348,-0.686,-0.682,23.012,-2.844,9.938,19.747,91.309,14.381,16.485,-13.961,-16.389,-4.342,-1.743,-56.92,-116.128
1.3493843000001107,6.366,-40.533,-189.078,-96.035,-5.142,-26.911,468.335,28.671,-31.223,-15.765,-6.44,6.244,-3.376,-26.527,-7.858,-7.341,15.304,-10.525,3.781,18.703,87.631,8.731,11.857,-13.947,-33.791,-13.559,-5.839,-76.843,-98.081
1.3536072000001695,-9.01,-46.128,-203.233,-102.087,-5.649,-39.179,500.655,3.539,-41.438,-23.947,-13.605,0.603,-10.033,-30.599,-4.776,-11.432,5.555,-16.15,0.191,10.487,83.958,4.111,6.722,-20.593,-48.101,-18.156,-12.494,-92.648,-103.106
1.365367200000037,-12.075,-30.201,-190.734,-82.517,16.386,-26.845,487.859,12.757,-32.687,-16.75,-1.296,9.824,-7.973,-34.154,7.524,-2.199,8.623,-17.671,1.728,13.551,86.947,7.694,11.326,-16.986,-48.566,-10.966,-7.87,-77.186,-117.347
1.3794238000000405,0.233,-20.949,-179.785,-69.627,20.468,-9.912,455.095,35.798,-22.408,-4.438,4.34,13.912,-0.281,-29.509,9.054,4.463,11.688,-15.604,7.361,20.197,90.959,9.223,13.877,-8.26,-50.054,-5.319,-0.69,-65.326,-106.471
1.3794878000003337,-3.354,-34.248,-190.876,-85.439,-1.07,-19.123,468.472,21.418,-35.706,-17.241,-8.984,1.091,-11.039,-28.455,-6.325,-6.812,2.968,-26.347,-2.38,7.881,80.11,-4.619,3.104,-21.571,-46.418,-16.073,-9.399,-81.142,-101.754
1.3944218000001456,-15.646,-45.484,-196.321,-109.944,-7.729,-40.109,491.57,-5.756,-50.527,-36.18,-18.197,-9.157,-26.397,-42.259,-17.077,-18.076,-2.671,-44.251,-24.919,-8.52,61.586,-18.446,-8.17,-39.993,-41.761,-32.45,-23.222,-90.283,-119.583
1.3944851000001108,-9.482,-37.754,-197.149,-103.687,12.259,-37.507,483.906,2.447,-39.718,-24.873,-14.08,-1.975,-16.125,-44.778,-5.277,-9.349,-0.107,-43.182,-27.456,-5.438,61.012,-16.891,-8.674,-34.318,-42.744,-27.807,-18.075,-76.872,-121.513
1.4094014000002062,-3.325,-33.106,-206.173,-89.238,18.395,-29.273,478.812,14.74,-33.018,-14.602,-9.455,2.638,-6.887,-42.172,0.876,-3.192,-4.717,-38.016,-22.305,-1.334,65.562,-16.362,-5.591,-28.648,-42.188,-20.095,-11.909,-79.869,-111.658
1.4094582000002447,-20.228,-47.417,-210.578,-103.494,-4.678,-41.027,479.357,0.38,-49.379,-33.542,-17.643,-7.611,-23.274,-56.474,-20.129,-13.947,-12.909,-46.175,-33.554,-11.579,53.714,-20.444,-6.61,-41.939,-49.831,-30.321,-22.656,-99.257,-127.427
1.42545360000031,-28.917,-55.055,-204.22,-110.563,-19.018,-48.158,470.169,-4.231,-53.94,-39.657,-26.846,-11.19,-29.911,-57.955,-29.843,-16.495,-8.798,-44.08,-29.422,-10.543,50.586,-15.3,-7.116,-45.483,-63.613,-33.877,-26.22,-96.084,-141.132
1.4255253999999695,-11.982,-45.778,-199.917,-95.595,-3.117,-37.351,466.113,6.532,-40.054,-24.76,-19.135,-1.445,-17.073,-39.454,-9.833,-2.134,1.457,-27.129,-5.826,4.325,65.905,-4.014,1.6,-30.581,-63.55,-20.523,-13.386,-85.229,-122.548
1.4395269000001463,0.325,-40.609,-202.279,-103.696,9.181,-33.215,455.913,7.55,-34.891,-22.174,-8.87,2.143,-11.421,-36.34,0.423,6.578,6.579,-20.442,-2.746,8.419,69.937,0.6,7.747,-23.378,-52.215,-16.916,-8.761,-92.317,-109.106
1.4395926000001964,-1.724,-45.179,-206.687,-116.913,-5.685,-37.281,445.723,9.079,-35.368,-25.225,-12.959,-1.445,-13.971,-38.353,-10.336,4.01,8.109,-19.91,-6.33,3.8,62.695,0.6,4.153,-27.453,-41.405,-18.436,-13.363,-93.249,-126.415
1.4544862000002468,-1.21,-43.597,-201.87,-98.353,-11.827,-36.219,461.159,11.119,-33.796,-25.2,-17.045,-0.419,-14.469,-30.118,-13.399,2.981,8.613,-20.402,-0.688,3.284,61.095,-4.524,1.587,-30.5,-32.142,-17.393,-12.838,-87.52,-134.485
1.4545485000003282,-5.82,-37.918,-194.496,-87.496,5.604,-33.109,445.841,7.01,-37.861,-29.786,-14.979,-1.444,-17.016,-36.236,-6.726,3.49,4.506,-34.214,-12.983,-1.33,55.911,-15.278,-0.464,-36.617,-28.524,-26.597,-14.362,-94.093,-118.982
1.4695058000002064,-19.134,-40.442,-203.523,-101.753,8.16,-29.489,413.119,10.589,-39.36,-29.756,-19.062,-6.053,-19.048,-50.032,-8.256,-0.099,-4.208,-48.524,-29.364,-10.551,44.072,-23.459,-11.734,-44.265,-34.13,-37.329,-21.52,-96.048,-108.104
1.4695879000000787,-19.115,-47.061,-211.004,-107.799,-14.902,-33.046,435.248,9.554,-39.321,-27.165,-25.703,-8.608,-21.078,-51.519,-22.593,-4.71,-9.839,-44.89,-27.797,-16.688,41.467,-25.485,-18.895,-45.757,-52.539,-37.804,-24.06,-92.878,-112.607
1.4864861999999448,-11.411,-47.527,-197.473,-103.08,-24.109,-43.259,467.6,-6.337,-44.404,-36.359,-27.726,-11.161,-24.644,-52.492,-30.767,-5.217,-7.78,-38.697,-28.794,-17.183,43.474,-22.898,-10.167,-40.589,-72.979,-36.742,-24.548,-96.884,-121.716
1.4865525000000162,-14.473,-45.942,-193.177,-105.539,-9.74,-45.265,498.383,-6.331,-44.872,-39.396,-28.723,-12.175,-23.082,-58.587,-22.539,-4.188,-4.186,-44.294,-34.913,-15.629,38.308,-22.875,-7.083,-32.863,-77.517,-37.729,-25.036,-95.25,-130.816
1.5000147999999172,-14.459,-54.605,-208.353,-122.339,-5.12,-41.634,465.61,2.385,-40.729,-32.697,-30.744,-9.601,-24.596,-59.041,-21.492,-6.745,-9.305,-49.372,-34.878,-18.175,34.683,-28.488,-16.809,-36.417,-79.489,-40.253,-28.085,-103.864,-132.222
1.5000901000003068,-10.346,-67.359,-214.292,-138.611,-12.799,-41.592,432.869,2.382,-41.713,-33.177,-29.176,-8.567,-28.157,-51.297,-32.741,-6.226,-11.857,-45.737,-32.282,-17.132,35.161,-26.41,-18.33,-48.163,-74.798,-46.361,-32.667,-130.912,-125.942
1.5146789000000354,-15.459,-67.291,-211.516,-131.812,-9.713,-38.989,400.16,12.626,-38.085,-33.143,-25.561,-8.046,-20.957,-37.413,-26.561,-0.072,3.012,-35.957,-21.491,-6.869,37.687,-15.625,-8.065,-48.627,-47.059,-42.728,-29.561,-133.343,-127.865
1.5147437999999056,-18.005,-58.515,-214.891,-120.922,-11.24,-39.462,412.056,14.663,-36.51,-33.623,-26.56,-6.501,-17.862,-33.278,-17.825,3.002,11.206,-30.286,-12.76,-4.301,37.65,-15.097,-7.545,-45.505,-44.45,-37.562,-24.408,-116.303,-139.008
1.5296430000003056,-11.327,-54.358,-208.528,-124.387,-24.549,-47.107,444.431,-7.894,-47.232,-42.298,-32.681,-8.544,-27.578,-41.953,-31.127,-0.075,1.461,-33.33,-20.944,-11.469,34.026,-23.791,-16.759,-52.12,-76.681,-44.185,-26.945,-115.675,-141.431
1.5446231000000807,-10.291,-50.717,-196.024,-117.603,-19.913,-45.011,462.43,-12.497,-46.672,-40.207,-30.599,-9.56,-26.526,-44.473,-33.145,-1.612,0.947,-35.345,-25.022,-11.97,32.967,-26.842,-17.766,-53.604,-76.092,-42.604,-26.918,-112.997,-132.068
1.5487700000003315,-12.33,-49.13,-203.513,-107.239,-7.598,-40.868,441.475,-4.287,-40.99,-35.043,-26.47,-11.087,-27.012,-51.601,-20.817,-5.709,0.946,-37.872,-26.534,-17.081,30.373,-29.376,-17.749,-49.965,-59.622,-38.975,-24.33,-104.175,-130.911
1.5605493000002753,-11.293,-54.203,-217.654,-112.767,-16.812,-50.048,408.758,-13.504,-55.294,-48.841,-38.739,-21.322,-45.428,-75.628,-32.067,-15.949,-16.986,-52.691,-42.389,-29.359,17.022,-36.007,-25.416,-54.013,-77.493,-51.231,-31.478,-108.17,-145.637
1.5606139999999868,-14.868,-48.514,-208.215,-108.556,-22.943,-47.437,376.074,-3.757,-59.337,-52.378,-43.823,-25.399,-47.432,-76.064,-42.793,-15.421,-23.629,-60.835,-41.322,-24.719,12.907,-30.848,-21.804,-49.348,-70.756,-48.106,-33.496,-104.475,-144.467
1.5746985000000677,-16.39,-36.17,-185.465,-99.226,-9.6,-31.508,408.486,18.276,-37.248,-31.321,-23.287,-11.029,-26.379,-50.885,-25.332,-1.573,-7.211,-48.991,-21.301,-10.349,25.189,-17.497,-8.975,-31.88,-40.459,-25.517,-22.191,-95.661,-111.535
1.5747660000001815,-11.763,-45.355,-183.231,-118.082,-8.053,-35.575,440.865,1.864,-34.137,-27.191,-17.629,-3.334,-21.23,-46.224,-16.085,2.015,0.48,-41.77,-25.378,-11.876,25.164,-17.992,-11.015,-32.361,-57.325,-28.053,-21.145,-110.423,-92.468
1.5897207000002709,-14.825,-61.192,-207.638,-137.432,-16.755,-46.81,408.149,-11.458,-52.034,-40.996,-32.98,-11.527,-31.455,-51.813,-25.29,-4.647,-1.569,-42.753,-34.062,-18.012,15.917,-24.121,-17.151,-47.185,-74.686,-41.345,-27.783,-124.145,-124.651
1.5897875000000568,-20.958,-57.544,-226.386,-129.097,-13.152,-45.738,375.465,2.898,-53.519,-40.955,-30.898,-12.54,-31.936,-43.052,-26.802,-4.643,3.555,-33.488,-18.146,-11.846,23.074,-17.437,-8.937,-44.064,-62.828,-34.131,-23.657,-114.287,-152.19
1.604702399999951,-14.789,-51.851,-217.963,-121.284,-6.991,-48.254,407.877,-10.425,-44.244,-37.841,-22.67,-6.892,-26.268,-41.472,-22.677,-1.052,7.65,-24.746,-10.443,-5.174,30.735,-12.809,-3.805,-31.725,-72.499,-31.023,-22.097,-107.0,-137.694
1.6086890000001404,-7.602,-54.361,-201.863,-120.138,-8.009,-50.255,440.257,-30.907,-43.175,-36.266,-24.697,-9.447,-23.168,-44.504,-21.63,-1.563,7.643,-24.209,-16.068,-4.657,28.143,-16.895,-7.388,-33.23,-69.865,-36.627,-26.173,-106.893,-129.359
1.6233769000000393,-7.082,-46.622,-196.538,-111.821,-6.464,-36.885,407.542,-8.334,-40.058,-26.496,-17.5,-8.413,-21.096,-39.849,-16.997,-0.537,10.709,-19.574,-8.88,-0.554,33.75,-9.193,-2.77,-31.148,-37.008,-27.882,-19.487,-101.663,-132.304
1.6234441999999945,-6.563,-36.329,-189.682,-106.074,-0.822,-29.163,374.859,10.629,-35.919,-23.908,-10.822,-2.769,-20.563,-42.883,-13.394,1.513,9.161,-19.042,-2.211,5.595,39.864,3.111,5.942,-15.235,-31.335,-15.046,-9.733,-94.389,-107.58
1.634844300000168,-7.068,-33.731,-179.246,-104.431,1.741,-34.77,407.271,-1.677,-36.908,-30.544,-15.934,-3.279,-22.079,-51.037,-13.893,-0.026,-0.07,-30.806,-7.844,3.54,32.14,0.034,4.912,-12.658,-36.939,-11.445,-12.285,-84.049,-92.616
1.634905599999911,-6.037,-31.648,-178.042,-95.105,2.764,-30.124,374.589,1.911,-34.822,-24.365,-12.332,-3.276,-21.545,-49.961,-11.83,-1.563,-3.143,-37.435,-11.422,-2.612,29.034,-5.089,1.321,-18.793,-28.705,-12.458,-13.298,-77.817,-112.503
1.649782100000266,-4.494,-30.08,-181.962,-90.399,1.224,-20.872,341.939,23.426,-31.713,-19.218,-7.709,1.338,-19.474,-51.448,-10.793,-3.098,0.446,-36.373,-9.874,-1.584,31.054,-5.596,0.295,-15.701,-49.681,-17.056,-11.747,-87.473,-110.342
1.6498470999999881,-10.125,-38.247,-183.83,-103.116,-3.388,-29.561,374.385,11.107,-37.317,-28.42,-17.948,-2.249,-24.065,-56.008,-12.832,-7.706,-4.165,-43.509,-13.963,-2.607,20.777,-13.787,-7.39,-22.857,-70.636,-24.724,-18.908,-97.632,-100.497
1.6647754000000532,-15.75,-47.942,-192.867,-115.821,-6.971,-44.388,406.798,-21.179,-41.378,-30.441,-21.004,-7.37,-29.164,-54.415,-17.43,-12.309,-10.821,-51.662,-22.658,-11.826,10.51,-19.921,-16.092,-42.302,-57.246,-30.334,-24.524,-98.559,-131.135
1.6685747000001356,-14.197,-48.407,-204.97,-112.119,-6.452,-40.245,374.116,-18.084,-34.164,-20.165,-14.835,-2.239,-20.426,-52.311,-19.974,-10.759,-5.687,-44.951,-20.586,-11.302,15.622,-13.241,-13.514,-41.235,-55.651,-29.792,-17.84,-101.022,-138.689
1.6804618000001028,-10.084,-43.747,-200.666,-108.42,-2.859,-25.348,341.466,8.574,-28.495,-17.071,-14.308,-0.188,-11.696,-52.771,-16.88,-7.163,0.466,-34.659,-11.344,-3.094,21.242,-9.642,-7.353,-25.825,-69.428,-23.102,-12.699,-105.019,-105.762
1.6805279000000155,-8.537,-43.704,-185.096,-117.021,-2.344,-32.495,360.08,-1.681,-36.151,-27.3,-20.441,-7.36,-23.98,-53.231,-15.839,-12.278,-1.071,-35.649,-13.894,-6.677,19.684,-16.805,-8.37,-23.75,-68.334,-25.128,-16.272,-103.889,-105.144
1.6948849000000337,-10.066,-40.586,-178.764,-115.879,-4.903,-45.783,348.449,-16.024,-44.824,-35.469,-24.519,-9.402,-35.226,-52.665,-16.847,-17.902,0.979,-34.077,-17.979,-10.769,24.275,-17.812,-8.362,-25.775,-62.118,-32.788,-16.768,-99.175,-123.482
1.6949506000000838,-8.519,-23.639,-173.462,-97.833,-1.312,-30.88,315.825,11.145,-38.632,-28.774,-18.859,-1.708,-24.433,-48.002,-8.121,-10.199,8.15,-23.284,-6.69,0.0,35.009,-7.036,1.38,-17.04,-46.174,-20.459,-8.555,-82.169,-104.916
1.709859999999935,1.224,-12.857,-165.604,-86.977,9.96,-14.968,348.297,24.966,-28.347,-20.036,-9.107,4.442,-17.748,-45.392,1.621,-1.48,9.167,-24.286,-1.048,5.636,39.073,0.143,8.039,-9.338,-30.247,-3.533,-2.911,-62.619,-93.028
1.7099252000002707,1.222,-18.992,-171.586,-85.865,14.561,-22.637,380.737,5.986,-29.343,-21.04,-10.634,2.388,-24.903,-53.031,-2.479,-6.089,6.084,-36.557,-10.268,-2.054,34.935,-6.005,1.371,-12.915,-43.024,-11.214,-6.494,-66.655,-104.206
1.7248669999999038,-12.099,-22.559,-176.025,-81.681,-0.823,-25.176,362.937,6.492,-32.9,-23.581,-15.234,-4.275,-26.415,-55.54,-14.772,-13.767,1.979,-40.106,-14.356,-8.2,31.826,-14.708,-9.389,-26.222,-54.764,-22.986,-13.148,-85.032,-105.126
1.7416657000003397,-15.161,-32.783,-169.701,-95.431,-20.29,-28.225,330.299,4.948,-40.039,-30.217,-18.805,-9.906,-29.462,-58.046,-26.028,-19.389,-6.22,-42.628,-19.977,-13.827,28.208,-19.816,-15.527,-39.516,-54.709,-29.623,-20.819,-101.341,-111.169
1.741732200000115,-13.609,-52.73,-181.315,-125.05,-13.61,-49.713,362.757,-23.746,-53.832,-43.507,-29.033,-11.945,-41.728,-65.16,-27.539,-26.03,-10.312,-52.319,-32.765,-20.473,22.033,-26.456,-20.635,-39.477,-71.048,-43.425,-29.507,-118.145,-124.377
1.7551148000002286,-19.23,-50.628,-201.626,-124.925,6.896,-53.25,353.172,-26.796,-53.265,-40.902,-25.93,-8.347,-36.563,-54.336,-12.655,-20.881,-1.592,-47.656,-27.097,-14.818,23.547,-24.893,-17.54,-31.753,-77.125,-42.357,-28.453,-119.564,-124.253
1.7552672000001621,-16.137,-38.794,-198.35,-101.234,1.254,-34.754,320.544,-2.691,-39.892,-29.078,-13.609,-5.265,-23.719,-37.888,-7.519,-13.687,1.996,-37.874,-14.775,-7.63,25.573,-15.647,-9.838,-32.745,-63.216,-29.507,-21.765,-106.125,-132.838
1.7699913999999808,-15.609,-53.1,-200.201,-108.305,-20.776,-40.354,287.948,-1.663,-45.488,-39.295,-27.94,-14.481,-36.503,-55.781,-28.004,-28.531,-12.351,-51.669,-30.641,-22.992,15.814,-25.877,-21.611,-47.057,-71.862,-42.798,-28.403,-111.142,-143.976
1.7700540000000728,-30.962,-70.466,-219.469,-135.349,-28.44,-65.929,320.448,-24.203,-63.885,-58.211,-51.478,-29.323,-56.447,-77.755,-44.882,-42.847,-25.146,-65.962,-49.566,-37.826,8.626,-45.831,-38.496,-61.355,-80.499,-62.223,-39.133,-125.887,-135.123
1.7849787000000106,-26.833,-63.223,-209.515,-133.676,-28.412,-71.499,352.915,-44.671,-64.846,-57.641,-43.229,-25.708,-50.243,-65.381,-36.128,-31.533,-14.363,-47.965,-35.684,-26.005,17.839,-37.588,-24.625,-55.658,-57.365,-51.914,-32.946,-111.417,-126.278
1.7850391000001764,0.346,-50.352,-181.129,-112.538,-26.846,-52.984,346.926,-34.893,-51.461,-44.263,-23.718,-8.776,-34.311,-47.385,-23.284,-17.669,2.045,-27.937,-13.619,-10.61,30.116,-16.546,-5.133,-35.622,-48.086,-35.469,-20.618,-92.862,-121.029
1.800941700000294,0.346,-48.252,-183.509,-103.204,-17.086,-38.074,314.304,-2.07,-42.7,-34.997,-23.182,-8.767,-32.227,-51.949,-25.822,-18.164,-1.03,-34.569,-15.143,-12.136,31.623,-16.53,-10.763,-30.464,-62.382,-37.482,-19.061,-108.651,-113.736
1.8010081000002174,-19.635,-55.376,-198.183,-105.662,-13.995,-41.622,281.714,4.592,-44.195,-36.499,-27.77,-18.492,-35.781,-66.754,-31.944,-20.195,-8.714,-42.731,-24.349,-15.71,30.054,-22.661,-13.314,-40.679,-54.123,-42.056,-24.165,-125.961,-124.893
1.8151507000002312,-16.541,-55.321,-193.374,-105.044,-15.518,-47.216,314.22,-10.27,-48.761,-40.049,-27.23,-14.888,-34.721,-66.175,-24.228,-20.175,-4.095,-34.492,-22.788,-14.157,31.561,-20.589,-7.153,-40.126,-39.212,-38.94,-26.19,-110.978,-130.403
1.8152184999999008,-8.84,-45.02,-185.496,-98.792,-5.256,-43.583,308.271,-10.772,-51.274,-38.984,-26.69,-11.799,-35.711,-48.178,-14.982,-24.253,-1.017,-37.531,-22.253,-13.631,28.968,-22.105,-13.806,-33.939,-56.079,-36.852,-26.163,-99.596,-105.17
1.8301446000000396,-16.516,-46.511,-187.359,-100.23,-2.177,-47.125,340.75,-23.056,-55.833,-42.019,-27.688,-18.447,-38.749,-42.494,-21.627,-25.766,-8.188,-52.351,-30.427,-16.691,20.742,-26.694,-19.94,-41.077,-73.441,-43.987,-28.186,-111.28,-102.503
1.8302244999999857,-13.938,-54.662,-186.147,-109.863,-6.273,-50.664,373.197,-35.841,-55.778,-42.489,-25.099,-13.818,-33.587,-53.21,-25.191,-21.641,-10.229,-47.175,-26.811,-15.65,23.795,-24.618,-12.747,-47.184,-59.536,-47.529,-27.646,-112.705,-127.504
1.845332000000326,-3.165,-48.46,-182.375,-107.704,2.442,-34.22,340.549,-7.116,-47.525,-32.201,-17.902,-5.607,-27.918,-51.62,-14.408,-18.034,-4.583,-36.882,-15.001,-9.999,35.042,-18.958,-11.198,-41.501,-49.23,-39.797,-23.008,-106.957,-123.278
1.84539070000028,-12.896,-43.8,-183.217,-99.912,6.026,-28.55,307.933,5.187,-46.453,-32.168,-17.884,-12.774,-34.038,-46.445,-13.369,-20.577,-6.628,-46.066,-20.621,-12.55,31.421,-18.427,-15.797,-39.923,-67.111,-37.708,-21.96,-114.023,-109.322
1.862109700000019,-23.129,-46.318,-185.596,-106.472,-3.714,-45.94,340.412,-27.094,-53.066,-41.358,-25.038,-16.86,-36.053,-51.522,-17.966,-22.606,-9.183,-44.996,-29.822,-19.198,27.291,-20.97,-16.806,-42.444,-72.167,-42.281,-23.987,-111.347,-116.897
1.8621744000001854,-13.372,-41.149,-190.533,-110.976,-2.686,-48.456,360.052,-32.702,-49.939,-40.292,-25.525,-11.72,-31.406,-53.007,-9.239,-22.071,-4.563,-28.557,-25.182,-16.617,32.387,-22.486,-18.326,-41.377,-52.628,-39.677,-26.012,-93.817,-120.367
1.8762347000001682,-13.359,-44.181,-199.052,-107.791,-5.757,-41.747,327.417,-5.517,-48.865,-44.35,-27.549,-19.393,-42.133,-56.54,-13.84,-27.684,-8.145,-37.238,-29.255,-21.724,27.232,-27.586,-20.869,-48.508,-54.624,-43.736,-29.573,-100.383,-126.394
1.876299200000176,-25.641,-55.92,-196.291,-116.905,-24.706,-52.976,329.138,-10.122,-63.673,-59.675,-38.792,-31.669,-57.46,-66.73,-34.831,-35.853,-19.919,-55.131,-41.521,-34.51,18.495,-35.756,-22.898,-58.706,-77.111,-56.5,-34.154,-123.849,-139.075
1.8902058000003308,-18.955,-54.327,-182.263,-126.522,-29.805,-62.657,361.597,-26.506,-68.22,-59.103,-40.291,-28.563,-54.329,-62.052,-34.284,-31.207,-16.313,-45.854,-36.869,-29.864,24.112,-34.695,-22.363,-55.573,-80.108,-54.394,-32.07,-124.238,-125.616
1.8902716000002329,-2.03,-41.978,-176.957,-116.662,-13.893,-49.787,328.96,-16.233,-53.807,-44.187,-24.881,-17.776,-40.955,-50.207,-21.442,-18.88,-2.465,-34.026,-20.95,-13.953,33.822,-19.804,-13.119,-41.173,-71.831,-38.458,-22.817,-106.183,-104.486
1.9051994000001287,-2.028,-30.153,-175.756,-99.639,0.977,-32.318,303.528,-4.946,-43.507,-31.335,-11.024,-7.0,-31.18,-48.108,-16.81,-8.615,2.148,-28.356,-10.683,-5.742,35.837,-5.952,-0.298,-25.763,-73.808,-24.075,-12.036,-89.17,-110.017
1.9052731000001586,-11.248,-22.438,-170.969,-92.367,6.612,-26.138,336.012,-9.04,-43.464,-27.205,-8.964,-1.357,-25.513,-42.424,-9.108,-2.971,3.171,-17.057,-7.599,-1.638,34.264,-3.384,3.801,-17.54,-69.636,-16.879,-9.974,-80.372,-114.518
1.9223433000001933,-13.286,-26.002,-172.335,-95.349,1.994,-30.723,309.548,-7.494,-42.396,-28.715,-14.078,-6.479,-27.537,-37.771,-8.075,-3.993,5.217,-19.089,-11.177,-3.685,31.156,-10.041,-0.301,-24.182,-50.099,-24.547,-17.137,-84.902,-103.132
1.9224107000000004,-8.149,-29.562,-173.7,-94.741,-0.569,-31.205,276.963,4.809,-38.255,-24.588,-12.014,-6.473,-25.973,-41.832,-14.727,-6.55,4.699,-28.804,-12.191,-8.805,32.15,-13.105,-1.838,-35.429,-33.142,-34.256,-19.169,-93.014,-99.443
1.9353190000001632,-4.043,-27.995,-173.014,-92.085,5.067,-27.075,309.474,3.267,-36.68,-19.952,-4.318,-0.318,-19.799,-41.278,-7.027,-4.495,3.158,-23.14,-9.617,-6.747,37.753,-11.555,-4.398,-37.955,-42.843,-29.611,-14.539,-94.97,-108.565
1.9502629000003253,-8.649,-35.14,-181.55,-106.337,0.963,-37.294,341.952,-19.278,-43.815,-33.252,-11.486,-8.515,-27.976,-44.823,-5.483,-9.101,-2.481,-26.19,-17.804,-9.302,34.641,-16.154,-11.566,-39.966,-68.928,-31.118,-18.11,-100.511,-120.24
1.950329000000238,-15.301,-39.715,-182.393,-119.038,-5.698,-46.991,309.335,-24.894,-48.894,-42.953,-22.745,-16.703,-37.682,-57.585,-18.285,-15.752,-10.675,-43.07,-25.983,-16.977,29.996,-21.773,-16.677,-44.537,-69.884,-41.333,-21.678,-95.8,-121.144
1.9643282000001818,-15.798,-33.015,-169.915,-103.038,-0.569,-38.234,276.75,-4.889,-42.698,-34.713,-18.624,-10.027,-31.497,-54.966,-12.12,-11.638,-12.201,-42.515,-21.859,-12.861,30.478,-19.19,-14.611,-46.542,-50.858,-38.218,-17.046,-78.798,-115.387
1.9643890000002102,-18.856,-40.155,-175.893,-98.324,-8.253,-40.245,260.592,-4.372,-47.778,-39.802,-23.216,-13.603,-35.051,-50.813,-8.521,-12.138,-13.214,-38.886,-25.423,-13.873,23.275,-24.806,-18.695,-53.155,-62.591,-39.717,-25.226,-89.477,-120.395
1.979316899999958,-26.522,-56.508,-190.062,-122.817,-22.077,-55.574,293.119,-23.835,-61.05,-53.082,-36.513,-23.835,-48.336,-62.545,-23.882,-22.372,-17.811,-44.483,-34.619,-23.593,13.518,-34.515,-24.824,-58.225,-89.68,-53.509,-38.008,-117.565,-121.812
1.9832510999999613,-22.397,-45.181,-174.502,-117.571,-7.71,-46.81,318.954,-15.102,-50.743,-39.709,-23.669,-12.541,-37.529,-53.261,-17.198,-13.128,-9.084,-34.192,-22.802,-10.25,20.677,-19.111,-11.992,-41.261,-73.709,-39.624,-24.65,-102.078,-101.71
1.996490100000301,-5.98,-24.644,-162.033,-86.202,5.617,-26.783,286.359,9.504,-34.299,-21.226,-2.128,2.329,-20.073,-32.203,-1.299,4.816,5.269,-16.74,-6.385,8.204,32.439,2.937,3.902,-23.289,-40.848,-12.432,-6.695,-69.701,-88.288
1.9965581000001293,0.686,-29.23,-180.826,-88.165,-12.831,-29.83,255.847,3.859,-41.437,-26.84,-9.298,-3.821,-27.738,-44.979,-16.155,-0.312,0.653,-23.383,-9.965,-2.563,28.821,-3.726,-3.787,-32.487,-39.782,-21.641,-16.422,-80.902,-104.081
2.0094303999999283,-10.073,-34.836,-188.33,-99.348,-15.892,-34.411,281.206,-9.977,-46.518,-33.986,-17.486,-9.965,-34.37,-57.741,-23.823,-9.021,-9.081,-33.606,-13.541,-9.22,24.694,-13.968,-11.467,-44.238,-57.161,-36.476,-25.627,-91.067,-118.834
2.0094970000000103,-14.162,-21.993,-162.526,-83.367,11.276,-23.618,289.122,7.964,-30.59,-21.144,-5.173,-1.758,-19.479,-36.167,-1.258,2.771,1.174,-20.764,-2.769,5.134,31.329,-3.196,1.864,-32.923,-45.833,-21.583,-14.843,-67.41,-106.42
2.024433500000214,-5.438,-20.435,-143.92,-83.284,12.802,-21.545,269.878,22.3,-25.949,-12.926,-1.582,3.366,-12.799,-29.471,4.891,7.379,10.394,-10.497,0.82,7.178,30.273,1.931,5.961,-24.18,-31.442,-14.389,-10.217,-67.342,-90.432
2.0245184000000336,-10.044,-38.345,-158.633,-110.865,-13.851,-37.405,302.395,-4.362,-44.878,-30.844,-15.412,-7.908,-29.693,-51.47,-14.069,-9.022,-1.399,-27.393,-14.038,-6.662,18.46,-10.879,-9.414,-37.476,-58.051,-29.231,-19.941,-96.476,-101.612
2.0394187000001693,-20.28,-46.503,-185.627,-113.828,-11.276,-47.614,311.827,-21.776,-53.03,-44.645,-22.057,-16.609,-40.934,-58.079,-15.592,-16.186,-8.57,-41.198,-25.807,-12.291,15.88,-18.041,-14.016,-48.71,-83.608,-35.35,-25.557,-97.917,-127.126
2.0436110999999073,-11.038,-38.26,-185.954,-90.66,12.814,-35.783,279.24,6.423,-36.071,-29.744,-14.35,-6.859,-28.085,-43.676,0.817,-6.948,0.66,-26.3,-17.072,-7.668,18.938,-12.387,-6.317,-44.05,-63.032,-30.704,-21.945,-82.962,-121.876
2.0564195000001746,-5.392,-37.709,-168.862,-90.057,5.117,-28.063,293.817,18.199,-28.351,-23.054,-12.287,-5.315,-23.959,-39.022,-2.77,-4.38,1.172,-18.589,-11.932,-6.635,12.259,-11.862,-9.897,-40.932,-53.236,-31.698,-19.361,-91.076,-98.7
2.0564877000001616,-21.78,-49.967,-178.427,-114.046,-25.627,-48.015,326.311,-14.094,-47.278,-45.572,-25.594,-21.703,-41.353,-51.79,-28.895,-17.183,-14.711,-42.136,-31.387,-18.924,3.025,-24.658,-21.67,-52.674,-85.458,-40.375,-27.539,-106.354,-110.897
2.0695294000001923,-22.783,-54.016,-196.691,-123.666,-28.163,-61.287,328.546,-24.326,-55.94,-53.724,-33.253,-23.219,-44.386,-63.009,-36.55,-24.338,-21.356,-52.853,-40.065,-27.614,2.51,-32.318,-24.21,-62.356,-85.885,-49.044,-35.708,-108.297,-136.914
2.069595400000253,-6.366,-46.277,-184.199,-106.636,-4.056,-40.733,295.943,8.486,-38.465,-35.227,-21.949,-10.388,-32.046,-56.286,-17.046,-16.117,-11.089,-33.845,-24.144,-15.804,8.142,-24.089,-17.014,-55.121,-53.011,-43.872,-28.5,-101.529,-126.018
2.0845228000002862,-9.946,-42.132,-169.67,-92.697,3.632,-27.885,263.371,19.748,-32.791,-30.581,-16.804,-12.426,-34.063,-48.033,-7.295,-10.465,-6.467,-28.688,-20.021,-7.591,10.183,-17.405,-12.386,-46.357,-52.446,-33.582,-22.836,-91.693,-111.548
2.0845901000002414,-20.695,-44.652,-175.648,-102.85,-11.228,-45.788,295.896,-8.449,-48.64,-45.407,-26.521,-19.586,-42.226,-56.694,-15.997,-17.115,-13.12,-41.467,-29.735,-16.293,6.075,-23.535,-16.472,-50.409,-77.496,-38.159,-29.986,-88.015,-127.83
2.0995302000001175,-11.452,-46.144,-176.497,-112.994,-17.877,-52.914,328.387,-17.662,-50.128,-45.874,-25.47,-13.931,-38.085,-62.785,-13.932,-18.122,-14.132,-39.888,-27.143,-17.301,2.483,-25.561,-20.554,-54.969,-72.296,-41.195,-30.468,-93.051,-128.727
2.1154821000000084,-4.269,-43.536,-179.395,-99.048,-6.588,-35.443,295.784,2.336,-37.783,-29.947,-13.662,-8.282,-30.875,-56.575,-6.233,-8.883,-7.97,-31.651,-18.919,-6.013,4.017,-17.338,-16.435,-51.328,-67.1,-31.932,-20.192,-97.056,-102.47
2.1155483000002278,-7.851,-39.394,-186.388,-87.166,-0.434,-25.161,263.212,10.53,-35.696,-20.695,-11.086,-5.2,-25.209,-48.834,-10.326,-5.8,-2.839,-27.521,-12.241,-0.884,4.525,-10.149,-8.734,-46.666,-81.378,-27.289,-18.122,-95.934,-102.368
2.129617500000222,-6.306,-36.793,-167.246,-93.739,-0.434,-26.673,295.737,4.884,-35.66,-19.65,-9.538,0.953,-20.573,-41.1,-7.754,-4.769,3.824,-19.297,-1.982,2.703,6.058,-3.479,-0.528,-37.91,-76.686,-24.7,-19.129,-88.154,-120.196
2.129684100000304,-2.713,-29.584,-142.488,-88.01,13.911,-18.449,276.998,21.273,-20.768,-10.409,3.279,7.612,-13.38,-31.325,8.135,4.457,12.017,-9.031,2.631,9.361,12.199,7.796,6.645,-21.478,-58.166,-11.868,-10.913,-74.233,-113.416
2.1445894000003136,-2.198,-17.772,-152.079,-75.114,26.705,-8.697,244.446,46.355,-12.038,-3.738,6.349,6.58,-8.756,-31.294,12.226,5.477,10.468,-11.072,-2.495,7.814,12.699,5.226,-0.534,-22.994,-54.522,-8.782,-8.34,-71.085,-104.081
2.144651999999951,-4.758,-27.488,-172.419,-92.97,12.334,-23.545,276.989,22.743,-28.932,-21.153,-12.612,-6.234,-22.067,-44.583,-1.106,-9.385,-4.399,-30.528,-17.349,-6.026,3.465,-14.759,-15.903,-50.635,-61.127,-27.217,-22.164,-85.871,-114.223
2.1596474000002672,-16.024,-45.903,-174.296,-114.394,-5.097,-47.088,309.5,-9.555,-49.907,-40.6,-26.432,-18.011,-39.463,-56.834,-13.913,-19.622,-17.203,-47.404,-29.628,-17.291,-6.272,-23.966,-18.449,-63.905,-69.775,-42.046,-32.9,-96.031,-112.572
2.1597077999999783,-22.668,-40.222,-165.925,-97.885,-4.067,-43.455,276.915,-0.837,-44.734,-34.924,-21.283,-13.383,-33.276,-57.289,-19.534,-16.529,-15.136,-42.233,-24.475,-16.761,-6.266,-17.282,-13.307,-50.008,-74.316,-37.906,-30.306,-92.861,-101.189
2.1756530000002385,-13.936,-28.911,-156.025,-78.832,-1.502,-25.993,244.362,31.952,-28.808,-23.106,-14.601,-7.734,-22.484,-51.596,-15.416,-10.877,-8.973,-32.97,-15.229,-8.547,-2.161,-14.191,-14.318,-44.323,-66.557,-31.208,-27.714,-88.158,-110.821
2.1757190000002993,-5.725,-29.907,-153.82,-84.389,0.549,-24.942,276.906,36.531,-26.218,-22.058,-11.001,-7.726,-25.023,-47.446,-6.18,-6.767,-7.428,-34.474,-14.189,-1.366,-2.671,-12.127,-9.693,-44.791,-55.22,-28.103,-25.637,-79.36,-124.031
2.1897758000000067,-6.744,-26.803,-165.962,-87.378,4.135,-33.114,309.417,20.1,-29.778,-26.647,-9.453,-6.181,-26.535,-43.813,-7.71,-4.711,-2.297,-31.878,-11.101,0.172,-5.742,-6.992,-1.999,-36.037,-56.702,-22.952,-18.439,-70.572,-121.345
2.1898442000001523,-8.786,-28.313,-177.066,-89.34,-5.091,-36.667,276.832,18.031,-35.383,-33.792,-16.103,-9.249,-32.144,-45.306,-14.363,-5.731,-2.295,-27.235,-12.114,-7.001,-8.298,-12.108,-10.706,-38.562,-68.94,-23.441,-19.958,-78.698,-114.051
2.2047065000001567,-11.339,-39.043,-170.229,-97.96,-12.258,-36.118,250.94,18.525,-37.397,-31.709,-18.649,-12.826,-35.186,-49.359,-10.25,-5.726,-9.465,-28.745,-20.812,-10.58,-10.339,-18.244,-18.892,-48.77,-68.871,-29.053,-27.622,-89.89,-107.79
2.2047811000002184,-14.914,-32.856,-157.251,-91.202,3.123,-26.348,283.476,21.581,-24.552,-14.771,-5.822,-3.592,-18.244,-42.65,-0.506,1.965,-2.283,-27.179,-15.155,-2.372,-7.767,-10.541,-8.115,-38.475,-57.532,-26.462,-24.521,-85.19,-105.633
2.219738000000234,-13.362,-24.114,-158.631,-78.815,16.953,-19.662,254.504,29.756,-16.331,-9.121,0.331,3.072,-7.98,-34.922,4.618,8.623,6.941,-24.59,-2.333,3.266,-3.149,-3.358,-0.935,-28.19,-58.499,-20.801,-18.349,-77.932,-111.162
2.219798200000241,-4.127,-27.164,-161.546,-82.323,13.349,-24.253,221.974,30.239,-25.536,-17.309,-3.255,-1.542,-19.243,-38.474,8.199,8.614,-0.238,-24.566,-3.355,3.262,-1.609,-3.355,-2.471,-30.211,-61.002,-16.681,-18.33,-74.268,-108.49
2.2356752000000597,3.562,-19.452,-146.016,-80.191,14.361,-21.155,229.436,36.356,-24.998,-13.705,1.359,-0.003,-18.711,-37.923,9.216,11.167,-0.75,-21.467,-5.401,6.333,0.442,0.747,2.655,-23.009,-47.621,-8.98,-14.214,-65.997,-98.135
2.2357387000001836,-6.176,-16.359,-142.283,-74.988,18.957,-14.474,201.542,48.615,-21.387,-14.204,-0.692,-1.028,-16.643,-35.323,1.01,10.644,1.3,-29.643,-10.006,-1.87,-4.681,-5.401,-5.545,-22.986,-52.696,-12.045,-17.273,-69.517,-101.623
2.2501769000000422,-22.051,-38.884,-170.318,-95.405,3.569,-32.902,204.415,28.586,-40.321,-35.194,-21.696,-17.421,-36.094,-51.682,-13.848,-6.273,-17.145,-49.081,-33.05,-21.849,-22.607,-27.425,-28.593,-48.578,-83.382,-33.037,-35.187,-88.403,-117.403
2.264777100000174,-24.591,-51.653,-187.566,-117.339,-22.05,-56.948,236.998,-3.718,-53.6,-47.455,-34.994,-23.551,-46.304,-68.024,-24.08,-16.513,-26.862,-51.081,-42.751,-27.462,-31.806,-36.107,-30.614,-60.825,-85.86,-43.251,-43.348,-95.999,-128.556
2.2648349000000962,-22.004,-42.38,-174.571,-110.562,-28.688,-53.817,269.549,-5.763,-42.788,-39.21,-27.787,-13.281,-36.524,-60.784,-25.081,-4.201,-13.515,-41.296,-26.826,-18.213,-26.139,-23.263,-16.751,-47.444,-63.233,-35.523,-35.108,-92.829,-132.014
2.2648760000001857,-18.909,-40.8,-168.249,-99.693,-16.364,-37.882,237.004,24.469,-35.061,-28.413,-18.537,-11.219,-29.828,-47.403,-19.933,6.049,-9.915,-39.718,-19.627,-12.559,-20.478,-14.53,-16.734,-38.688,-66.756,-30.364,-30.462,-92.224,-125.222
2.279830200000106,-5.057,-37.686,-170.13,-97.032,-6.101,-28.11,204.491,37.764,-34.001,-19.675,-11.347,-10.695,-25.699,-45.306,-16.327,7.068,-10.417,-35.58,-23.194,-7.424,-13.797,-14.516,-18.254,-38.649,-77.96,-28.284,-27.358,-84.96,-112.801
2.294816399999945,2.12,-24.84,-160.226,-88.225,-3.534,-23.471,237.074,32.091,-29.869,-17.094,-6.212,-1.975,-20.038,-47.822,-13.749,13.208,-1.185,-27.859,-14.974,-1.781,-7.636,-9.891,-13.113,-36.561,-64.562,-21.596,-21.695,-74.628,-112.688
2.298789100000249,-13.764,-29.426,-158.016,-88.649,2.105,-28.058,210.197,28.473,-34.45,-23.737,-11.329,-6.072,-25.654,-50.848,-8.612,13.708,-6.307,-36.028,-14.959,-6.39,-14.8,-10.393,-14.637,-39.598,-53.226,-20.038,-24.235,-80.701,-124.871
2.3108313000002454,-26.558,-45.791,-177.838,-104.955,4.152,-38.789,177.712,27.42,-44.149,-29.348,-20.539,-17.849,-34.337,-55.921,-8.091,0.886,-21.158,-48.288,-27.751,-17.142,-24.007,-19.604,-18.72,-43.145,-62.907,-26.165,-31.895,-95.478,-125.259
2.3109016000003066,-18.846,-43.183,-185.345,-109.973,-4.049,-37.213,202.125,29.442,-40.007,-27.27,-20.006,-14.245,-33.278,-55.352,-13.718,-1.164,-15.501,-43.116,-25.162,-17.125,-21.934,-17.535,-12.554,-33.88,-70.529,-23.065,-29.814,-94.358,-115.399
2.325008499999967,-13.705,-35.968,-168.253,-101.666,-10.705,-33.077,234.71,32.998,-31.257,-27.755,-16.4,-7.571,-28.634,-46.588,-11.143,7.546,-4.727,-31.29,-13.866,-9.936,-23.449,-10.346,-7.931,-24.625,-64.823,-16.895,-24.149,-82.992,-121.432
2.325074400000176,-19.326,-46.178,-169.622,-106.687,-14.793,-48.926,267.263,17.596,-39.935,-40.535,-27.142,-17.297,-34.753,-47.566,-11.132,0.879,-12.92,-38.431,-23.586,-15.049,-34.184,-22.631,-18.169,-35.359,-66.295,-28.148,-31.297,-87.008,-137.704
2.3399797000001854,-19.307,-54.329,-186.359,-115.29,-17.852,-59.635,284.415,3.746,-53.215,-51.253,-36.849,-23.427,-44.452,-63.4,-22.904,-8.344,-24.178,-52.225,-34.833,-26.304,-34.662,-32.342,-26.86,-48.131,-73.401,-40.928,-39.975,-101.778,-133.98
2.3400399000001926,-7.504,-44.541,-171.315,-106.465,-7.588,-38.059,251.855,27.309,-39.842,-33.783,-23.492,-11.621,-33.137,-61.287,-23.393,1.911,-16.981,-42.439,-24.552,-17.057,-23.869,-18.989,-16.075,-38.861,-64.106,-29.616,-33.275,-94.504,-120.526
2.354933699999947,-3.399,-39.885,-158.336,-100.211,-1.945,-23.164,220.352,45.724,-23.921,-16.331,-12.198,-6.486,-18.76,-44.832,-14.148,9.081,-5.693,-30.614,-18.38,-6.793,-21.283,-14.872,-8.886,-33.187,-56.87,-21.39,-28.631,-85.188,-126.041
2.3588861000002908,-17.74,-56.752,-190.453,-112.919,-18.849,-47.219,252.92,19.039,-41.828,-35.782,-30.116,-18.775,-34.622,-56.058,-23.356,-5.272,-14.397,-45.952,-33.219,-20.619,-33.558,-32.788,-24.759,-50.06,-79.867,-38.787,-39.873,-106.619,-136.674
2.3711685000002944,-27.456,-64.892,-204.095,-120.49,-22.416,-62.029,251.642,3.138,-56.643,-50.091,-39.308,-24.904,-50.982,-68.81,-29.992,-14.489,-25.141,-54.615,-39.333,-25.721,-37.622,-36.341,-30.882,-49.498,-93.619,-43.359,-44.444,-115.734,-137.049
2.371233200000006,-13.596,-45.359,-171.616,-106.537,-1.901,-41.987,220.14,21.066,-38.143,-27.499,-19.289,-13.096,-33.0,-42.101,-12.544,-1.154,-6.673,-28.433,-21.875,-3.666,-23.752,-17.862,-13.432,-26.907,-69.447,-21.798,-30.567,-86.929,-136.912
2.385067000000163,-1.799,-30.969,-159.149,-90.037,5.785,-29.137,252.707,27.705,-24.272,-14.152,-6.462,-4.374,-12.474,-19.517,-1.261,12.167,14.339,-8.937,-9.046,8.12,-14.507,-6.061,-4.71,-23.806,-50.422,-12.555,-21.828,-71.473,-126.529
2.3851291000000856,-8.458,-39.648,-172.31,-89.947,3.218,-30.645,224.277,32.288,-27.834,-20.798,-13.115,-7.443,-15.024,-33.842,-6.895,7.544,4.59,-18.662,-12.623,0.94,-20.64,-10.666,-10.853,-33.516,-55.495,-20.74,-25.904,-83.185,-106.423
2.4000450000003184,-15.621,-46.78,-170.6,-101.128,4.239,-29.59,191.778,46.6,-29.343,-23.851,-19.762,-14.096,-25.767,-47.641,-13.548,-3.734,-13.857,-37.086,-22.856,-6.746,-30.866,-20.901,-15.453,-33.995,-62.099,-24.305,-32.026,-92.323,-115.538
2.4001084999999875,-17.143,-48.783,-170.942,-106.662,-10.11,-38.269,215.152,39.381,-35.974,-32.536,-28.964,-20.229,-35.987,-52.204,-21.731,-9.878,-19.991,-48.32,-33.592,-16.473,-38.007,-29.077,-21.073,-41.645,-70.234,-31.453,-37.117,-95.817,-144.624
2.415071700000226,-23.273,-50.783,-178.968,-100.408,-27.006,-49.502,247.725,24.485,-44.647,-44.799,-37.644,-24.308,-42.099,-61.373,-25.808,-12.942,-23.045,-45.71,-37.145,-23.116,-40.531,-30.585,-24.638,-50.313,-73.75,-39.618,-38.617,-95.721,-141.405
2.419000700000197,-22.225,-45.097,-172.129,-96.721,-18.269,-45.354,247.989,24.973,-43.066,-43.217,-30.946,-23.259,-41.545,-62.337,-18.61,-13.954,-24.046,-39.517,-27.886,-15.921,-34.343,-21.845,-17.953,-36.43,-64.455,-28.308,-33.968,-87.941,-118.21
2.43182969999998,-7.859,-41.978,-165.297,-102.772,-8.517,-45.308,268.746,17.775,-43.535,-42.149,-23.743,-18.112,-40.478,-55.614,-16.542,-10.354,-19.924,-43.576,-17.612,-9.757,-25.087,-11.577,-10.763,-22.049,-64.39,-14.96,-29.835,-83.754,-115.018
2.431890900000326,-3.752,-49.108,-170.255,-106.768,-15.169,-49.874,249.01,15.708,-43.492,-41.083,-26.281,-13.483,-36.34,-54.534,-23.698,-8.294,-15.293,-42.507,-18.107,-12.821,-23.012,-15.664,-14.338,-26.638,-74.572,-23.142,-31.342,-83.158,-122.588
2.4451302000002215,-12.458,-49.059,-169.06,-99.489,-12.592,-35.992,216.485,37.722,-32.177,-25.672,-22.668,-10.908,-26.057,-48.844,-23.162,-10.335,-10.667,-27.608,-22.699,-12.808,-24.526,-23.845,-17.91,-30.198,-66.301,-28.754,-32.848,-81.538,-125.539
2.4451945999999225,-9.884,-36.715,-158.132,-87.094,-0.796,-22.123,249.056,48.955,-24.46,-15.913,-12.4,-8.848,-19.371,-39.061,-13.917,-8.276,-6.558,-22.457,-17.041,-6.136,-22.965,-13.575,-9.183,-22.995,-46.767,-16.942,-27.18,-77.358,-124.389
2.460157900000013,-2.702,-32.58,-155.925,-91.618,-2.333,-32.347,281.595,34.049,-34.17,-25.631,-12.9,-8.839,-24.987,-45.682,-15.44,-6.73,-11.162,-32.169,-12.413,-9.203,-24.991,-5.365,-3.538,-20.923,-44.158,-12.314,-23.054,-72.67,-119.141
2.4602192000002105,-14.994,-46.892,-173.188,-116.117,-14.626,-53.32,249.038,14.035,-49.505,-41.999,-28.768,-19.077,-39.819,-64.08,-28.745,-19.019,-23.447,-41.87,-26.233,-24.051,-37.262,-23.29,-15.318,-31.66,-60.508,-26.647,-34.302,-82.331,-119.022
2.475138799999968,-25.225,-56.579,-185.822,-123.685,-21.783,-58.389,216.514,11.459,-48.431,-46.055,-35.399,-24.693,-44.39,-60.942,-31.79,-25.148,-23.935,-41.829,-36.453,-29.15,-45.421,-35.562,-21.963,-35.727,-70.694,-37.378,-43.489,-94.544,-131.711
2.4911188999999467,-9.831,-44.227,-167.705,-101.532,-17.151,-40.4,232.179,37.576,-32.501,-29.615,-22.044,-11.861,-31.026,-39.876,-19.975,-13.339,-9.055,-29.491,-28.732,-18.362,-38.716,-26.305,-15.281,-29.544,-58.84,-30.169,-33.199,-84.716,-139.776
2.491185000000314,-6.235,-34.961,-152.169,-95.283,-9.961,-32.163,248.853,47.784,-30.419,-24.463,-16.899,-7.238,-27.921,-39.324,-18.418,-15.375,-8.021,-26.9,-30.753,-19.881,-36.628,-29.353,-19.876,-35.662,-53.658,-28.602,-28.555,-78.996,-132.976
2.505194400000164,-23.135,-44.147,-166.361,-107.483,-16.611,-48.525,281.391,18.023,-42.684,-40.832,-29.177,-19.014,-38.139,-52.605,-32.232,-28.68,-18.259,-37.632,-40.968,-30.107,-42.739,-38.033,-25.492,-42.798,-71.023,-38.307,-39.285,-92.749,-122.085
2.5052573000002667,-20.55,-42.054,-168.244,-97.13,-21.718,-46.939,285.721,21.078,-34.957,-34.131,-24.025,-13.359,-28.367,-41.794,-30.663,-20.454,-9.532,-30.422,-26.582,-19.831,-40.135,-23.65,-12.146,-26.362,-71.976,-31.096,-38.221,-87.533,-121.45
2.520280200000343,-6.697,-33.815,-150.657,-82.175,-5.815,-25.888,253.16,53.845,-20.065,-15.654,-10.681,-1.051,-16.043,-27.92,-18.337,-9.675,0.724,-19.121,-11.187,-9.053,-35.996,-11.331,-5.474,-17.626,-50.387,-19.794,-29.474,-72.589,-131.063
2.5203464000001077,-9.764,-42.491,-155.63,-95.926,0.851,-35.083,285.694,35.86,-31.828,-32.545,-19.38,-11.808,-30.884,-40.187,-23.954,-17.863,-11.06,-31.909,-21.934,-16.728,-45.694,-21.053,-13.665,-34.515,-50.849,-30.533,-35.08,-83.787,-134.005
2.5353060000002188,-13.341,-50.645,-168.794,-114.273,-18.617,-60.151,318.196,3.549,-52.801,-55.054,-31.656,-20.505,-43.149,-50.905,-33.151,-23.993,-16.684,-41.099,-28.06,-20.298,-55.894,-28.205,-15.189,-40.116,-72.315,-37.675,-40.168,-97.023,-126.187
2.535370099999909,-13.84,-49.057,-170.674,-112.109,-27.308,-58.554,285.603,15.841,-54.797,-47.826,-28.038,-13.313,-37.982,-47.268,-24.921,-21.407,-10.52,-33.373,-20.347,-17.204,-56.863,-23.566,-12.1,-27.78,-76.854,-27.391,-33.468,-92.828,-127.598
2.5522733000002518,-20.998,-51.058,-176.139,-101.239,-14.985,-45.176,253.042,48.613,-43.472,-38.557,-22.374,-11.25,-34.358,-42.61,-15.163,-19.336,-9.997,-29.754,-16.74,-18.211,-56.806,-18.931,-9.526,-23.654,-59.359,-23.265,-29.336,-89.661,-130.032
2.552345900000091,-18.928,-52.543,-173.914,-98.064,-13.433,-46.667,285.576,45.49,-37.28,-40.568,-22.864,-12.776,-31.762,-36.932,-16.684,-17.78,-7.938,-27.675,-19.285,-16.656,-61.872,-21.986,-9.004,-28.753,-49.053,-28.877,-31.868,-91.108,-118.631
2.5644262999999228,-11.737,-53.515,-167.08,-105.138,-25.203,-54.305,305.783,31.1,-46.465,-43.089,-30.014,-15.325,-33.267,-43.555,-26.914,-24.935,-11.516,-29.696,-30.537,-20.225,-71.032,-35.797,-24.364,-42.557,-64.373,-40.119,-39.008,-95.116,-127.734
2.5644891000001735,-13.262,-56.024,-176.134,-106.057,-24.665,-51.177,273.202,38.242,-53.078,-44.582,-33.058,-19.92,-42.456,-55.807,-35.084,-32.082,-20.726,-34.277,-39.215,-30.451,-71.986,-41.396,-35.611,-50.199,-77.117,-49.813,-43.068,-100.656,-147.586
2.5793555000000197,-11.712,-51.869,-176.983,-98.779,-18.493,-44.466,305.716,37.179,-46.365,-42.489,-26.877,-16.314,-38.827,-50.116,-31.975,-25.39,-13.02,-27.583,-32.516,-29.909,-65.254,-31.109,-25.329,-35.804,-69.867,-44.128,-36.877,-99.531,-132.581
2.5794184000001223,-12.725,-58.477,-168.096,-108.926,-26.672,-58.254,338.198,8.452,-54.516,-50.643,-31.461,-17.835,-39.301,-50.578,-29.894,-28.438,-12.495,-30.629,-37.094,-32.952,-71.336,-36.713,-24.791,-30.133,-82.093,-45.621,-39.914,-100.968,-119.129
2.594386100000065,-26.544,-74.3,-178.687,-118.039,-31.768,-76.639,305.585,-4.364,-67.781,-64.425,-43.212,-29.087,-55.143,-61.798,-36.011,-42.755,-29.901,-48.529,-52.427,-43.166,-80.999,-52.558,-36.55,-42.911,-98.917,-58.383,-51.145,-104.453,-140.014
2.5944514000002528,-31.641,-67.566,-182.094,-101.527,-21.49,-66.316,273.004,22.793,-54.393,-55.651,-35.485,-23.935,-50.989,-49.441,-31.365,-35.539,-26.797,-44.383,-44.69,-37.999,-79.381,-43.284,-31.39,-42.868,-72.69,-51.664,-45.971,-98.714,-148.584
2.6100891999999476,-23.412,-57.765,-173.715,-98.352,-18.907,-51.393,305.518,37.115,-42.556,-42.275,-28.789,-14.69,-35.569,-41.707,-21.599,-27.307,-17.037,-35.117,-33.886,-31.301,-82.375,-31.97,-27.26,-41.8,-60.322,-46.49,-40.801,-102.201,-138.701
2.6101520000001983,-16.729,-64.879,-183.275,-109.012,-19.4,-54.927,338.001,21.708,-48.661,-43.77,-30.297,-18.261,-38.607,-53.448,-20.553,-31.89,-25.217,-43.278,-32.316,-30.758,-83.83,-33.987,-28.258,-45.857,-91.512,-53.103,-44.347,-110.296,-135.489
2.6248561000002155,-5.954,-52.519,-177.969,-87.898,-5.549,-43.602,370.45,25.785,-37.342,-33.992,-13.873,-7.485,-30.884,-39.05,-13.36,-17.514,-13.921,-29.403,-13.84,-13.309,-67.352,-17.559,-11.323,-25.831,-80.15,-34.095,-29.446,-89.693,-124.595
2.624917000000096,1.225,-34.536,-153.713,-70.392,-2.982,-29.214,337.804,44.715,-28.595,-22.688,-4.638,5.331,-15.996,-24.154,-4.638,-5.713,3.0,-14.004,-3.068,-3.561,-63.699,-5.758,-6.189,-15.559,-47.282,-22.277,-18.658,-72.697,-120.372
2.639419000000089,-4.924,-51.407,-164.317,-90.301,-17.323,-44.554,305.191,41.596,-45.473,-38.546,-23.588,-9.019,-30.325,-47.184,-16.416,-24.663,-12.885,-33.458,-22.533,-22.001,-81.566,-26.757,-25.65,-38.085,-70.289,-45.821,-35.545,-89.531,-136.645
2.639477500000339,-7.993,-60.577,-181.059,-91.748,-14.744,-52.706,292.591,40.018,-46.452,-48.242,-28.688,-15.67,-41.053,-54.309,-28.695,-30.786,-22.606,-40.597,-30.195,-27.614,-81.484,-33.903,-26.649,-38.047,-102.494,-48.337,-37.559,-93.54,-129.336
2.65440690000014,-3.375,-38.487,-162.435,-71.164,-7.557,-36.259,325.086,47.662,-33.085,-35.386,-14.827,-2.335,-26.667,-36.324,-22.006,-16.411,-7.726,-20.064,-17.869,-15.804,-73.718,-15.938,-10.229,-13.93,-83.436,-26.772,-20.103,-72.442,-104.616
2.6694400999999743,-0.81,-29.74,-151.514,-71.093,-10.111,-30.588,322.712,47.615,-34.589,-26.641,-9.177,-0.283,-19.981,-38.849,-11.738,-16.394,-2.596,-17.995,-15.802,-14.763,-80.304,-12.848,-7.657,-11.355,-52.102,-27.77,-19.058,-61.611,-105.536
2.673364600000241,1.753,-33.296,-154.437,-68.972,4.756,-29.02,290.113,56.788,-30.456,-21.491,-4.044,-0.283,-19.448,-45.47,-4.554,-16.378,-3.105,-23.1,-16.298,-12.699,-78.687,-15.397,-6.625,-15.442,-44.878,-29.791,-21.088,-58.987,-112.603
2.68644119999999,-0.811,-32.751,-149.671,-63.78,19.096,-26.942,322.611,51.609,-27.864,-24.032,-6.09,0.742,-19.941,-38.765,-9.161,-13.8,-4.639,-25.126,-19.356,-14.223,-78.608,-15.382,-10.204,-16.963,-59.177,-25.663,-21.579,-61.49,-114.027
2.686506400000326,-7.982,-39.378,-154.645,-79.598,3.195,-45.358,355.076,19.282,-50.378,-41.426,-20.94,-10.529,-34.266,-40.263,-22.471,-25.569,-14.368,-36.371,-30.095,-29.066,-94.411,-26.637,-20.952,-27.705,-72.95,-36.908,-31.804,-71.162,-124.159
2.699575300000106,-2.851,-35.24,-154.49,-74.908,-5.517,-46.337,340.376,20.287,-46.229,-35.749,-12.723,-6.933,-30.133,-37.661,-14.764,-21.445,-4.108,-25.577,-21.356,-20.84,-88.169,-21.487,-12.222,-19.993,-49.824,-33.285,-26.649,-60.333,-116.35
2.699644199999966,0.226,-21.885,-143.065,-49.73,3.197,-17.602,307.761,53.054,-13.907,-11.123,3.172,6.906,-7.049,-26.865,-0.917,-4.518,11.778,-3.522,-5.453,-1.864,-71.687,-4.047,0.085,-3.579,-35.429,-16.345,-13.303,-44.391,-103.426
2.7146866000002774,-15.656,-40.818,-164.439,-69.148,-8.077,-31.416,282.35,45.317,-29.263,-28.53,-19.885,-9.494,-23.436,-42.72,-16.798,-19.882,-9.239,-24.523,-22.866,-19.281,-89.034,-19.925,-17.333,-22.018,-67.669,-32.211,-30.195,-69.962,-124.328
2.714786400000321,-21.788,-66.905,-186.816,-101.354,-20.364,-63.66,314.855,12.996,-61.509,-60.777,-40.87,-27.416,-54.151,-65.219,-29.076,-38.818,-29.209,-46.528,-41.286,-37.704,-102.777,-38.86,-30.636,-40.952,-86.045,-52.158,-46.559,-94.995,-138.548
2.729618400000163,-3.836,-50.444,-158.452,-84.347,-6.511,-45.666,283.29,27.328,-46.078,-44.834,-20.337,-9.97,-37.191,-52.858,-12.653,-21.873,-11.762,-23.427,-23.826,-20.248,-86.281,-20.378,-14.724,-24.517,-53.171,-37.249,-28.069,-69.285,-112.794
2.7337328000003254,4.878,-26.828,-137.289,-52.499,3.229,-14.882,250.731,60.088,-19.904,-16.613,-4.435,2.848,-16.149,-36.411,-6.493,-11.093,-4.065,-15.719,-14.069,-10.494,-85.17,-10.112,-7.024,-14.246,-54.142,-25.429,-17.795,-45.137,-101.923
2.746477099999993,-7.935,-37.559,-158.669,-61.668,-6.508,-32.798,283.268,44.659,-33.717,-31.965,-19.288,-10.987,-32.014,-46.621,-16.22,-25.938,-22.504,-41.319,-33.01,-26.365,-104.552,-29.569,-20.85,-27.552,-83.29,-38.724,-32.634,-66.096,-122.825
2.7465415000001485,-19.198,-59.039,-171.318,-88.246,-16.748,-51.72,315.772,12.339,-52.126,-52.938,-33.101,-19.685,-44.278,-57.333,-16.717,-34.109,-29.142,-46.401,-40.662,-36.585,-113.157,-39.274,-30.05,-36.234,-72.448,-49.443,-39.774,-86.523,-138.072
2.7596435000000383,-18.154,-61.029,-164.999,-93.281,-17.243,-44.496,295.476,19.499,-46.951,-44.176,-28.457,-16.592,-36.549,-50.616,-17.724,-30.489,-19.379,-33.034,-32.424,-32.962,-109.97,-31.038,-24.897,-33.124,-55.982,-43.758,-36.66,-76.19,-141.52
2.759733000000324,-6.865,-42.525,-157.661,-72.696,-1.857,-31.132,262.906,46.119,-31.022,-26.713,-11.522,-4.28,-26.266,-35.196,-14.633,-21.237,-9.626,-23.267,-21.633,-20.122,-94.491,-16.15,-9.503,-18.746,-57.463,-25.272,-29.451,-59.208,-130.62
2.7746219000000565,5.437,-25.576,-142.134,-56.229,18.125,-14.195,261.618,58.881,-19.72,-14.903,5.396,12.118,-11.895,-19.279,4.337,-5.334,3.192,-10.436,-3.681,-4.22,-77.49,-1.789,4.339,-3.87,-42.548,-11.414,-16.614,-51.464,-106.411
2.774684800000159,1.846,-31.698,-143.017,-65.394,14.521,-14.18,294.144,45.502,-24.824,-15.913,1.804,8.52,-11.371,-19.772,6.894,-5.841,6.775,-6.327,-0.091,-5.24,-83.048,-6.398,-0.789,-10.014,-37.895,-19.6,-17.11,-53.974,-107.841
2.7896324000003005,-8.915,-46.523,-164.391,-74.038,-4.449,-34.658,272.333,27.525,-40.681,-31.266,-13.567,-9.419,-31.34,-43.831,-12.068,-22.229,-6.552,-19.641,-16.997,-18.555,-94.236,-19.199,-13.083,-19.738,-69.108,-29.826,-27.339,-64.678,-128.738
2.794765500000267,-10.443,-41.354,-161.153,-58.595,-4.445,-34.624,239.785,36.719,-42.177,-34.821,-12.529,-5.311,-35.407,-54.033,-8.47,-21.182,-15.255,-26.794,-16.468,-16.487,-86.457,-12.52,-10.509,-8.447,-74.674,-20.575,-21.164,-65.638,-119.9
2.8075803000001542,-7.871,-26.968,-141.524,-52.901,5.806,-18.708,272.333,48.978,-30.864,-23.516,-0.733,7.502,-24.613,-37.585,6.908,-9.378,-7.555,-18.57,-1.594,-3.663,-82.784,-2.774,-2.814,-0.754,-42.324,-11.845,-10.897,-55.839,-100.312
2.8076473000000988,-3.252,-26.429,-147.53,-68.73,3.751,-21.25,304.849,43.294,-30.321,-22.98,-0.732,1.859,-25.613,-34.474,-1.808,-11.418,-2.937,-13.941,-5.179,-5.196,-91.923,-6.869,-5.885,-10.487,-44.843,-15.932,-14.984,-55.271,-114.044
2.819751600000018,4.436,-29.988,-159.678,-68.661,3.235,-23.278,272.268,47.861,-34.901,-26.031,-5.342,-3.779,-28.661,-45.71,-6.929,-13.968,-8.569,-19.05,-13.883,-12.363,-91.831,-10.961,-9.977,-11.501,-77.074,-18.989,-16.506,-57.777,-132.886
2.819820400000026,-1.204,-27.909,-151.321,-54.248,10.916,-14.546,239.721,61.133,-29.743,-21.394,-0.726,3.398,-22.485,-37.98,10.496,-10.368,-8.048,-23.642,-14.894,-11.326,-85.592,-14.536,-9.455,-7.391,-70.849,-21.02,-12.903,-46.961,-119.945
2.834751600000345,-9.912,-24.807,-142.461,-58.292,9.881,-15.556,248.703,55.949,-27.664,-22.397,3.373,5.956,-20.413,-27.183,12.022,-12.407,-2.405,-20.032,-15.391,-11.827,-88.067,-18.62,-12.519,-14.044,-41.577,-25.097,-15.964,-42.815,-100.87
2.8348159000001942,0.344,-26.319,-148.978,-67.967,2.699,-25.274,281.242,41.549,-37.37,-30.059,-4.315,-2.76,-25.003,-37.915,-6.433,-20.079,-7.525,-21.036,-18.449,-17.451,-91.566,-18.601,-19.679,-19.153,-53.318,-26.609,-20.047,-55.068,-105.892
2.8497568000002502,-0.169,-34.49,-160.1,-64.313,-1.403,-34.471,313.748,31.261,-42.968,-33.616,-13.532,-8.904,-31.126,-48.635,-13.599,-26.719,-16.739,-31.774,-22.529,-19.995,-93.523,-19.095,-21.709,-19.646,-73.757,-27.095,-21.564,-59.623,-123.717
2.865813700000217,-15.538,-34.968,-149.694,-60.151,-2.426,-33.412,345.71,30.717,-35.753,-29.483,-8.396,-3.26,-27.509,-42.439,-6.413,-25.155,-11.6,-28.668,-18.408,-14.852,-95.479,-13.441,-10.928,-16.553,-52.679,-21.944,-21.03,-47.268,-128.716
2.8658798999999817,-2.715,-20.588,-123.416,-51.381,10.384,-12.886,313.089,54.765,-21.373,-15.622,5.445,10.575,-10.063,-29.589,6.401,-9.761,3.269,-5.586,0.053,-3.054,-87.187,3.991,3.939,-0.142,-30.084,-8.09,-9.226,-34.926,-116.292
2.8798796999999468,15.731,-14.42,-122.781,-37.498,27.792,-0.065,280.5,76.227,-12.642,-6.384,10.05,16.713,-1.856,-21.362,17.153,-2.067,8.389,-1.994,5.688,4.121,-79.927,8.598,4.96,10.104,-40.813,-3.471,-2.044,-36.94,-103.368
2.8799481999999443,0.346,-23.115,-142.638,-42.071,19.055,-12.361,286.367,61.294,-19.802,-14.575,4.405,11.06,-12.1,-25.439,7.915,-11.286,3.257,-16.336,-6.613,-3.567,-87.532,-3.706,-3.242,-3.738,-45.895,-12.177,-10.751,-46.125,-97.63
2.8948662000002514,-4.777,-18.993,-136.86,-47.664,8.79,-14.91,318.869,47.401,-22.344,-14.048,7.987,12.586,-10.039,-26.438,0.222,-9.738,4.279,-6.586,-1.995,-3.052,-88.469,-2.165,0.86,-7.833,-30.992,-10.116,-9.716,-36.857,-98.044
2.894930800000111,14.695,-7.704,-119.817,-33.784,23.638,-2.087,351.337,60.673,-11.05,-1.739,19.249,21.795,3.291,-16.166,18.665,3.592,14.52,11.863,14.913,11.808,-76.597,13.206,10.081,11.13,-27.887,3.214,3.614,-18.889,-99.995
2.909865500000251,8.021,-17.43,-127.382,-39.898,23.102,-9.257,344.326,57.026,-16.162,-8.909,12.058,16.65,-2.86,-19.736,20.183,-2.559,13.994,0.068,8.75,7.698,-86.767,9.607,4.947,16.242,-36.569,2.699,-2.025,-29.629,-93.748
2.909930300000269,-6.844,-34.318,-139.55,-64.961,2.075,-30.253,311.706,34.94,-35.102,-28.368,-6.91,2.289,-20.275,-34.061,-3.403,-16.901,1.172,-18.375,-12.263,-11.265,-114.857,-8.846,-7.353,-2.73,-37.044,-11.648,-16.88,-50.604,-90.58
2.9271010000002207,4.946,-35.309,-145.558,-62.335,3.609,-29.198,279.119,44.639,-33.53,-30.389,-7.415,1.262,-26.915,-29.928,-3.4,-19.446,-4.465,-20.406,-19.423,-15.352,-125.501,-14.472,-11.956,-15.535,-45.717,-20.858,-13.79,-49.016,-109.957
2.927164300000186,10.576,-30.663,-155.658,-47.928,9.241,-16.361,246.565,69.697,-26.324,-24.723,-1.26,4.847,-26.376,-22.214,6.338,-21.476,-2.411,-22.947,-17.355,-13.8,-122.814,-11.896,-13.994,-14.494,-66.163,-22.374,-7.628,-43.332,-131.876
2.9399341000003005,1.344,-32.169,-152.941,-53.515,-4.088,-17.369,279.106,61.943,-29.884,-24.698,-4.333,4.842,-20.202,-25.778,-1.866,-21.967,-1.384,-21.387,-14.263,-12.761,-122.691,-11.884,-10.906,-11.406,-59.949,-19.79,-10.694,-43.801,-125.085
2.939998100000139,4.416,-32.649,-137.419,-61.146,-2.035,-28.11,311.614,37.29,-29.854,-24.161,-4.328,4.325,-14.546,-23.703,-3.913,-17.846,0.154,-11.632,-9.126,-6.601,-122.568,-7.262,-4.235,-12.419,-34.786,-14.648,-9.659,-41.196,-103.955
2.9549661999999444,6.461,-34.666,-138.306,-64.671,6.677,-33.205,307.204,30.081,-32.898,-26.186,-2.787,0.222,-23.241,-25.728,-4.421,-23.464,-4.969,-17.255,-9.117,-12.23,-122.445,-7.255,-7.817,-13.944,-42.949,-17.707,-8.112,-48.839,-98.728
2.9550308000002588,2.869,-34.631,-145.852,-66.656,2.059,-26.0,274.622,42.858,-36.963,-26.673,-5.858,-2.339,-29.365,-34.924,-12.614,-27.539,-9.575,-26.46,-12.694,-17.853,-116.688,-10.833,-10.37,-8.295,-62.373,-21.788,-9.129,-53.401,-112.461
2.970015500000045,10.038,-25.375,-140.584,-54.806,9.229,-14.703,266.663,57.16,-26.168,-16.4,-0.729,4.323,-18.065,-27.717,0.206,-16.753,1.706,-15.162,-8.07,-5.54,-107.862,-3.138,-0.626,1.448,-46.942,-13.569,-3.484,-32.855,-121.571
2.9700745000000097,13.614,-20.226,-134.808,-42.968,22.54,-13.664,280.741,60.689,-22.043,-11.26,5.419,8.929,-10.363,-17.443,12.502,-13.15,11.438,-5.926,-3.452,-1.948,-109.803,3.013,1.936,0.422,-25.89,-7.92,0.105,-26.162,-107.617
2.9869809000001624,4.379,-25.329,-133.648,-41.901,17.395,-21.335,248.184,65.751,-27.657,-18.421,1.828,6.359,-12.914,-23.061,0.706,-17.235,3.23,-15.654,-3.96,-10.655,-117.378,-4.675,-5.751,-5.214,-30.987,-15.597,-5.53,-42.018,-93.164
2.987047000000075,-3.31,-26.841,-133.002,-45.957,13.279,-23.362,259.719,63.637,-26.604,-23.014,-1.248,3.279,-13.925,-26.624,0.705,-14.656,-2.921,-21.786,-6.006,-8.083,-120.847,-6.719,-5.745,-3.16,-43.252,-18.655,-6.037,-43.0,-107.928
3.0004673000003095,-7.917,-28.351,-142.091,-58.719,12.753,-27.95,292.247,38.982,-37.336,-27.601,-5.857,-3.385,-22.621,-27.11,7.365,-20.277,-2.406,-21.764,-13.684,-10.124,-125.337,-7.737,-6.251,-3.157,-52.942,-19.661,-7.568,-40.396,-126.776
3.000529599999936,-7.397,-33.958,-155.269,-68.906,7.105,-32.533,276.073,29.209,-46.52,-31.16,-10.462,-7.992,-31.307,-34.767,-2.889,-29.478,-7.527,-25.841,-16.745,-19.336,-124.699,-14.39,-11.881,-9.813,-54.939,-23.74,-11.146,-49.577,-125.112
3.0150665999999546,2.344,-27.776,-154.601,-57.054,14.27,-18.668,243.522,55.308,-23.932,-18.321,0.307,1.238,-17.956,-32.683,2.237,-22.789,-5.47,-21.716,-6.994,-10.607,-116.377,-7.203,-6.233,-6.73,-43.101,-17.056,0.135,-43.892,-122.938
3.0151333000003433,7.465,-21.601,-142.663,-49.825,18.354,-10.452,276.066,64.474,-14.687,-9.594,5.429,8.409,-11.278,-23.941,11.969,-17.131,4.269,-11.961,-3.401,-1.375,-115.236,1.514,4.019,3.011,-44.594,-8.33,6.283,-35.139,-122.815
3.0301139000002877,0.285,-30.801,-133.811,-61.046,-2.156,-23.762,291.672,51.602,-32.603,-21.879,-7.896,1.74,-23.562,-26.991,-6.486,-22.749,-0.858,-17.584,-11.594,-10.595,-121.781,-8.222,-2.645,-2.115,-63.505,-17.03,-5.506,-45.862,-115.52
3.0451115000000755,-7.4,-37.43,-141.875,-64.571,-6.765,-24.763,259.105,59.235,-30.009,-25.956,-10.962,-2.36,-25.588,-34.136,-14.164,-26.825,-12.128,-32.423,-19.78,-18.781,-127.295,-17.435,-16.987,-19.532,-64.979,-27.26,-10.624,-51.964,-125.138
3.0491079000003083,-10.979,-38.417,-160.688,-59.383,9.636,-19.615,245.013,60.2,-26.905,-22.344,-7.365,-3.382,-24.025,-37.688,1.731,-32.433,-14.677,-38.026,-30.006,-20.812,-132.803,-17.93,-22.093,-25.148,-58.766,-28.257,-10.101,-48.326,-147.042
3.062129400000231,-10.455,-42.989,-158.99,-59.836,6.04,-32.915,277.556,33.5,-43.784,-32.055,-15.554,-4.916,-31.686,-37.138,-0.832,-32.401,-10.564,-29.792,-27.927,-20.279,-134.207,-18.424,-13.362,-12.315,-59.732,-27.204,-14.189,-52.376,-139.21
3.0621977999999217,-6.346,-32.188,-133.216,-54.141,0.911,-31.858,310.066,29.88,-36.568,-29.462,-9.904,4.311,-21.92,-26.855,-5.442,-15.462,0.205,-11.319,-2.796,-6.939,-123.827,-3.549,2.533,2.555,-45.327,-14.369,-1.88,-49.25,-110.894
3.075251300000218,2.369,-14.225,-123.349,-46.915,18.841,-16.969,277.481,53.417,-18.601,-10.989,8.037,12.503,-6.017,-17.607,8.396,-5.713,11.988,0.988,10.015,4.852,-112.432,13.873,8.166,5.114,-30.425,1.527,13.491,-33.319,-104.636
3.075318000000152,8.514,-19.846,-135.521,-51.991,28.043,-19.513,244.928,58.999,-29.341,-14.052,3.931,6.343,-11.646,-18.614,14.535,-15.953,8.389,-5.673,-1.778,-2.326,-113.856,6.175,0.986,1.01,-41.153,-2.573,6.306,-25.089,-111.703
3.0901613999999427,2.871,-29.048,-137.435,-55.013,19.306,-18.469,212.407,60.477,-32.897,-22.235,-4.27,2.751,-15.733,-19.107,8.373,-19.011,0.696,-10.79,-3.826,-6.934,-115.28,-4.59,-4.138,2.546,-48.284,-11.28,1.176,-32.236,-109.542
3.090222100000119,-2.255,-23.896,-129.1,-46.761,6.479,-5.131,229.101,70.662,-18.008,-9.917,3.931,9.408,-6.496,-14.99,0.68,-12.332,7.356,-1.558,2.838,0.245,-108.504,1.05,-1.573,3.056,-39.015,-9.219,6.298,-41.425,-111.482
3.105209500000001,5.944,-23.36,-132.557,-40.566,-6.335,-10.249,261.66,62.395,-17.99,-4.272,5.976,12.472,-3.928,-12.926,-4.444,-12.32,12.471,-1.556,-1.263,-0.267,-109.42,4.123,3.552,-1.558,-33.852,-9.723,4.242,-36.261,-121.104
3.109307700000045,4.401,-23.848,-139.085,-40.526,-0.693,-17.923,259.349,46.963,-24.119,-11.44,2.384,9.898,-7.51,-15.474,3.757,-11.795,3.75,-16.924,-5.361,-4.878,-115.459,2.069,4.061,-0.02,-34.331,-9.2,5.775,-24.442,-117.909
3.1211637999999766,-8.411,-19.214,-133.823,-47.658,15.701,-13.807,226.814,47.428,-28.194,-14.502,1.869,3.741,-12.626,-25.193,12.463,-12.808,-4.451,-21.518,-6.38,-5.385,-115.343,0.018,-3.628,3.054,-41.981,-6.63,9.356,-32.614,-111.644
3.1212414999999964,-2.767,-27.392,-131.64,-58.881,9.538,-18.916,194.312,47.381,-37.387,-20.636,-4.28,-0.362,-20.298,-32.852,4.254,-20.48,-4.446,-16.886,-12.009,-8.966,-116.252,-6.642,-9.772,-3.097,-52.698,-13.795,0.637,-50.512,-120.754
3.1352685000001657,8.506,-33.512,-137.143,-59.334,1.844,-20.946,226.905,42.723,-34.276,-20.615,-1.202,4.762,-17.203,-26.671,0.151,-17.386,2.73,-15.332,-7.898,-5.883,-114.599,-3.049,-0.541,-3.094,-39.837,-13.782,1.149,-44.314,-123.195
3.135336499999994,3.887,-21.695,-135.469,-51.078,10.039,-11.192,259.466,45.242,-19.897,-8.811,11.607,12.954,-4.379,-16.911,9.372,-0.462,13.486,-8.657,7.479,5.906,-102.702,13.86,11.755,9.717,-23.916,3.651,16.004,-27.876,-111.801
3.1502881000001253,1.834,-19.112,-130.723,-54.613,5.93,-10.668,229.493,47.758,-19.877,-8.29,8.009,12.429,-1.813,-11.771,8.338,2.1,17.059,-0.451,12.082,7.437,-99.013,16.92,9.694,15.343,-35.163,10.307,15.988,-25.799,-117.324
3.1503539000000274,3.881,-27.29,-135.203,-58.657,2.85,-13.731,196.988,49.759,-28.054,-15.454,1.341,8.318,-7.446,-11.247,4.231,-6.099,11.406,-3.012,3.873,1.282,-106.598,6.657,0.463,7.131,-34.615,0.563,8.288,-28.847,-134.625
3.1652389999999286,-2.783,-24.701,-140.191,-53.475,20.266,-14.23,216.771,49.197,-28.026,-12.877,6.463,6.26,-11.025,-18.408,10.375,-8.142,5.247,-7.62,-3.303,-1.281,-105.467,-0.01,-2.611,-3.123,-17.674,-8.659,8.792,-30.867,-135.515
3.1812816000001476,-1.243,-27.238,-139.539,-52.909,18.709,-18.314,249.342,44.537,-24.412,-12.352,3.895,6.254,-11.526,-21.976,7.291,-7.11,4.73,-7.612,-3.812,-2.817,-102.8,-5.133,-3.121,-4.144,-41.223,-12.749,7.758,-41.082,-123.597
3.1813457000002927,8.492,-33.871,-141.448,-53.881,-5.388,-13.685,219.891,57.3,-18.24,-10.803,-0.72,9.322,-6.904,-10.171,-5.012,-4.541,12.41,-6.068,-1.247,0.26,-103.722,-3.078,-3.63,0.471,-72.433,-11.712,6.726,-50.775,-117.838
3.1813876000001073,1.311,-34.349,-146.43,-52.802,-12.043,-11.11,187.396,68.002,-19.758,-9.767,-0.719,7.263,-5.36,-4.525,-7.569,-2.999,18.545,-0.426,-4.319,-1.79,-102.594,-3.588,-7.725,-7.727,-53.405,-14.262,5.695,-54.823,-126.429
3.195359400000143,-9.448,-45.585,-150.382,-66.07,-10.494,-32.103,219.996,41.294,-36.132,-26.151,-13.526,-3.503,-18.162,-13.23,-7.049,-14.267,7.768,-5.549,-19.172,-14.596,-108.639,-20.49,-17.451,-25.137,-36.445,-29.617,-4.557,-60.403,-138.086
3.2103221000002122,-3.291,-49.638,-146.133,-71.127,-13.045,-38.219,240.781,26.395,-36.609,-32.785,-18.123,-4.524,-25.317,-15.778,-9.091,-20.401,-1.462,-22.449,-23.764,-17.143,-109.042,-22.007,-18.971,-20.501,-47.167,-29.075,-8.139,-56.245,-128.726
3.2103933000003053,2.347,-29.096,-130.618,-56.199,-2.274,-17.176,208.264,56.083,-20.69,-13.797,-2.736,5.727,-12.484,-12.176,-6.008,-7.06,4.688,-22.427,-11.444,-5.342,-92.027,-0.98,-5.632,-3.062,-39.948,-9.066,4.677,-37.745,-117.327
3.210439899999983,-1.241,-28.043,-128.438,-58.704,5.413,-19.208,193.712,60.638,-27.33,-16.857,-5.807,4.184,-11.446,-19.336,-3.44,-1.418,2.634,-14.208,-10.921,-3.288,-89.374,-3.028,-1.528,-5.109,-33.248,-10.081,7.234,-36.683,-130.529
3.2254365000003418,-1.752,-43.896,-143.679,-71.453,-1.252,-37.12,207.862,33.937,-42.672,-37.333,-18.097,-2.48,-25.267,-28.539,-4.974,-10.126,-4.029,-17.267,-18.594,-10.969,-101.58,-15.833,-9.723,-9.202,-54.731,-24.416,-0.97,-53.552,-127.837
3.242032300000119,-1.75,-35.143,-146.097,-59.598,1.311,-29.398,213.802,36.465,-34.432,-29.611,-6.295,3.67,-22.168,-23.387,-4.969,-7.042,3.66,-13.152,-11.403,-8.397,-94.818,-5.571,-6.639,-2.533,-58.263,-15.682,2.617,-49.4,-108.242
3.2421063000001595,-5.847,-30.497,-143.389,-53.903,6.433,-23.221,207.953,45.137,-29.275,-18.31,-3.728,6.228,-15.486,-17.728,-7.013,-0.375,3.656,-8.528,-5.244,-3.265,-89.088,-3.004,-2.534,-9.19,-41.298,-7.982,4.151,-35.006,-127.601
3.2553451000003406,-2.255,-44.299,-155.541,-67.17,-2.283,-33.444,185.716,32.797,-40.004,-27.001,-16.532,0.074,-23.155,-24.37,-9.568,-3.448,-6.594,-20.302,-10.874,-5.823,-96.683,-12.735,-9.704,-16.866,-49.454,-19.244,-1.488,-44.193,-150.527
3.255407600000126,6.969,-38.619,-152.824,-60.955,-0.232,-27.263,200.899,36.862,-35.353,-21.339,-4.22,9.296,-17.497,-23.834,-0.337,2.191,-0.439,-18.745,-7.277,-2.744,-85.828,-4.013,-8.67,-6.603,-64.262,-19.738,2.612,-54.907,-126.298
3.2703025000000707,6.962,-26.285,-133.716,-47.574,13.089,-9.817,233.486,53.732,-20.973,-4.411,9.617,19.02,-0.573,-12.539,8.885,13.972,8.783,-5.919,-0.61,4.431,-71.398,3.676,-2.001,-4.034,-56.513,-9.472,8.757,-44.606,-113.877
3.2703653000003214,-0.218,-31.894,-135.119,-54.186,11.026,-9.807,201.49,61.363,-20.44,-5.944,-1.664,7.218,-2.622,-15.6,3.753,9.347,0.577,-14.622,-9.831,-1.208,-83.109,-7.086,-9.684,-15.301,-48.259,-14.073,4.137,-35.852,-130.157
3.2843212000002495,-5.341,-36.473,-143.693,-63.353,-2.817,-21.068,191.554,60.277,-24.518,-18.233,-10.371,-2.523,-15.427,-27.88,-3.935,-3.47,-7.621,-27.927,-23.654,-15.552,-98.396,-16.301,-19.92,-20.409,-48.211,-25.842,-2.015,-43.501,-130.027
3.284380300000066,-15.581,-44.634,-144.574,-70.975,-12.036,-36.929,224.15,34.089,-33.202,-30.51,-17.533,-3.545,-24.633,-31.438,-13.153,-12.176,-11.199,-29.436,-32.851,-22.709,-104.957,-25.506,-24.511,-29.61,-47.138,-35.55,-11.746,-57.802,-140.655
3.300035300000218,-24.787,-56.884,-153.138,-80.125,-17.659,-48.675,223.926,12.538,-44.952,-41.751,-30.835,-12.763,-32.805,-32.944,-24.923,-17.287,-16.311,-35.042,-34.868,-23.711,-110.488,-35.214,-28.585,-40.851,-50.677,-43.711,-21.469,-66.966,-157.42
3.3001007000002573,-11.442,-49.655,-152.985,-75.434,-15.592,-37.868,191.427,40.702,-39.784,-34.537,-22.095,-12.238,-29.698,-31.374,-20.799,-10.097,-11.684,-29.884,-23.05,-19.588,-104.229,-24.933,-21.896,-30.564,-53.188,-34.958,-12.226,-60.751,-126.525
3.314431499999955,7.012,-34.749,-139.512,-61.014,-9.429,-19.387,210.703,64.227,-22.326,-13.498,-0.556,4.68,-13.787,-19.56,-2.848,5.794,2.16,-7.825,-4.584,-2.663,-90.293,-5.44,-7.53,-10.041,-42.889,-14.431,4.693,-44.297,-97.709
3.3144978000000265,5.98,-30.103,-139.373,-50.707,-4.296,-14.244,243.28,54.942,-15.131,-7.336,2.518,10.823,-1.99,-7.245,4.328,13.473,13.429,0.38,3.105,10.66,-84.567,1.225,-0.862,-3.884,-31.063,-8.781,7.762,-34.518,-120.665
3.3293806000001496,-1.198,-31.098,-147.943,-50.656,3.905,-15.767,210.762,60.522,-22.289,-16.038,-2.095,4.153,-6.599,-7.75,-0.8,11.923,11.878,-9.354,-3.558,1.94,-84.483,-5.436,-7.009,-12.589,-33.593,-16.969,1.094,-39.607,-135.914
3.3294527000002745,-5.295,-42.85,-147.282,-65.463,4.925,-25.997,185.96,55.339,-36.099,-24.731,-8.753,0.562,-21.962,-17.988,-4.897,6.276,1.62,-17.542,-14.313,-10.87,-87.472,-15.677,-16.736,-24.36,-46.88,-24.125,-5.567,-54.424,-126.044
3.3443907999999283,-9.901,-48.442,-141.5,-71.545,-2.252,-38.779,218.562,24.032,-41.698,-27.781,-14.38,0.049,-23.989,-20.532,0.743,4.22,0.082,-17.012,-11.737,-4.199,-89.434,-10.538,-14.67,-21.774,-49.394,-21.539,-1.463,-55.907,-130.016
3.3444460000000618,-6.817,-29.438,-134.698,-48.932,4.41,-27.469,233.2,30.668,-28.849,-17.507,-3.095,5.685,-8.083,-10.777,14.062,15.487,7.766,-11.36,0.058,8.101,-86.27,3.305,-1.335,-6.895,-35.513,-8.198,9.297,-36.896,-133.985
3.3616712000002735,-1.175,-20.7,-133.539,-37.612,15.677,-10.536,200.692,56.765,-18.574,-5.194,6.13,10.802,-3.977,-9.742,14.048,20.082,2.635,-12.885,-4.04,3.482,-90.283,-3.359,-4.408,-9.962,-36.502,-7.677,7.239,-32.248,-123.092
3.361737700000049,-6.297,-35.536,-140.065,-50.382,11.05,-19.747,224.057,46.463,-25.727,-11.336,-3.61,4.131,-15.244,-21.003,-0.311,5.717,-7.613,-25.168,-17.869,-8.304,-99.414,-18.212,-19.26,-24.809,-56.957,-23.551,-3.015,-49.122,-119.383
3.3756435000000238,-11.413,-42.16,-142.999,-50.844,3.355,-31.51,231.005,39.756,-31.337,-21.571,-11.291,-3.557,-20.352,-25.08,-3.384,0.588,-7.094,-27.192,-23.486,-13.419,-99.827,-18.706,-21.29,-24.784,-66.122,-29.163,-7.11,-53.171,-130.022
3.375708300000042,-13.451,-42.631,-145.93,-47.72,-0.235,-27.892,198.499,53.036,-32.843,-24.111,-11.792,-6.628,-22.38,-24.543,-2.869,4.174,-7.599,-21.017,-23.463,-15.967,-99.215,-18.687,-18.195,-21.173,-60.421,-27.084,-10.177,-46.458,-137.064
3.389502700000321,-15.999,-43.613,-148.858,-53.307,-4.845,-25.303,197.788,56.569,-32.297,-23.575,-12.293,-4.572,-23.383,-24.006,-8.501,2.633,-7.079,-18.947,-17.292,-13.902,-95.017,-17.132,-16.128,-20.127,-50.626,-26.545,-9.142,-43.85,-125.144
3.404591800000162,-10.86,-34.347,-136.926,-44.032,-1.767,-21.179,213.472,59.587,-27.142,-18.428,-6.645,3.117,-17.212,-22.445,-4.906,6.729,-1.949,-17.391,-10.614,-6.716,-85.7,-6.869,-8.939,-12.935,-41.354,-20.883,-2.473,-39.708,-111.699
3.404656000000159,-8.288,-36.875,-133.203,-38.353,-5.351,-21.158,218.894,55.429,-31.213,-19.946,-8.687,-0.472,-19.756,-31.644,-4.389,6.21,-10.656,-24.033,-22.387,-13.369,-92.787,-15.571,-16.615,-21.631,-52.071,-27.522,-7.594,-50.939,-125.42
3.4195482000000084,-16.476,-47.084,-146.902,-51.635,-16.616,-29.846,236.606,40.516,-38.354,-30.173,-18.925,-10.718,-27.933,-40.322,-15.656,-2.506,-20.379,-35.28,-30.561,-18.991,-99.867,-27.338,-28.894,-36.466,-65.339,-39.278,-11.685,-63.695,-136.565
3.4236455000000205,-4.165,-22.446,-134.972,-40.824,-0.206,-15.984,221.512,57.382,-24.996,-18.359,-3.537,2.613,-14.585,-22.863,-4.369,10.817,-3.453,-19.363,-7.477,1.008,-83.885,-2.72,-9.91,-14.913,-48.88,-19.258,7.282,-35.967,-114.911
3.4356182000001354,20.43,1.655,-109.222,-15.681,19.774,4.012,205.921,79.866,-14.213,0.102,13.885,18.492,0.286,-5.934,17.152,26.687,10.895,-0.389,7.388,12.277,-79.191,14.189,5.982,7.643,-44.733,1.253,17.521,-9.803,-101.989
3.4356809000000794,7.09,-22.425,-126.531,-32.059,1.311,-17.509,238.503,49.56,-32.129,-16.804,-2.523,4.641,-13.546,-21.81,4.84,13.341,-4.997,-17.294,-11.063,-6.178,-99.091,-10.929,-14.516,-11.832,-66.205,-18.216,2.135,-33.872,-120.33
3.449650500000189,-17.508,-39.309,-153.044,-55.081,-9.448,-39.008,271.052,21.846,-44.905,-30.62,-13.791,-4.073,-21.73,-32.034,-8.998,7.692,-12.677,-29.572,-19.761,-12.319,-97.968,-17.065,-20.65,-20.017,-47.695,-27.931,-2.991,-45.109,-121.747
3.4497356000001673,-0.072,-12.63,-133.424,-34.021,14.64,-13.354,238.506,50.513,-25.392,-4.974,7.74,15.912,-1.216,-9.461,10.991,27.664,8.853,-4.44,2.8,7.161,-77.89,13.178,6.011,6.131,-14.86,-2.8,11.869,-14.325,-95.497
3.464613200000258,23.494,1.728,-108.7,-15.544,21.797,8.689,208.041,79.664,-6.411,11.425,21.565,23.58,13.13,5.918,22.251,34.809,20.115,10.422,15.093,15.35,-72.689,20.849,12.665,12.272,-9.722,6.424,18.005,-1.503,-94.377
3.4646763000000647,6.052,-20.303,-127.034,-36.02,0.258,-10.275,240.621,68.314,-19.725,-9.079,3.1,5.626,-0.715,-10.482,0.712,19.917,2.164,-6.495,-4.902,0.478,-86.448,-4.787,-9.377,-11.819,-41.988,-15.099,6.716,-24.043,-126.046
3.4796298999999635,-14.958,-42.825,-158.158,-56.477,-14.599,-33.831,273.168,44.679,-41.734,-32.123,-20.982,-8.212,-22.744,-28.914,-16.195,6.577,-13.72,-21.858,-24.365,-13.867,-102.756,-21.176,-22.175,-29.737,-68.586,-37.114,-9.684,-45.024,-141.801
3.483599400000003,-6.746,-41.245,-160.049,-47.711,-13.559,-32.773,305.682,39.512,-37.082,-31.067,-19.424,-6.667,-26.819,-27.348,-8.494,8.108,-10.12,-21.836,-17.681,-11.292,-105.214,-15.007,-18.055,-27.146,-72.103,-37.076,-11.211,-43.954,-129.364
3.4966708000001745,6.58,-23.273,-142.983,-30.757,-1.251,-13.272,273.101,63.551,-19.626,-13.617,0.576,1.537,-10.399,-21.173,2.785,18.346,-3.45,-17.716,-5.368,-0.01,-96.912,-3.721,-10.352,-15.336,-59.224,-20.133,3.657,-27.517,-125.648
3.496735500000341,4.012,-18.639,-134.13,-26.628,10.021,-1.476,240.553,86.029,-18.582,-4.894,4.161,5.634,-1.679,-24.738,0.733,19.864,-5.495,-15.649,-9.973,0.503,-97.84,-4.742,-11.366,-14.296,-59.164,-16.527,5.19,-22.366,-132.183
3.5098093000001427,-1.115,-31.428,-128.873,-30.188,3.351,-14.795,273.1,63.401,-26.248,-13.599,-6.601,1.529,-11.411,-24.201,-5.415,15.746,-4.465,-12.559,-15.086,-6.158,-100.816,-12.422,-16.478,-19.917,-65.765,-29.318,-4.549,-36.176,-118.218
3.50987669999995,4.522,-32.421,-118.498,-32.207,-1.775,-29.637,305.615,31.062,-31.345,-20.757,-6.595,-0.521,-17.548,-14.956,-2.336,16.243,1.687,-5.887,-13.022,-6.152,-93.543,-11.898,-11.851,-17.336,-52.379,-29.289,-1.471,-39.726,-99.657
3.524761699999999,5.542,-29.315,-125.552,-39.347,3.862,-26.533,273.034,35.13,-37.461,-21.761,-6.588,0.504,-16.505,-16.477,0.228,12.64,-2.413,-11.516,-18.644,-8.195,-92.425,-11.886,-9.79,-20.392,-42.081,-23.624,0.58,-36.1,-112.877
3.5248286000000917,-3.685,-37.482,-141.308,-48.017,-5.876,-20.871,240.485,54.562,-34.862,-22.252,-10.68,1.016,-16.489,-26.707,-4.383,6.992,-8.559,-27.898,-21.187,-12.797,-96.431,-15.972,-16.952,-28.056,-48.699,-30.773,-6.593,-42.212,-128.646
3.539741999999933,-0.608,-31.297,-126.31,-38.235,-9.968,-14.19,273.032,63.217,-21.507,-10.446,-0.423,6.65,-6.739,-17.971,-1.305,19.281,-0.353,-19.674,-6.821,-3.051,-86.088,-7.247,-10.787,-13.684,-45.064,-24.082,2.123,-38.583,-111.611
3.543841000000157,12.2,-14.36,-110.302,-22.315,10.534,-4.955,301.961,72.887,-16.363,2.372,11.873,11.766,3.514,-4.633,8.943,29.507,8.356,1.863,2.919,9.248,-78.83,5.056,3.056,0.675,-35.797,-7.664,14.416,-23.688,-96.643
3.5566858000001957,8.09,-20.493,-131.196,-26.391,12.061,-12.122,269.384,66.155,-27.617,-11.463,1.102,3.558,-7.76,-18.461,5.348,17.695,-1.898,-6.336,-6.817,-0.495,-92.583,-3.659,-7.706,-11.621,-42.934,-18.415,5.693,-25.713,-113.965
3.5567525000001297,-6.775,-36.866,-146.434,-40.197,-4.345,-30.553,301.902,37.912,-39.885,-30.407,-15.805,-7.204,-23.634,-36.886,-2.342,5.382,-14.192,-27.334,-21.668,-15.352,-103.762,-20.049,-25.629,-27.491,-60.309,-37.864,-3.022,-41.057,-132.806
3.5698452999999972,-12.404,-40.416,-136.042,-45.28,3.344,-33.596,334.388,34.287,-39.333,-27.303,-17.326,-6.172,-24.122,-30.189,1.758,6.913,-10.079,-23.721,-25.232,-14.824,-100.072,-24.127,-22.017,-31.05,-71.52,-35.777,-2.507,-46.651,-126.013
3.5848641000002317,-8.805,-36.277,-134.369,-43.698,5.902,-23.829,301.778,55.77,-31.609,-20.615,-8.087,-1.555,-17.438,-18.375,2.269,10.493,-1.872,-14.475,-15.473,-8.661,-93.824,-17.955,-13.286,-25.896,-65.813,-29.081,-3.017,-41.994,-110.518
3.584929099999954,-1.112,-32.654,-135.259,-42.629,-11.523,-21.756,326.067,53.153,-30.04,-23.668,-8.079,-1.554,-14.347,-23.992,-6.955,8.433,-5.968,-20.096,-11.871,-10.702,-94.242,-13.839,-15.322,-21.772,-56.013,-30.589,-1.477,-36.829,-113.481
3.5998520000002827,-1.111,-35.183,-130.513,-42.074,-2.289,-28.394,358.529,34.657,-34.621,-27.743,-17.805,-4.626,-20.48,-33.19,-5.411,1.764,-13.135,-23.662,-21.081,-18.376,-98.247,-16.387,-18.893,-29.434,-61.08,-30.046,0.062,-37.304,-123.614
3.599917700000333,-5.72,-36.685,-135.505,-37.422,17.18,-28.366,331.018,41.794,-33.562,-25.154,-16.763,-4.109,-25.583,-28.034,2.279,3.812,-9.023,-16.979,-19.011,-14.771,-94.562,-14.321,-15.8,-29.405,-59.482,-28.479,0.061,-34.705,-116.318
3.616254900000058,6.581,-24.353,-132.808,-27.65,6.917,-17.579,298.411,57.122,-26.356,-14.37,-3.938,1.53,-13.262,-15.71,4.838,18.665,-1.33,-12.351,-3.622,-0.412,-82.172,-2.011,-6.563,-12.469,-43.541,-21.278,9.283,-20.838,-104.419
3.6163243999999395,18.869,-15.107,-112.695,-28.135,0.25,-14.487,280.694,56.04,-25.305,-9.745,-1.885,4.603,-4.539,-14.158,6.37,22.232,-1.328,-13.363,-1.057,1.638,-80.553,0.552,-1.433,-13.994,-43.498,-13.573,13.372,-14.157,-107.388
3.6299510000003465,5.531,-20.215,-102.337,-32.205,9.472,-18.571,248.138,57.521,-28.866,-12.809,-2.908,4.598,-10.683,-18.754,4.827,14.526,-0.302,-8.227,-5.155,-3.487,-89.694,-4.059,-5.53,-24.738,-48.577,-16.121,9.26,-20.291,-105.231
3.6300163000000794,0.402,-13.535,-104.284,-20.902,7.413,-9.844,277.604,64.123,-22.177,-5.112,9.903,12.79,-1.963,-8.489,10.458,22.708,9.432,6.126,3.047,10.349,-89.092,7.728,-1.938,-4.221,-38.283,-9.444,20.009,-11.561,-88.732
3.64492300000029,12.697,0.311,-107.253,-15.758,11.504,0.925,310.114,55.35,-11.909,6.164,18.602,21.999,15.458,1.765,25.816,33.956,14.033,8.682,13.803,23.146,-81.831,21.04,12.408,14.226,-33.121,9.52,31.26,7.405,-86.594
3.6449839000001703,5.0,-7.374,-118.929,-27.526,28.911,-2.662,277.529,48.635,-15.483,2.059,11.924,17.366,9.295,-7.458,28.352,28.287,6.335,-6.184,10.203,11.34,-81.749,12.822,9.834,-3.207,-34.113,6.949,22.007,-0.287,-101.365
3.659932100000333,-3.715,-20.687,-130.593,-27.498,26.32,-3.684,244.976,58.832,-20.078,-1.529,8.838,10.689,1.088,-12.061,17.053,21.086,1.717,-11.301,2.508,1.595,-84.229,2.563,-2.983,-13.962,-29.468,-11.501,13.789,-19.754,-103.825
3.6599903000001177,11.658,-17.08,-124.827,-21.835,8.363,0.418,277.518,61.335,-15.447,2.059,11.903,12.727,7.747,-1.803,13.962,22.602,9.4,-0.019,3.53,7.741,-82.095,6.147,1.118,-3.702,-35.586,-10.465,18.385,-18.197,-98.086
3.6768510000001697,11.134,-12.964,-112.407,-25.912,7.843,-1.632,310.029,57.175,-15.432,0.008,10.866,13.739,8.252,0.76,15.485,24.116,11.952,2.543,7.625,8.758,-79.964,10.239,8.802,-3.698,-38.624,-1.745,21.441,-10.494,-96.963
3.6769207000002098,-7.32,-16.537,-113.831,-21.787,17.569,-1.118,277.443,69.413,-16.953,-3.066,8.294,9.627,3.12,-5.9,17.007,22.555,1.694,-6.681,3.519,2.601,-83.47,5.106,1.621,-10.354,-23.729,-5.842,19.883,-13.558,-91.231
3.6902219000003242,-8.337,-22.668,-128.062,-19.716,10.379,-4.191,284.338,71.905,-16.424,-5.113,2.65,3.982,-0.469,-14.092,15.965,13.311,-5.992,-14.359,-5.706,-4.061,-94.657,-4.633,-4.016,-11.369,-35.488,-14.545,15.252,-19.18,-94.726
3.690288199999941,-4.743,-33.404,-135.619,-36.091,-6.538,-22.629,316.841,49.804,-25.117,-15.866,-8.623,-3.194,-9.69,-23.299,4.166,2.539,-8.035,-18.443,-13.385,-10.205,-105.321,-11.801,-5.549,-15.968,-67.728,-23.24,6.015,-26.845,-116.66
3.7050920000001497,-5.25,-37.469,-122.675,-38.616,-3.97,-26.193,308.84,47.705,-26.629,-17.899,-9.127,-2.166,-11.729,-21.226,-1.986,5.611,-6.49,-12.277,-11.835,-9.683,-101.63,-9.227,-8.105,-20.051,-56.902,-25.266,7.034,-32.966,-121.154
3.7051587999999356,6.026,-26.673,-114.868,-21.159,10.891,-7.724,276.256,70.199,-13.794,-7.123,1.641,6.033,-0.959,-13.521,7.75,14.827,-1.361,-5.093,-5.675,-4.55,-90.257,-3.583,-2.462,-17.469,-24.057,-19.093,13.174,-31.908,-106.176
3.7200458000002072,8.581,-25.622,-134.221,-22.675,6.27,-7.716,278.029,69.616,-16.342,-8.14,1.127,2.44,-4.032,-20.679,6.205,9.689,-5.97,-16.871,-11.305,-9.668,-91.704,-9.727,-5.021,-24.624,-34.792,-23.172,6.501,-32.901,-114.267
3.7201187999999092,-4.747,-39.429,-150.993,-36.484,-5.52,-20.004,298.243,55.202,-31.183,-16.841,-9.633,-7.808,-16.836,-27.831,-6.096,-2.104,-18.772,-29.662,-23.077,-18.88,-99.809,-19.963,-20.385,-34.333,-56.786,-33.395,-0.165,-37.479,-128.497
3.7360036000000036,-9.866,-37.34,-135.473,-37.472,-3.977,-15.885,281.551,59.246,-26.541,-13.238,-10.648,-2.165,-13.233,-19.094,-0.455,-0.053,-14.655,-18.873,-17.93,-15.275,-93.562,-13.796,-14.729,-21.491,-36.237,-23.628,6.495,-31.294,-112.487
3.7360717999999906,-6.27,-26.032,-112.796,-37.435,0.637,-15.357,314.057,57.137,-18.83,-8.614,-5.514,6.546,-4.51,-13.439,8.767,8.144,-1.32,-6.559,-3.568,-6.038,-84.247,0.563,3.216,-3.026,-14.684,-9.26,13.661,-22.041,-95.981
3.750590000000102,-6.263,-26.518,-115.244,-40.471,4.223,-23.026,346.531,42.223,-26.495,-14.241,-3.459,0.392,-4.506,-17.012,3.123,7.111,-2.856,-11.163,-7.15,-6.032,-88.261,0.05,-4.472,-8.146,-26.965,-13.861,12.622,-21.507,-108.18
3.7651220000002468,-5.232,-29.566,-133.572,-34.796,9.342,-20.954,313.909,44.742,-28.518,-17.301,-6.017,-2.682,-7.063,-16.483,4.144,3.518,-7.976,-17.812,-18.414,-12.174,-95.345,-11.733,-19.324,-21.971,-45.893,-23.581,9.536,-21.997,-123.441
3.7651820000000953,-6.252,-33.635,-137.537,-36.298,3.697,-22.47,281.319,51.358,-23.367,-15.234,-9.085,2.444,-7.568,-18.516,7.214,5.564,-7.455,-17.794,-14.297,-13.186,-95.762,-13.771,-16.743,-22.973,-49.946,-25.094,6.965,-26.074,-118.707
3.7801659000001564,-6.758,-37.187,-121.518,-44.971,-5.528,-25.521,309.215,51.306,-25.392,-13.682,-5.49,0.904,-7.048,-21.571,-2.527,6.071,-7.96,-14.19,-9.16,-9.075,-92.08,-6.585,-11.091,-17.827,-41.699,-19.434,8.495,-32.195,-102.707
3.7802255999999943,0.934,-28.441,-111.663,-38.266,-4.498,-11.663,276.63,66.112,-22.293,-10.082,0.151,-1.146,-6.529,-15.914,-5.086,4.015,-7.44,-15.201,-14.786,-8.553,-86.865,-4.017,-9.543,-15.76,-28.849,-13.779,12.073,-26.016,-96.456
3.7951418000002377,1.957,-26.875,-124.359,-30.03,-5.518,-9.09,276.866,71.681,-19.709,-13.146,-7.021,-2.169,-11.133,-15.386,-2.007,-0.087,-10.506,-23.895,-22.456,-16.229,-85.753,-12.722,-14.657,-22.404,-41.116,-21.45,7.45,-22.403,-107.118
3.7992325000000164,-10.852,-44.267,-133.456,-41.784,-14.222,-32.135,309.377,45.482,-34.547,-29.527,-21.359,-12.925,-22.905,-28.178,-11.227,-8.796,-20.23,-30.531,-29.606,-23.898,-91.815,-24.492,-24.376,-32.628,-73.35,-34.748,-3.316,-34.164,-116.233
3.81105800000023,-13.403,-46.272,-126.15,-44.816,-19.331,-41.837,303.944,36.215,-46.295,-38.206,-23.899,-20.597,-28.518,-35.835,-18.388,-12.886,-19.697,-29.988,-32.138,-24.386,-92.748,-23.955,-22.815,-30.034,-73.277,-30.615,-3.825,-39.765,-115.092
3.811135899999954,-1.607,-35.979,-123.975,-31.963,-21.873,-32.573,271.365,51.548,-41.126,-34.07,-21.314,-18.527,-27.977,-34.262,-18.369,-9.799,-18.141,-33.544,-29.544,-25.386,-90.094,-19.321,-18.181,-26.418,-40.416,-25.462,-0.235,-35.115,-120.1
3.825293000000329,-2.117,-40.042,-125.388,-33.468,-22.876,-30.492,271.094,54.058,-35.449,-29.425,-24.879,-17.997,-27.436,-33.715,-22.449,-11.326,-25.295,-36.585,-31.564,-27.923,-93.077,-24.937,-24.823,-35.101,-39.351,-34.145,-3.821,-34.055,-127.152
3.8253640000002633,-10.312,-36.928,-111.43,-37.021,-17.217,-24.313,247.769,61.688,-30.291,-23.76,-21.268,-13.88,-22.798,-28.046,-21.915,-9.266,-20.659,-29.376,-27.946,-20.722,-89.398,-23.375,-23.261,-29.43,-58.779,-28.988,-2.793,-28.386,-109.607
3.840294900000117,-4.154,-19.985,-101.072,-24.688,-12.077,-16.604,250.595,71.36,-24.625,-18.613,-12.537,-5.669,-16.628,-22.383,-13.696,1.502,-11.417,-22.686,-14.598,-12.505,-76.501,-9.007,-8.893,-9.933,-44.888,-12.053,7.456,-17.086,-82.345
3.8403579999999238,5.072,-18.428,-108.144,-26.713,-12.577,-25.297,283.132,49.772,-32.285,-23.205,-13.549,-7.201,-17.123,-25.434,-4.973,5.599,-17.04,-24.201,-12.022,-13.517,-71.302,-4.899,-6.835,-7.874,-25.888,-12.041,11.035,-15.02,-80.213
3.8552654000000075,0.456,-25.07,-112.646,-37.957,-4.368,-28.346,282.337,43.575,-33.277,-20.108,-11.999,-5.144,-15.057,-21.31,4.766,5.593,-16.511,-21.615,-16.621,-11.454,-69.693,-6.944,-9.902,-11.964,-32.522,-13.566,6.413,-16.03,-96.527
3.8594247000000905,-4.155,-25.557,-112.021,-26.136,7.42,-12.948,249.779,73.245,-19.924,-9.33,-1.741,3.57,-8.894,-14.117,6.298,8.149,-7.785,-19.032,-12.506,-7.857,-65.013,-4.887,-7.331,-9.903,-40.686,-10.478,3.845,-18.063,-108.726
3.871387700000014,-2.614,-29.63,-118.057,-21.499,6.388,-15.497,265.923,62.926,-28.613,-19.567,-6.862,-5.655,-15.033,-23.836,-2.93,3.018,-15.462,-24.136,-18.128,-16.046,-67.509,-14.104,-12.446,-19.627,-46.793,-21.739,1.28,-31.365,-117.326
3.8714529000003495,-3.124,-32.674,-116.914,-37.871,-1.303,-30.338,298.445,30.587,-46.003,-33.892,-18.126,-15.895,-24.752,-30.985,-6.001,-2.108,-22.107,-27.185,-26.307,-20.64,-73.59,-19.213,-16.532,-23.706,-54.431,-25.815,0.254,-37.993,-111.061
3.8843560000000252,-0.559,-20.858,-110.137,-32.71,-2.327,-18.525,265.871,52.586,-29.051,-15.927,-3.763,-3.584,-13.456,-17.634,-1.384,6.603,-10.302,-18.961,-16.547,-10.374,-67.881,-5.874,-7.807,-8.313,-43.106,-9.908,5.377,-19.0,-89.433
3.8844216000002234,3.54,-11.616,-113.613,-14.747,3.823,4.035,233.33,85.321,-4.431,6.63,12.122,4.616,2.951,-9.419,0.667,15.306,-3.631,-10.233,-8.334,-4.728,-57.567,-0.745,-4.725,-7.792,-23.595,-4.775,8.957,-4.637,-88.319
