Timestamp,Cz,Fz,Fp1,F3,C1,C3,T7,C5,CP5,CP3,CP1,P1,P3,O1,CPz,Pz,Oz,O2,P4,P2,CP2,CP4,CP6,C6,T8,C4,C2,F4,Fp2
0.0,-42.763,-12.086,-111.129,-27.186,140.877,-82.028,-10.724,-22.044,-26.056,-18.64,-38.351,-36.189,-26.384,-10.668,-62.414,-6.114,11.473,-45.201,-25.007,-52.438,-45.062,-33.831,9.545,-23.274,-23.283,-30.01,102.829,-1.886,-78.486
6.450000000768341e-05,-42.207,-13.611,-122.288,-22.549,143.298,-83.482,-8.664,-17.411,-21.932,-14.523,-31.653,-29.493,-21.234,-6.046,-58.765,-2.522,14.536,-41.057,-23.445,-47.774,-39.894,-33.797,11.585,-19.665,-23.772,-24.857,98.628,0.677,-84.043
0.015078500000072381,-43.702,-15.647,-130.363,-23.038,147.253,-81.862,-20.951,-14.832,-25.496,-14.509,-29.059,-30.488,-22.238,-4.503,-54.608,-3.032,14.009,-39.992,-25.471,-46.702,-35.243,-29.665,11.573,-22.206,-29.383,-28.931,96.48,-5.471,-92.668
0.015144899999995687,-36.998,-15.119,-131.257,-27.114,146.594,-79.731,-17.344,-17.379,-27.52,-16.031,-30.567,-31.994,-25.289,-5.523,-51.992,-0.467,16.044,-44.05,-22.884,-45.118,-25.987,-22.975,13.611,-19.623,-27.817,-27.365,100.994,-9.564,-95.137
0.030411700000058772,-25.691,-3.321,-127.027,-15.816,159.767,-75.04,-8.617,-9.677,-23.906,-9.355,-24.389,-22.229,-20.141,-2.444,-46.817,9.267,17.053,-36.834,-12.615,-37.389,-13.153,-11.169,22.307,-7.308,-13.957,-15.042,108.578,3.766,-87.869
0.03047259999993912,-21.567,4.367,-127.925,-5.554,177.026,-74.965,-15.269,-5.569,-27.468,-9.858,-20.778,-21.694,-20.121,-6.028,-48.307,11.819,12.937,-35.26,-13.115,-38.376,-6.48,-8.084,24.846,-2.69,-10.869,-10.416,107.957,10.422,-86.244
0.045017099999768106,-17.959,4.363,-129.334,-6.061,178.386,-78.989,-16.278,-11.711,-30.002,-18.045,-25.368,-24.746,-24.199,-8.583,-49.795,10.783,15.486,-40.348,-16.688,-42.948,-3.4,-10.637,25.846,-2.175,-13.932,-10.406,105.287,7.338,-85.646
0.04673099999990882,-12.306,11.531,-119.983,4.192,179.232,-76.348,-4.991,-2.99,-21.263,-11.367,-19.708,-14.988,-18.539,-0.378,-41.549,18.969,23.155,-26.475,-6.937,-34.196,3.776,-1.405,36.066,7.561,1.451,-3.223,112.354,18.089,-73.777
0.06015669999987949,-12.806,17.667,-107.568,14.434,188.274,-70.637,1.162,8.796,-17.656,-2.647,-10.979,-6.263,-9.812,4.234,-40.482,28.172,23.644,-15.178,0.242,-30.576,9.92,4.232,42.178,12.677,14.769,0.366,116.34,30.366,-68.58
0.0751709999999548,-16.891,9.453,-113.608,4.685,187.061,-70.054,-1.913,0.591,-21.737,-5.718,-14.554,-9.843,-10.826,-0.894,-47.102,25.07,19.522,-29.507,-6.418,-38.23,8.886,-6.531,32.914,3.443,2.972,-5.269,111.101,21.114,-82.344
0.07523319999972955,-16.874,3.295,-126.814,-3.516,180.727,-68.959,-8.059,-2.996,-17.616,-0.589,-13.515,-9.321,-10.816,-0.893,-42.444,20.946,16.429,-36.65,-12.047,-37.679,6.827,-9.598,27.246,-3.733,-7.277,-8.85,109.965,7.773,-92.508
0.09011650000002192,-15.32,8.927,-127.2,2.635,186.181,-63.255,-4.465,10.327,-9.914,11.195,-3.767,-1.627,-3.632,2.694,-38.303,26.048,19.998,-27.904,-10.498,-34.055,11.944,-5.49,29.268,-4.754,-5.221,-8.329,109.343,9.814,-89.854
0.0901797000001352,-19.404,7.894,-127.585,0.583,186.507,-63.704,3.224,10.317,-10.417,8.11,-6.325,-4.187,-2.604,0.642,-45.437,25.51,21.003,-29.926,-12.025,-39.145,12.956,-12.145,25.14,-9.872,-15.462,-12.419,99.5,12.366,-93.862
0.10515690000011091,-28.093,-0.823,-139.24,-8.639,174.538,-69.788,-2.927,1.085,-15.529,0.417,-17.077,-13.405,-10.286,-1.92,-46.416,15.75,11.248,-39.63,-18.16,-42.179,8.845,-17.768,18.455,-16.522,-26.205,-18.555,80.445,5.694,-105.552
0.10521569999991698,-31.139,-4.409,-144.224,-10.167,167.191,-74.841,-10.609,1.596,-19.612,-4.707,-20.646,-16.465,-13.862,-2.943,-42.784,10.612,7.651,-39.59,-22.753,-44.186,8.836,-20.312,15.875,-20.092,-20.543,-19.561,48.089,-0.46,-109.544
0.12020750000010594,-32.133,-6.966,-143.055,-15.793,163.438,-82.963,-11.11,-6.09,-27.277,-16.997,-28.31,-22.084,-17.947,-9.087,-50.938,3.429,8.668,-41.087,-25.292,-50.29,3.192,-29.513,7.662,-25.707,-21.035,-23.639,15.766,-4.045,-111.484
0.12027230000012423,-34.662,-13.619,-146.498,-23.461,157.639,-88.516,-19.296,-21.453,-36.471,-25.177,-36.479,-34.357,-25.613,-15.738,-56.01,-4.772,3.536,-43.608,-26.291,-49.215,-3.471,-31.021,4.068,-26.706,-26.137,-28.227,5.504,-7.115,-114.446
0.13518530000010287,-20.795,-3.359,-137.13,-11.143,166.19,-77.156,-17.74,-13.235,-30.287,-16.443,-24.659,-25.614,-20.977,-8.55,-42.634,10.602,10.705,-34.343,-15.506,-36.87,11.901,-10.497,26.093,-9.773,-7.668,-13.854,33.675,4.163,-102.549
0.1352591999998367,-1.819,18.161,-113.427,7.312,182.418,-63.247,4.819,4.197,-15.4,-6.18,-6.704,-4.583,-10.71,5.291,-29.784,32.109,24.526,-22.013,0.391,-26.587,27.771,6.932,44.51,10.216,16.418,5.628,46.449,23.114,-83.491
0.15131609999980355,-8.989,14.045,-110.752,6.28,177.112,-67.794,5.327,-3.492,-19.995,-8.735,-12.333,-11.751,-16.335,3.748,-34.877,23.367,17.329,-28.138,-5.757,-29.634,17.497,0.265,31.146,4.058,12.303,-1.55,35.644,19.505,-87.506
0.15138200000001234,-23.325,-1.851,-125.498,0.126,165.665,-73.874,-12.609,-17.321,-31.758,-12.825,-21.542,-26.084,-21.441,-9.575,-42.527,7.975,5.017,-40.406,-22.658,-39.851,5.184,-13.055,17.282,-14.389,-3.078,-18.455,33.559,5.141,-102.788
0.16523400000005495,-15.617,4.299,-126.397,4.736,173.696,-66.116,-7.986,-9.107,-24.042,-7.177,-11.786,-13.762,-12.711,-8.029,-39.41,15.139,10.647,-35.242,-19.049,-39.299,7.228,-12.018,23.925,-13.862,-6.149,-15.362,41.21,7.697,-101.66
0.1653046000001268,-10.478,8.393,-125.246,3.707,178.133,-66.562,-3.367,-4.999,-17.87,-2.047,-6.139,-5.552,-9.624,1.201,-36.297,21.272,15.247,-25.473,-11.345,-33.112,2.61,-10.469,21.34,-14.36,-9.217,-11.761,39.632,8.714,-100.022
0.1803697000000284,-27.886,-8.522,-143.052,-15.764,160.024,-79.303,-21.294,-22.925,-31.172,-8.705,-20.478,-18.866,-16.274,-2.387,-43.945,9.98,10.109,-30.058,-23.117,-40.251,-13.274,-21.217,3.9,-32.789,-22.015,-24.045,29.346,-8.201,-117.34
0.1804652000000715,-40.666,-21.321,-155.717,-31.63,152.179,-84.859,-28.445,-35.71,-37.801,-20.991,-30.703,-27.044,-19.844,-8.532,-53.123,1.773,7.537,-34.639,-30.266,-48.408,-25.044,-26.831,1.847,-39.929,-27.629,-29.144,22.145,-20.488,-130.543
0.19539369999984046,-38.576,-22.324,-151.462,-27.5,166.372,-84.262,-19.708,-27.989,-31.103,-23.02,-26.574,-24.968,-20.337,-8.011,-55.119,5.357,5.993,-31.018,-21.014,-42.212,-23.482,-17.583,14.652,-27.081,-19.916,-25.016,22.123,-20.98,-125.802
0.1955153999997492,-33.415,-20.765,-149.774,-17.226,169.792,-83.665,-10.979,-16.178,-27.999,-17.874,-22.961,-22.382,-17.755,-8.515,-49.429,12.524,4.45,-28.938,-15.358,-36.022,-17.823,-8.344,21.81,-19.882,-8.113,-21.917,32.859,-18.397,-123.626
0.21028949999981705,-25.184,-11.01,-146.038,-9.525,164.499,-76.409,-2.259,-8.99,-25.921,-11.708,-16.791,-15.699,-10.053,-9.019,-41.695,18.147,9.056,-26.348,-11.757,-34.961,-16.268,-1.163,27.936,-14.226,1.629,-10.112,65.614,-7.621,-124.015
0.21036559999993187,-16.45,1.808,-132.572,-2.343,171.507,-71.21,-3.793,-2.833,-20.26,-7.085,-7.553,-9.023,-6.969,-3.375,-37.554,22.739,14.17,-23.247,-2.011,-29.291,-18.301,7.035,35.593,-1.404,6.238,2.193,98.336,5.195,-112.62
0.22525339999992866,-20.02,0.782,-127.316,-4.39,174.409,-75.75,-13.011,-4.367,-20.752,-7.591,-10.619,-10.039,-11.06,-1.835,-39.054,25.791,13.131,-25.273,-0.472,-29.774,-24.43,6.004,34.02,-2.94,1.109,-2.42,127.439,3.14,-107.385
0.22532139999975698,-26.66,-7.416,-136.411,-13.094,170.136,-78.235,-10.436,-12.047,-23.805,-10.145,-18.293,-13.103,-11.561,-5.419,-45.675,22.691,9.02,-27.81,-9.181,-37.429,-36.701,-1.175,24.765,-17.794,-9.139,-9.589,115.529,-8.646,-122.647
0.240270899999814,-24.071,-4.334,-138.323,-8.983,180.724,-74.571,-4.278,-9.474,-19.683,-4.499,-10.078,-11.04,-6.427,-3.364,-50.24,21.131,8.498,-26.245,-13.27,-37.903,-41.788,-3.735,20.641,-19.313,-11.179,-8.555,104.655,-10.686,-129.696
0.255503299999873,-23.535,1.305,-128.964,0.248,190.277,-72.959,-7.86,-0.755,-14.54,0.116,-3.408,-9.493,-4.371,-0.287,-48.14,25.209,10.027,-25.194,-12.232,-38.378,-44.308,-7.83,19.084,-16.732,-7.582,-12.645,114.796,-5.04,-119.833
0.2555735000000823,-35.807,-8.43,-129.347,-9.486,172.669,-79.034,-8.877,-6.902,-22.21,-9.618,-18.773,-18.705,-12.564,-7.459,-50.141,13.913,3.869,-31.829,-20.929,-48.586,-60.657,-18.068,12.405,-29.523,-12.697,-23.903,110.071,-12.72,-122.274
0.27119589999983873,-45.505,-19.692,-138.951,-19.723,155.59,-86.64,-6.819,-21.24,-33.971,-19.342,-30.025,-30.469,-21.26,-16.161,-60.85,-3.52,-5.356,-38.969,-33.716,-56.222,-73.916,-25.735,6.757,-38.203,-21.394,-27.466,95.104,-27.564,-133.935
0.2712581999999202,-36.75,-11.476,-136.251,-6.383,163.119,-80.405,-9.886,-15.583,-28.302,-14.2,-20.774,-26.852,-15.604,-13.071,-56.178,3.144,-0.74,-34.32,-29.071,-48.993,-66.67,-19.049,11.361,-26.382,-14.2,-16.68,106.791,-20.364,-126.117
0.28529230000003736,-26.98,-1.218,-126.381,5.406,169.103,-70.079,-8.339,-0.198,-16.49,-8.55,-12.556,-16.579,-8.416,-2.812,-39.216,17.998,7.97,-24.551,-15.21,-39.21,-62.505,-8.784,18.522,-17.646,-2.915,-7.441,122.054,-6.512,-115.232
0.28535580000016125,-37.199,-9.414,-128.816,-4.333,162.274,-76.669,-4.745,-6.346,-24.158,-14.689,-22.79,-20.149,-15.067,-3.833,-43.275,10.807,1.302,-31.187,-21.343,-43.782,-75.763,-13.898,13.38,-26.338,-7.523,-16.656,109.124,-16.239,-120.24
0.3003119999998489,-46.895,-18.626,-128.687,-8.94,160.063,-86.838,-7.814,-22.221,-37.967,-24.408,-34.038,-29.35,-22.225,-11.514,-60.138,1.063,-4.335,-40.89,-33.617,-54.497,-86.958,-25.667,5.682,-32.971,-16.224,-27.397,98.257,-26.981,-121.657
0.3020341000001281,-37.627,-13.996,-122.923,-2.271,165.538,-84.19,-9.343,-17.588,-32.806,-25.409,-30.93,-28.809,-19.641,-10.99,-59.053,3.623,-0.232,-35.726,-28.46,-52.393,-87.895,-20.006,8.238,-30.377,-13.134,-21.735,106.355,-19.27,-119.486
0.315386799999942,-32.979,-12.446,-132.022,-12.002,165.885,-84.106,-8.821,-6.3,-23.039,-18.211,-24.751,-24.681,-18.597,-7.905,-48.748,5.156,0.28,-31.591,-22.796,-45.68,-87.807,-13.838,11.816,-29.322,-10.56,-19.151,110.347,-18.226,-128.075
0.3154546999999184,-36.019,-14.482,-137.525,-23.261,168.793,-84.534,-10.862,-6.293,-26.09,-11.533,-22.677,-24.657,-19.09,-10.971,-46.138,5.664,1.817,-34.121,-26.359,-48.196,-88.744,-19.972,10.78,-27.755,-9.012,-22.718,109.212,-24.355,-129.997
0.3303643999997803,-27.786,-4.222,-123.043,-6.332,181.944,-75.74,-9.314,-8.849,-26.064,-12.546,-18.044,-23.095,-17.534,-9.424,-45.579,10.269,6.938,-28.964,-23.259,-48.148,-89.168,-16.366,16.917,-21.068,-0.294,-17.06,114.226,-16.134,-117.059
0.3304284999999254,-23.148,1.418,-120.358,4.945,190.471,-74.64,-4.181,-12.426,-23.476,-14.582,-15.976,-23.072,-20.591,-5.828,-46.558,8.722,4.882,-25.861,-20.674,-46.563,-94.202,-9.69,20.998,-18.997,1.756,-13.969,114.112,-9.458,-113.868
0.3453494000000319,-31.322,-8.317,-128.435,-9.404,184.133,-82.25,-5.202,-16.0,-30.113,-15.592,-22.62,-27.147,-25.693,-12.994,-47.024,1.54,-1.783,-33.52,-29.363,-53.176,-102.304,-19.414,12.78,-24.102,-7.468,-18.566,109.387,-17.133,-121.439
0.3454139000000396,-27.192,-7.284,-121.134,-10.419,182.412,-78.581,-5.709,-8.811,-32.132,-15.577,-20.549,-25.583,-22.081,-18.105,-42.366,1.539,-2.293,-36.048,-30.871,-53.636,-99.64,-20.419,9.181,-23.053,-5.411,-14.449,113.376,-15.579,-119.268
0.36038379999990866,-19.992,0.408,-123.575,0.862,187.865,-73.892,-2.117,-3.68,-26.976,-14.024,-14.38,-21.972,-20.01,-15.525,-42.324,5.124,-2.803,-32.426,-24.692,-46.922,-96.979,-10.153,16.857,-17.907,1.254,-8.799,117.361,-8.391,-117.1
0.36226859999987937,-31.243,-9.327,-141.894,-13.484,179.993,-83.04,-6.213,-14.434,-33.609,-17.596,-27.174,-31.171,-27.162,-17.559,-50.479,-0.005,-5.874,-36.492,-28.766,-53.535,-108.665,-17.827,13.766,-24.549,-8.993,-15.963,108.535,-21.703,-127.229
0.3754033000000163,-40.946,-18.539,-140.728,-27.302,168.542,-91.666,-12.355,-23.641,-40.748,-25.776,-36.88,-39.337,-30.209,-19.59,-53.502,-7.689,-4.844,-36.455,-33.348,-59.117,-115.217,-25.494,6.58,-33.233,-17.181,-23.119,96.643,-37.562,-133.761
0.3754687999999078,-38.343,-15.959,-129.828,-17.541,175.546,-91.062,-9.781,-20.544,-34.56,-25.75,-28.134,-31.613,-23.006,-10.861,-51.399,-4.608,1.309,-26.685,-27.167,-50.349,-108.954,-17.784,10.159,-28.589,-6.405,-21.559,84.763,-32.402,-130.041
0.3904449999999997,-42.916,-19.529,-132.772,-15.987,181.518,-93.02,-7.722,-16.937,-35.55,-24.187,-30.668,-30.557,-24.008,-7.264,-55.446,-2.042,4.381,-25.122,-25.09,-48.249,-112.943,-19.815,11.686,-25.999,-5.374,-22.562,73.408,-29.808,-127.862
0.39051259999996546,-51.07,-26.17,-124.443,-22.631,172.115,-98.05,-14.887,-17.433,-43.199,-31.848,-41.395,-40.772,-31.669,-13.917,-60.002,-9.212,0.791,-29.195,-32.238,-56.398,-124.101,-28.505,4.502,-33.658,-18.177,-28.175,75.896,-38.487,-125.173
0.40582610000001296,-48.969,-22.557,-103.826,-11.337,173.48,-94.366,-18.458,-16.391,-37.008,-28.23,-33.157,-34.584,-26.001,-14.416,-56.355,-7.153,-1.772,-27.116,-32.205,-55.829,-121.928,-22.841,6.035,-31.575,-13.548,-27.122,90.677,-32.301,-112.752
0.4058927999999469,-41.236,-15.362,-92.964,-2.617,185.602,-84.025,-14.341,-11.251,-26.725,-14.369,-22.878,-21.742,-15.729,-9.79,-50.151,3.1,0.792,-27.089,-26.538,-51.675,-116.683,-18.207,9.615,-24.883,-2.263,-19.41,92.123,-20.486,-98.807
0.420518599999923,-36.584,-10.224,-83.137,-9.787,187.977,-82.917,-11.253,-8.166,-26.186,-13.843,-21.83,-23.257,-15.714,-8.244,-48.564,2.584,1.303,-30.648,-26.511,-51.623,-116.054,-19.214,7.556,-25.883,-7.384,-15.292,84.859,-20.465,-91.024
0.42225749999988693,-29.887,-5.091,-75.369,-6.191,193.937,-83.858,-11.241,-7.133,-21.549,-14.341,-14.124,-20.672,-13.136,-4.137,-45.954,6.68,2.327,-26.007,-21.874,-47.473,-108.765,-11.51,15.233,-18.173,-6.864,-12.203,96.557,-15.322,-84.785
0.4355764000001727,-23.197,-1.499,-72.22,4.062,205.526,-79.676,-5.595,-3.54,-16.916,-7.154,-7.962,-8.868,-7.488,0.478,-40.273,19.994,7.96,-17.784,-12.118,-40.253,-103.534,-2.789,24.952,-4.322,4.413,-3.994,116.441,-7.109,-77.528
0.4505629999998746,-27.785,-3.547,-50.118,1.496,199.685,-80.109,-2.515,-5.073,-24.072,-12.27,-16.663,-17.056,-13.628,-6.182,-44.331,12.801,4.366,-23.914,-17.741,-45.336,-112.652,-9.446,16.217,-12.515,-3.788,-5.015,110.689,-16.836,-68.741
0.45063040000013643,-38.516,-11.74,-20.867,-2.604,189.24,-84.639,-9.685,-14.802,-31.22,-21.992,-25.356,-31.384,-20.274,-12.836,-52.996,-2.581,-5.373,-34.649,-30.531,-56.049,-123.297,-19.683,7.492,-27.359,-20.691,-18.33,96.233,-28.09,-63.549
0.46554409999998825,-38.989,-14.29,-23.92,3.547,191.612,-79.432,-11.212,-11.201,-29.14,-16.847,-22.257,-24.18,-15.131,-6.676,-47.82,7.156,-2.293,-33.077,-26.402,-52.407,-118.563,-17.102,11.583,-24.258,-18.108,-19.848,104.334,-28.574,-71.683
0.465611699999954,-34.34,-14.276,-44.9,7.129,193.982,-74.741,-1.98,0.081,-27.574,-14.268,-20.185,-15.959,-12.042,-3.595,-43.161,14.833,1.295,-28.945,-20.228,-43.645,-114.859,-12.474,10.547,-20.135,-13.992,-13.169,113.964,-36.743,-92.616
0.4805771999999706,-43.527,-25.532,-58.176,0.974,186.615,-79.277,1.608,-5.555,-30.62,-22.451,-27.85,-25.677,-16.641,-13.326,-50.803,-0.551,-7.416,-36.601,-29.43,-53.335,-126.015,-21.171,0.29,-31.386,-23.712,-22.889,103.091,-55.149,-114.552
0.480639699999756,-56.803,-39.852,-75.024,-5.174,177.72,-81.76,0.07,-14.258,-31.102,-25.502,-34.994,-34.873,-20.21,-19.46,-54.338,-12.846,-11.507,-43.737,-38.622,-64.553,-135.622,-37.031,-8.419,-46.724,-32.397,-39.26,92.742,-73.537,-138.516
0.4956219999999121,-59.82,-44.935,-90.83,-5.682,170.37,-80.141,-0.955,-9.121,-30.558,-23.428,-36.496,-37.399,-23.776,-18.416,-55.308,-17.444,-9.958,-44.718,-44.731,-65.001,-139.073,-44.679,-17.12,-55.386,-39.025,-46.393,92.137,-86.271,-161.944
0.495694100000037,-61.81,-45.914,-92.788,-4.651,169.687,-83.135,-6.589,-7.063,-35.138,-27.503,-38.509,-43.51,-26.826,-20.447,-65.499,-26.648,-13.534,-49.796,-53.908,-72.62,-147.131,-50.269,-26.837,-57.38,-47.183,-50.958,86.922,-87.722,-171.516
0.5109183999998095,-65.334,-45.356,-94.745,-3.11,178.226,-86.638,-9.144,-10.129,-42.276,-30.549,-40.007,-46.028,-25.263,-20.938,-65.946,-28.158,-17.619,-52.82,-56.415,-79.208,-149.545,-54.317,-28.347,-57.323,-49.697,-52.956,82.224,-85.585,-170.32
0.5109813999997641,-60.146,-40.7,-101.822,-1.057,183.171,-86.039,-1.963,-12.168,-40.184,-28.469,-35.356,-42.396,-25.237,-18.868,-54.609,-23.519,-15.552,-49.693,-53.797,-71.444,-142.736,-51.189,-25.757,-57.265,-48.11,-49.829,87.777,-86.012,-172.199
0.5262637999999242,-53.938,-39.635,-102.233,-6.179,180.427,-85.44,3.675,-19.329,-37.07,-29.978,-34.809,-41.841,-29.311,-18.849,-53.018,-22.471,-14.512,-52.718,-52.719,-69.323,-139.519,-48.577,-25.219,-54.647,-48.062,-46.705,92.812,-78.753,-172.026
0.5263289999998051,-55.933,-40.107,-105.205,-14.37,175.635,-85.355,-1.452,-23.92,-44.205,-35.583,-38.36,-43.336,-30.818,-20.368,-57.575,-20.399,-17.059,-55.226,-49.592,-73.352,-138.867,-47.503,-21.608,-48.444,-43.916,-43.073,92.207,-74.064,-169.293
0.5406044999999722,-55.365,-35.969,-112.272,-9.233,173.411,-84.757,-8.623,-20.31,-47.747,-35.035,-37.297,-41.243,-28.226,-21.372,-55.469,-19.354,-14.481,-44.925,-42.37,-66.619,-133.093,-40.796,-12.365,-41.224,-35.675,-39.443,94.677,-75.527,-168.611
0.5406640000001062,-49.162,-31.322,-106.012,-0.002,177.336,-81.599,-8.102,-18.24,-38.478,-29.877,-33.674,-36.591,-25.124,-20.326,-50.29,-16.261,-4.732,-36.683,-36.693,-60.405,-130.398,-34.095,-4.155,-32.985,-27.442,-37.867,99.193,-67.766,-163.319
0.5557095999997728,-49.625,-31.803,-99.758,-5.637,180.744,-80.493,-3.483,-16.173,-33.829,-30.36,-33.64,-36.555,-25.099,-16.207,-48.703,-10.609,-1.141,-39.72,-35.631,-63.93,-131.805,-35.598,-4.151,-32.44,-24.341,-37.829,98.069,-62.576,-161.107
0.5557828999999401,-55.723,-33.821,-110.417,-13.316,174.416,-86.047,-1.943,-12.571,-38.406,-35.452,-41.803,-42.666,-31.221,-18.752,-55.314,-16.746,-7.8,-43.267,-39.694,-67.453,-133.21,-42.735,-12.344,-39.068,-31.489,-42.402,92.335,-75.321,-170.167
0.5707754000000023,-55.667,-32.762,-117.991,-8.692,167.069,-88.011,1.133,-11.533,-38.88,-35.417,-46.372,-45.185,-32.215,-23.344,-57.82,-26.976,-7.793,-41.687,-40.679,-70.971,-133.077,-46.278,-15.918,-35.955,-35.556,-46.97,90.194,-78.832,-172.046
0.5708432999999786,-45.878,-22.483,-108.651,3.612,178.173,-75.115,8.304,-4.35,-28.594,-24.623,-34.543,-38.992,-24.498,-15.636,-46.492,-18.752,1.437,-36.522,-35.003,-67.826,-125.771,-38.035,-3.606,-22.599,-23.225,-36.165,98.301,-60.822,-160.091
0.5857215999999426,-34.561,-11.702,-97.784,14.879,194.901,-62.744,15.468,11.536,-17.295,-11.791,-20.164,-30.244,-19.863,-6.399,-39.785,-7.975,7.583,-28.288,-27.796,-59.562,-115.912,-23.652,8.18,-9.769,-8.345,-21.784,109.473,-46.929,-149.685
0.5857803999997486,-37.6,-16.814,-98.711,13.327,192.145,-66.268,19.039,14.599,-16.766,-11.779,-22.705,-26.627,-20.867,-11.004,-45.893,-8.991,6.551,-28.26,-28.793,-62.064,-118.357,-24.141,2.024,-8.222,-8.849,-26.373,108.339,-48.931,-148.511
0.6007439999998496,-53.444,-34.728,-112.957,-4.617,179.145,-77.985,9.798,-0.273,-28.532,-24.575,-32.928,-33.261,-25.457,-18.165,-50.458,-17.692,-1.653,-38.99,-42.596,-72.76,-131.047,-42.047,-13.347,-25.12,-25.746,-43.253,94.398,-64.251,-160.145
0.6008263999997325,-62.1,-42.89,-131.287,-19.981,172.818,-88.153,-6.093,-15.642,-40.799,-34.284,-39.043,-46.035,-32.604,-19.171,-55.531,-29.457,-13.434,-50.222,-54.849,-78.323,-136.039,-52.252,-24.604,-41.488,-43.139,-50.894,85.082,-81.606,-178.941
0.6158110000001216,-59.477,-41.822,-135.767,-20.474,169.059,-89.089,-3.525,-16.651,-39.733,-30.664,-43.103,-44.964,-29.498,-19.152,-61.111,-31.989,-11.884,-52.221,-52.232,-77.732,-132.317,-49.125,-26.117,-39.398,-44.633,-48.282,86.534,-84.086,-179.786
0.6158771000000343,-61.979,-48.44,-129.995,-21.478,165.304,-85.414,5.7,-11.511,-34.57,-26.535,-42.547,-34.673,-18.71,-13.498,-59.0,-24.785,-1.626,-50.12,-46.545,-74.58,-128.086,-48.052,-22.504,-38.334,-39.465,-47.721,89.009,-85.026,-172.946
0.6307956999999078,-71.651,-60.687,-132.427,-30.166,161.552,-91.989,-8.138,-20.209,-42.22,-35.73,-45.066,-40.274,-23.302,-10.923,-58.941,-27.834,-4.186,-50.07,-48.035,-75.531,-131.032,-53.127,-24.531,-47.517,-49.159,-52.797,82.26,-98.773,-184.044
0.6308610999999473,-74.653,-60.114,-134.344,-29.623,159.854,-99.069,-20.938,-30.435,-51.912,-42.866,-52.706,-50.48,-31.988,-17.572,-64.518,-32.929,-6.743,-47.97,-49.012,-78.017,-137.048,-53.586,-27.068,-45.42,-55.77,-53.256,74.493,-101.236,-190.52
0.6468359999998938,-64.332,-47.759,-122.426,-15.761,171.989,-89.748,-7.085,-20.158,-44.688,-33.602,-46.505,-41.208,-24.783,-12.431,-61.892,-22.65,6.072,-39.725,-40.254,-71.278,-129.227,-44.311,-16.283,-32.567,-41.37,-46.031,81.591,-83.204,-173.936
0.6608167999997931,-51.972,-37.465,-108.472,-4.987,192.822,-76.851,6.242,-5.281,-29.786,-22.81,-27.503,-25.285,-14.0,2.438,-51.584,-10.332,17.336,-35.075,-26.893,-61.986,-111.679,-30.946,-3.459,-22.288,-27.496,-39.325,94.317,-73.387,-158.393
0.6608817999999701,-46.797,-35.378,-104.265,0.653,204.412,-72.163,8.285,0.36,-23.096,-16.127,-18.254,-22.186,-11.425,2.436,-44.872,-3.662,17.319,-32.991,-20.719,-58.85,-104.395,-23.231,-0.381,-13.045,-24.907,-33.65,94.735,-72.801,-156.697
0.6758518999999978,-45.213,-32.269,-107.747,1.677,207.794,-71.067,13.913,4.458,-22.049,-9.963,-19.773,-22.676,-8.852,-1.665,-45.339,0.441,17.302,-27.834,-25.309,-57.254,-105.315,-24.232,0.131,-13.544,-22.833,-28.493,91.567,-68.118,-159.615
0.6777059000000918,-47.73,-31.725,-113.274,-3.96,209.123,-73.557,13.386,2.404,-23.564,-16.613,-23.852,-26.24,-11.404,-1.663,-51.954,-9.806,10.624,-31.393,-32.968,-64.369,-108.284,-30.356,-3.455,-21.727,-25.884,-32.563,90.963,-67.537,-162.529
0.6908893999998327,-53.83,-33.742,-109.062,-0.37,209.938,-75.02,3.127,-1.185,-26.102,-24.793,-27.414,-33.386,-17.028,-8.322,-55.488,-23.116,0.88,-42.12,-38.058,-76.088,-116.885,-38.01,-12.161,-23.242,-36.616,-39.703,85.236,-67.47,-161.342
0.6909554999997454,-50.702,-24.999,-97.683,17.562,222.536,-67.261,3.636,13.161,-19.416,-14.522,-22.264,-30.278,-13.425,-10.363,-49.285,-18.995,5.49,-41.053,-34.434,-69.864,-116.768,-37.46,-12.661,-23.219,-36.068,-38.639,84.639,-54.082,-156.569
0.7059026000001722,-41.942,-13.703,-100.146,23.692,237.683,-61.558,14.391,21.857,-9.15,-4.774,-14.557,-20.514,-5.727,-3.18,-46.674,-11.291,12.144,-33.84,-25.178,-60.573,-107.429,-28.201,-5.988,-21.659,-28.347,-33.477,89.165,-43.782,-155.901
0.7059761000000435,-40.876,-16.251,-109.268,13.422,233.859,-63.033,19.499,8.515,-10.165,-9.892,-14.542,-21.006,-7.258,-6.251,-49.189,-14.354,5.472,-36.367,-21.054,-65.123,-103.736,-23.049,-4.445,-13.44,-29.343,-31.394,88.051,-43.226,-157.794
0.7208219999997709,-40.322,-17.772,-103.523,10.335,224.916,-62.97,21.529,4.408,-13.229,-12.444,-15.04,-24.571,-8.788,-13.417,-45.042,-14.852,4.442,-37.868,-21.033,-63.008,-99.021,-22.514,-2.904,-11.378,-31.363,-28.801,89.5,-34.986,-153.538
0.7209076999997706,-38.233,-10.069,-96.76,11.861,229.302,-60.858,21.508,9.527,-10.142,-9.358,-15.025,-21.985,-4.681,-7.256,-42.435,-13.3,12.122,-33.732,-17.426,-55.773,-93.287,-21.979,0.173,-14.44,-26.209,-27.235,94.534,-26.242,-146.724
0.7348871999997755,-42.293,-12.109,-103.835,6.726,230.609,-62.334,16.363,0.808,-14.23,-12.422,-23.719,-24.525,-4.676,-2.125,-53.151,-21.996,13.135,-35.235,-19.97,-61.865,-101.391,-25.031,-5.975,-12.377,-25.158,-30.282,85.218,-28.777,-147.09
0.736637200000132,-43.275,-12.609,-105.268,4.67,227.817,-64.833,16.859,-4.828,-20.876,-14.971,-28.306,-30.648,-7.745,-5.709,-61.295,-29.658,13.122,-37.249,-27.123,-64.877,-103.338,-30.641,-8.531,-10.827,-27.182,-33.326,71.3,-29.773,-146.43
0.7499474000001101,-34.523,-1.325,-95.429,11.838,238.86,-62.207,19.404,4.398,-13.683,-11.882,-21.618,-26.519,-4.663,-5.191,-55.086,-22.456,18.744,-32.089,-20.948,-58.665,-90.94,-29.586,-0.325,-12.353,-24.081,-32.268,70.204,-23.595,-138.087
0.750055699999848,-33.464,-1.836,-94.309,12.851,245.281,-60.096,11.7,3.369,-13.157,-14.432,-19.547,-24.955,-2.61,-2.112,-50.932,-18.848,20.774,-30.007,-16.828,-61.167,-91.361,-28.02,-1.349,-13.366,-23.032,-31.211,73.72,-22.547,-136.924
0.7649889999997868,-39.578,-12.081,-100.875,3.616,227.105,-65.671,-0.095,-10.979,-26.976,-24.152,-26.7,-30.053,-8.755,-4.672,-54.467,-26.514,18.192,-32.539,-25.521,-65.717,-98.442,-32.09,-11.082,-14.889,-28.132,-31.18,77.233,-25.598,-143.447
0.7650539000001118,-35.952,-6.946,-96.163,1.051,218.169,-67.142,-4.193,-14.554,-26.949,-26.689,-27.185,-27.462,-11.82,-4.155,-52.364,-25.462,17.149,-28.408,-22.934,-56.942,-91.171,-30.521,-3.898,-8.727,-26.055,-28.587,83.303,-17.888,-136.132
0.7803193999998257,-24.645,8.431,-83.772,17.444,235.369,-56.829,-0.091,-4.293,-14.627,-18.978,-17.937,-20.262,-5.66,5.071,-44.627,-14.679,21.743,-19.67,-10.615,-46.639,-83.395,-19.22,10.45,3.578,-12.709,-20.874,85.269,0.06,-120.626
0.7803800000001502,-18.473,15.082,-79.077,30.234,248.454,-53.186,11.692,3.396,-13.075,-13.836,-11.259,-16.143,0.493,10.189,-42.021,-9.541,29.918,-16.577,-8.043,-43.518,-79.214,-8.954,12.489,5.111,-3.475,-16.242,89.282,8.257,-116.919
0.7950830999998288,-18.967,14.555,-81.56,25.081,249.23,-60.817,18.341,3.905,-15.624,-14.334,-12.272,-13.566,-1.557,2.494,-44.54,-9.019,27.839,-19.634,-10.084,-44.5,-71.962,-9.458,10.427,0.495,-7.569,-17.763,94.828,2.614,-120.389
0.796766800000114,-18.948,15.565,-83.527,22.494,254.104,-62.806,17.298,7.999,-13.047,-14.32,-14.821,-13.04,-3.092,-3.144,-45.008,-7.473,19.102,-23.2,-10.587,-45.48,-72.402,-14.059,8.88,1.519,-15.759,-17.745,88.586,2.099,-122.318
0.810082599999987,-18.929,18.111,-86.005,30.669,263.071,-59.669,20.354,14.139,-9.96,-13.281,-13.27,-12.002,2.546,-1.091,-43.938,-5.929,19.595,-22.665,-12.113,-43.897,-73.867,-9.947,5.797,-0.532,-19.329,-14.653,82.349,4.146,-123.22
0.8101479000001746,-24.033,10.408,-93.092,25.003,267.419,-61.146,26.482,12.588,-10.462,-10.706,-12.232,-7.379,6.13,-0.066,-47.993,-3.361,24.186,-22.642,-9.539,-43.853,-69.695,-6.35,4.767,-8.728,-23.921,-18.737,83.292,-9.178,-128.22
0.8250804999997854,-32.206,-5.996,-105.806,2.948,264.078,-66.208,21.332,3.866,-13.525,-10.695,-15.293,-8.909,-0.024,-1.602,-55.117,-4.382,18.014,-27.743,-12.091,-47.908,-72.699,-18.127,1.176,-16.916,-32.094,-27.428,71.425,-25.563,-140.899
0.8400449999999182,-37.297,-12.65,-113.897,-7.301,258.178,-67.167,12.089,0.789,-15.049,-12.221,-17.84,-14.535,-4.122,-0.064,-55.574,-12.575,13.385,-29.252,-23.35,-52.983,-78.774,-28.355,-7.022,-21.51,-37.185,-32.523,60.083,-30.148,-148.443
0.8401027999998405,-37.26,-10.588,-115.833,-5.244,257.92,-64.026,9.003,3.349,-12.472,-8.623,-17.309,-13.496,1.005,2.498,-51.42,-19.222,17.471,-26.149,-25.888,-58.566,-76.646,-26.278,-9.577,-23.025,-37.66,-32.491,66.683,-33.192,-145.221
0.8550826000000598,-40.296,-18.775,-119.303,-10.362,254.588,-67.036,9.507,-1.777,-12.46,-7.078,-19.854,-15.532,2.029,0.958,-54.443,-20.228,15.404,-29.709,-23.813,-60.556,-77.594,-30.35,-7.518,-25.052,-36.085,-32.971,71.227,-40.331,-147.125
0.8551423999997496,-43.33,-24.391,-118.671,-12.913,245.112,-74.141,13.596,-8.948,-13.984,-14.755,-21.883,-22.176,-6.683,-2.629,-58.999,-20.207,9.241,-31.728,-25.838,-55.373,-74.442,-31.344,-3.412,-20.928,-31.438,-32.425,70.644,-37.729,-150.051
0.8701969999997345,-38.163,-14.633,-107.794,-0.605,251.015,-72.017,18.193,0.283,-10.896,-13.716,-19.812,-19.593,-8.725,-1.602,-54.329,-20.187,10.768,-25.037,-22.226,-51.731,-62.585,-19.53,6.837,-10.149,-25.259,-25.221,75.696,-25.396,-140.167
0.8702617999997528,-35.051,-13.594,-102.563,2.982,263.059,-68.359,16.638,12.578,-9.861,-7.554,-18.767,-18.549,-3.593,1.474,-53.25,-21.192,11.782,-25.011,-22.717,-55.778,-67.133,-23.096,6.318,-10.651,-27.795,-25.195,72.034,-24.858,-136.953
0.8851746999998795,-41.676,-24.339,-105.535,-7.78,258.185,-74.951,17.646,6.93,-16.511,-16.768,-25.409,-25.19,-6.151,-2.114,-61.906,-25.269,6.647,-29.085,-32.94,-58.284,-76.287,-37.93,-6.496,-23.448,-36.989,-35.416,64.278,-37.129,-143.989
0.8852378999999928,-41.122,-21.24,-99.281,-2.649,255.878,-79.999,25.313,-0.249,-20.593,-22.387,-28.457,-22.091,-11.268,-6.722,-60.82,-22.17,9.715,-20.859,-29.321,-55.151,-65.453,-32.257,-5.465,-20.351,-34.903,-35.381,65.75,-34.53,-139.234
0.9005928000001404,-31.86,-10.973,-84.838,9.137,268.942,-75.821,27.849,5.899,-17.498,-12.118,-19.719,-11.31,-4.085,-1.593,-53.587,-13.438,16.365,-14.178,-16.484,-50.998,-54.629,-19.417,6.324,-4.961,-24.622,-22.538,66.709,-15.028,-127.312
0.9006564000001163,-29.779,-8.4,-68.871,7.591,278.407,-72.159,26.284,11.528,-16.969,-9.545,-13.04,-10.787,1.042,3.532,-56.095,-11.888,14.299,-17.75,-18.517,-49.922,-55.086,-18.885,5.293,-3.932,-24.597,-18.929,69.716,-6.304,-114.889
0.9152361999999812,-25.65,1.342,-44.211,18.342,288.375,-67.988,28.307,11.517,-13.366,-6.974,-13.539,-9.751,-1.52,4.041,-56.038,-12.389,14.285,-13.634,-19.01,-47.823,-46.834,-13.231,5.8,-2.391,-25.597,-14.812,79.38,-2.199,-92.233
0.9153160000000753,-15.891,14.66,-26.749,39.328,299.357,-63.822,28.279,11.505,-4.131,5.329,-7.378,-0.008,3.605,8.648,-45.736,-2.642,24.005,-3.374,-7.208,-41.628,-38.078,-4.508,17.577,9.907,-20.449,-6.088,82.887,8.049,-74.21
0.9302621000001636,-16.387,10.547,-32.357,33.653,290.861,-67.856,19.029,9.444,-5.663,2.25,-2.247,2.041,7.699,12.225,-45.178,1.971,26.03,-3.883,-7.201,-41.586,-41.626,-9.627,19.097,9.385,-20.941,-9.668,80.755,4.968,-81.308
0.9453152999999475,-22.006,7.975,-40.522,21.324,278.275,-72.399,14.399,5.849,-14.879,-6.974,-9.417,-5.133,2.569,9.139,-52.818,-6.74,20.881,-6.953,-17.952,-49.741,-44.146,-16.79,11.393,1.691,-20.407,-18.367,80.162,-5.284,-89.423
0.9453803999999764,-22.497,17.189,-39.969,32.061,283.119,-66.691,21.045,8.404,-11.791,-1.844,-12.482,-8.202,1.541,6.056,-52.765,-10.319,21.372,-4.384,-19.471,-51.228,-38.467,-15.748,11.382,4.763,-13.727,-14.763,76.496,1.382,-83.186
0.9454249000000345,-27.597,15.122,-43.515,33.566,280.275,-67.649,24.61,7.884,-8.705,-6.965,-12.469,-11.78,1.54,3.488,-55.274,-11.846,20.326,-6.429,-21.501,-51.177,-40.477,-19.831,7.784,0.148,-18.836,-15.26,71.296,6.503,-84.128
0.9602951000001667,-40.377,-1.799,-49.62,15.09,262.576,-82.951,16.9,-1.346,-22.016,-23.865,-27.314,-23.039,-9.732,-0.613,-63.928,-26.691,9.547,-17.694,-33.263,-62.397,-51.708,-33.131,-6.056,-14.197,-32.137,-29.077,62.516,-9.385,-94.29
0.9603542999998353,-48.021,-10.506,-52.644,8.415,257.703,-91.577,8.687,-5.955,-32.24,-28.452,-39.582,-32.749,-17.407,-7.785,-67.962,-38.448,-0.708,-24.848,-39.889,-70.019,-55.755,-41.807,-12.71,-19.818,-35.179,-37.245,48.621,-22.695,-99.318
0.9752763000001323,-47.973,-7.422,-59.251,11.48,266.667,-88.924,10.215,-0.314,-27.597,-25.349,-33.395,-31.692,-15.341,-13.925,-68.919,-32.261,0.829,-22.262,-36.776,-64.314,-48.014,-37.667,-8.087,-20.823,-36.169,-32.085,49.084,-19.599,-102.293
0.9753374000001713,-42.802,-4.341,-61.753,10.444,274.597,-85.249,16.352,1.223,-21.422,-22.762,-26.701,-23.976,-12.252,-6.227,-66.801,-23.52,11.075,-13.53,-28.03,-57.589,-39.257,-27.895,-2.955,-18.241,-36.645,-23.856,63.892,-15.481,-105.777
0.9903777999998056,-35.587,-0.238,-56.056,17.093,283.031,-81.577,16.848,-1.852,-18.327,-18.129,-23.088,-16.267,-6.092,8.124,-59.562,-15.812,20.797,-2.758,-16.731,-50.872,-33.582,-20.183,4.22,-6.952,-27.387,-20.758,67.927,-14.441,-103.622
1.0054509999999937,-32.99,2.836,-58.049,26.298,289.921,-76.885,9.659,0.199,-16.259,-16.061,-17.942,-12.665,0.062,9.653,-58.477,-6.062,26.412,3.392,-9.542,-44.161,-26.376,-13.503,16.511,-0.797,-19.675,-18.688,63.76,-10.328,-105.055
1.0055186999998114,-32.445,1.809,-62.602,21.661,289.631,-77.321,6.576,3.273,-16.755,-16.558,-17.412,-9.578,-1.475,9.131,-60.468,-4.007,30.996,5.438,-7.483,-42.58,-22.252,-8.366,18.544,-0.284,-21.704,-14.059,66.258,-7.243,-108.024
1.0207362999999532,-30.876,2.319,-54.855,13.955,290.878,-78.268,9.643,0.196,-16.226,-16.029,-16.37,-3.933,-0.961,16.807,-53.748,-5.027,34.551,10.556,-3.889,-42.537,-20.18,-6.309,11.865,4.327,-19.633,-10.971,64.143,-6.212,-101.256
1.0208001000000877,-27.771,8.977,-47.115,19.064,303.395,-73.579,7.072,-1.853,-13.648,-12.427,-8.157,1.706,6.212,16.79,-48.571,4.199,32.468,14.643,-1.324,-39.421,-15.037,-2.204,15.439,3.81,-16.027,-9.935,41.025,-1.595,-93.982
1.0353193999999348,-21.083,13.579,-45.531,30.828,319.998,-69.407,1.429,5.833,-11.586,-5.754,-0.976,4.266,6.718,9.601,-50.059,11.367,28.849,10.53,-1.835,-37.332,-9.899,2.409,23.621,3.806,-14.987,-4.802,8.708,5.579,-91.327
1.0353767999999945,-15.939,11.516,-39.851,34.383,328.899,-69.85,1.94,14.536,-11.574,-4.212,1.074,5.799,5.687,11.128,-46.935,9.307,30.869,10.008,-0.809,-38.319,-7.84,3.431,20.523,12.512,-10.873,-1.211,-23.576,7.111,-84.575
1.0503473999997368,-20.021,8.431,-35.2,25.639,328.058,-73.878,1.426,11.448,-14.124,-10.867,-3.025,4.256,6.706,14.191,-44.839,7.76,30.839,12.559,-2.345,-40.843,-5.782,2.403,17.941,13.524,-5.739,-3.772,-23.04,1.468,-82.442
1.0522237999998652,-31.272,3.811,-37.726,16.392,323.119,-80.977,-1.649,0.166,-21.282,-17.516,-12.244,-3.433,-0.473,11.103,-52.479,2.63,21.074,7.936,-10.027,-46.437,-8.851,-3.234,22.022,5.314,-8.295,-6.329,-9.697,-5.193,-90.556
1.0654796999997416,-40.462,-3.877,-39.738,12.79,318.698,-88.58,1.426,-6.494,-27.921,-24.159,-20.429,-11.626,-8.157,5.969,-63.185,-8.644,12.344,1.78,-16.165,-52.538,-17.551,-9.891,17.901,4.796,-11.361,-8.885,-30.179,-8.262,-93.539
1.0655478999997285,-45.033,-10.533,-42.772,6.629,321.965,-94.639,5.011,-8.537,-30.967,-30.795,-26.556,-17.25,-9.174,-1.21,-71.319,-17.344,7.72,-1.808,-23.321,-57.609,-22.656,-17.054,8.662,2.23,-10.325,-16.048,-57.302,-14.914,-97.032
1.0805147000000943,-44.988,-11.547,-50.414,4.061,334.963,-99.156,5.006,-8.529,-27.35,-28.202,-29.091,-19.282,-9.677,-3.258,-74.321,-20.401,4.639,-4.368,-32.007,-60.625,-26.22,-26.77,6.604,-5.457,-12.364,-22.18,-56.22,-21.559,-106.157
1.080580800000007,-40.844,-2.314,-48.314,18.402,359.731,-94.958,10.636,4.288,-17.589,-18.953,-19.328,-10.041,-1.982,5.455,-72.71,-14.233,10.27,2.809,-27.364,-58.003,-23.632,-25.207,7.622,-3.403,-12.864,-20.108,-46.942,-12.828,-98.878
1.0954640999998446,-34.656,9.983,-34.946,36.314,383.45,-86.154,18.31,21.702,-10.399,-13.811,-8.038,-2.347,8.266,9.548,-72.125,-3.46,19.481,11.516,-17.603,-54.359,-14.387,-14.423,6.59,-0.325,-9.777,-15.477,-40.235,1.529,-79.824
1.0955266000000847,-34.621,9.973,-33.374,33.204,384.091,-90.166,17.78,18.094,-16.536,-16.871,-15.714,-9.517,0.573,3.39,-74.614,-7.555,15.875,5.356,-25.27,-58.915,-15.397,-19.532,0.948,-8.522,-12.841,-19.56,-39.17,-3.083,-77.695
1.1105168999997659,-43.808,1.767,-40.513,17.801,374.485,-99.81,13.151,7.83,-25.229,-22.489,-25.945,-14.118,-7.112,1.338,-77.613,-17.794,9.199,-0.284,-30.88,-61.93,-23.579,-28.734,-4.688,-15.173,-23.074,-24.152,-52.451,-13.326,-85.302
1.1122224999999162,-43.764,2.789,-36.374,16.759,380.771,-98.173,11.601,11.92,-23.154,-24.516,-19.771,-7.956,1.604,6.972,-76.511,-10.091,15.338,8.425,-20.09,-56.233,-14.846,-16.41,1.976,-9.01,-24.076,-15.931,-46.251,-7.165,-83.679
1.1255605999999716,-31.937,9.447,-32.751,24.427,391.149,-97.563,11.077,12.933,-19.545,-21.418,-14.116,-6.411,1.602,10.551,-73.361,-0.347,17.884,11.491,-14.947,-54.127,-4.585,-6.147,11.708,-0.805,-16.367,-6.181,-13.417,1.551,-78.985
1.1256226000000424,-30.368,11.999,-35.28,22.353,389.733,-102.588,7.48,4.211,-24.136,-21.908,-15.639,-7.942,-6.596,5.417,-74.312,-2.909,11.718,6.868,-20.055,-56.635,-11.24,-12.289,9.647,1.758,-13.789,-6.687,19.384,0.013,-78.906
1.14059989999987,-37.51,15.573,-33.196,20.794,394.466,-100.949,4.399,6.768,-27.186,-22.911,-14.599,-6.909,-3.003,-0.223,-76.799,-5.98,11.707,8.398,-18.498,-56.066,-15.328,-11.764,9.638,3.293,-14.288,-9.242,20.389,2.062,-78.827
1.140665099999751,-36.448,18.119,-35.724,26.408,408.416,-99.311,9.005,15.983,-23.572,-19.302,-15.609,-8.952,0.073,0.802,-78.26,-7.51,12.207,6.853,-16.943,-58.571,-11.214,-6.117,16.288,5.339,-12.224,-8.208,3.463,2.06,-80.798
1.1565836999998282,-37.949,11.441,-44.91,25.87,411.594,-107.408,17.705,14.942,-19.963,-20.82,-20.204,-10.992,-5.562,-2.785,-81.255,-12.626,3.486,-1.863,-20.0,-65.173,-11.715,-10.209,14.222,3.284,-11.7,-8.712,1.923,-5.627,-84.303
1.1566483999999946,-47.645,5.282,-40.254,19.696,406.572,-112.424,19.737,13.391,-18.918,-26.947,-23.77,-11.493,-6.581,-8.418,-85.272,-14.15,0.409,-2.886,-23.054,-66.132,-13.752,-14.297,8.573,0.719,-12.2,-11.265,7.044,-7.67,-83.706
1.1705704000000878,-49.646,7.838,-29.455,25.824,408.727,-109.75,19.205,19.013,-18.387,-24.358,-26.308,-14.556,-3.501,-3.799,-87.749,-14.136,5.531,3.265,-22.006,-63.505,-13.226,-11.209,14.712,6.866,-6.553,-10.741,2.426,-2.027,-77.987
1.1724300000000767,-45.498,11.416,-24.815,37.581,417.027,-108.103,27.895,24.629,-16.319,-18.698,-23.72,-11.979,1.626,1.328,-89.198,-12.585,7.063,4.798,-15.324,-63.441,-9.627,-8.637,21.357,15.057,0.626,-4.583,-2.187,3.098,-68.175
1.1855565999999271,-47.502,14.479,-19.155,39.081,423.27,-110.557,34.014,26.654,-16.303,-21.754,-19.085,-5.82,4.698,-3.284,-88.596,-4.888,6.031,3.769,-12.747,-63.378,-2.957,-7.603,19.799,14.529,0.626,0.033,4.475,9.755,-58.373
1.1856219999999666,-49.504,17.538,-18.111,36.48,426.433,-111.471,24.247,18.942,-19.873,-26.343,-21.628,-6.326,0.595,-5.33,-89.02,-2.321,6.025,5.302,-19.907,-63.827,-1.417,-10.157,14.656,7.855,-6.035,-5.091,3.958,8.208,-58.315
1.2006630000000769,-44.331,15.984,-22.192,35.931,431.642,-111.359,15.513,10.214,-21.902,-24.267,-23.143,-7.345,-2.479,-1.226,-90.468,-4.368,7.044,8.371,-19.887,-63.25,0.633,-11.172,13.617,7.334,-8.591,-7.135,-4.755,0.515,-62.355
1.2156190000000606,-38.139,12.381,-17.046,30.26,438.895,-112.273,19.084,11.228,-21.368,-21.169,-16.972,-1.702,2.134,3.898,-87.304,3.833,10.623,14.51,-13.207,-56.527,8.829,-3.988,19.239,11.426,-3.971,-2.517,-1.676,2.052,-58.194
1.2156863999998677,-43.224,6.221,-15.492,20.496,441.53,-117.796,15.478,9.168,-26.982,-23.197,-16.443,1.374,3.156,6.456,-86.192,10.489,13.174,20.643,-13.706,-54.934,8.821,-0.91,20.244,9.365,-3.455,-5.588,-2.187,-1.024,-57.111
1.2306542000001173,-54.964,-5.568,-26.748,17.914,444.675,-128.949,0.606,-0.575,-32.59,-26.248,-21.549,-0.677,-0.433,3.888,-93.79,6.38,12.136,19.086,-15.742,-62.051,1.639,-7.569,14.076,4.745,-8.575,-12.755,-19.091,-18.954,-66.788
1.2307215000000724,-59.52,-8.124,-26.721,20.97,458.062,-132.918,-0.419,0.962,-26.922,-23.147,-21.016,0.861,3.666,3.372,-97.282,5.861,13.148,15.48,-13.677,-64.038,5.224,-10.636,14.062,5.765,-9.078,-12.23,-24.195,-20.472,-72.357
1.2456038000000262,-59.972,-0.944,-20.034,24.535,472.461,-127.662,13.414,10.183,-20.235,-18.514,-18.433,1.372,5.711,7.979,-98.722,5.856,15.184,18.539,-14.688,-64.999,6.756,-13.187,17.122,6.784,-5.995,-12.73,-19.56,-8.668,-67.161
1.2456683999998859,-71.183,-5.041,-26.162,22.461,476.087,-133.682,17.499,9.148,-25.851,-26.692,-28.148,-9.388,-1.979,1.823,-111.943,-4.909,9.534,14.934,-22.358,-77.229,-9.133,-24.444,6.858,-2.445,-9.575,-21.426,-32.861,-15.832,-65.557
1.2606799999998657,-82.383,-13.233,-31.771,14.242,481.246,-150.455,12.87,4.016,-35.046,-39.985,-42.977,-22.186,-9.149,-7.4,-123.102,-15.15,2.352,6.21,-33.094,-87.398,-17.833,-32.617,-1.345,-10.639,-13.664,-26.016,-51.783,-26.574,-71.127
1.2607419000000846,-76.665,-5.023,-26.104,18.838,509.454,-153.89,15.931,9.647,-34.499,-38.921,-41.397,-17.553,-6.579,-2.782,-124.004,-12.573,4.399,8.765,-33.573,-82.7,-7.056,-26.436,9.414,-2.432,-5.454,-20.867,-56.342,-18.863,-69.007
1.2759811999999329,-65.318,10.351,-17.368,36.75,541.733,-150.663,22.575,14.761,-30.366,-30.685,-30.597,-8.314,-2.474,0.807,-129.003,-4.876,6.444,14.904,-25.342,-80.568,1.66,-18.213,20.164,9.354,4.798,-12.649,-61.921,-3.988,-52.544
1.2760410000000775,-67.301,19.563,-5.056,45.423,573.979,-159.734,17.942,13.721,-35.459,-33.216,-34.153,-14.966,-4.52,-5.854,-137.583,-4.871,-0.735,9.254,-26.854,-89.197,-1.416,-19.219,16.557,8.832,3.768,-9.05,-74.667,8.312,-35.585
1.2906448999997338,-71.845,26.715,1.609,53.062,606.192,-171.869,13.313,14.732,-42.083,-40.355,-42.828,-20.074,-8.614,-6.36,-141.544,-8.453,-1.759,7.195,-30.926,-93.206,-1.926,-19.2,13.979,10.36,2.228,-8.529,-81.765,12.914,-29.402
1.2907012000000577,-64.601,28.738,-9.663,59.157,630.689,-175.283,22.522,14.718,-39.48,-40.827,-38.175,-13.394,-9.118,-1.743,-142.939,-4.346,6.952,17.947,-23.722,-91.064,5.248,-12.521,18.064,17.01,6.324,-4.934,-86.294,7.778,-36.545
1.3058811000000787,-61.975,20.512,-25.535,41.167,623.398,-178.182,26.085,7.018,-38.928,-41.298,-36.087,-15.429,-10.646,-3.278,-142.796,-0.755,6.433,19.978,-24.211,-90.973,8.316,-13.021,18.046,13.407,2.219,-3.904,-86.72,5.209,-49.316
1.3059471999999914,-70.622,13.832,-32.169,22.17,602.795,-181.078,14.788,4.45,-44.524,-41.257,-40.662,-18.488,-10.123,-3.787,-141.629,-1.779,1.816,15.859,-29.31,-89.857,7.796,-16.082,15.466,9.807,-3.931,-6.462,-79.461,4.179,-50.291
1.3208025999997517,-66.965,15.355,-33.162,29.32,600.143,-175.774,7.601,7.519,-43.455,-35.068,-33.449,-6.686,-2.94,2.364,-137.389,3.346,10.523,26.09,-18.522,-85.669,14.96,-8.381,20.061,15.945,4.27,-2.357,-71.184,1.613,-41.019
1.320865700000013,-60.238,15.339,-33.641,27.242,598.518,-172.524,4.008,0.852,-39.826,-31.447,-27.78,-1.044,-2.425,6.973,-134.178,10.515,17.172,37.334,-12.356,-85.071,23.142,-3.25,23.627,16.441,11.95,0.719,-67.527,5.198,-43.028
1.3358091000000059,-67.35,10.201,-38.218,10.308,580.501,-176.45,-4.193,-4.785,-43.884,-36.538,-34.925,-8.215,-8.57,6.966,-137.117,8.967,11.52,31.662,-19.516,-83.449,22.607,-7.857,24.628,14.888,7.328,-2.868,-63.873,5.705,-50.669
1.3358738000001722,-65.746,14.802,-40.741,16.958,567.625,-171.663,-4.189,5.466,-43.84,-35.99,-31.816,-4.621,-5.488,9.008,-135.955,9.471,12.021,30.605,-14.885,-77.73,27.195,-2.214,31.264,26.656,12.956,2.258,-54.588,3.138,-47.032
1.3507958000000144,-56.459,21.447,-34.041,32.823,560.91,-160.733,3.5,13.145,-41.235,-29.806,-24.612,0.507,-3.433,12.073,-126.598,11.511,18.669,39.284,-8.723,-76.627,33.828,4.961,36.868,34.314,26.263,9.941,-42.238,11.844,-41.35
1.3508575000000747,-67.673,13.741,-33.494,24.081,544.98,-166.719,1.959,3.911,-49.391,-36.948,-37.907,-12.814,-15.725,5.913,-130.57,0.228,12.502,33.609,-21.522,-85.26,26.622,-9.389,28.122,23.009,20.601,1.734,-40.659,12.857,-45.407
1.365885100000014,-82.975,3.993,-40.121,15.347,530.09,-174.75,-0.604,-2.753,-53.44,-48.182,-52.214,-27.658,-25.443,-5.364,-142.735,-13.604,-0.83,22.305,-32.259,-95.933,20.447,-23.724,18.872,16.326,8.285,-8.002,-50.352,-4.062,-48.948
1.3659474000000955,-84.428,0.915,-33.421,21.48,516.753,-166.378,6.056,4.934,-44.165,-45.572,-49.6,-29.167,-22.856,-8.945,-140.543,-20.251,-3.391,21.77,-33.763,-96.862,22.988,-25.75,15.779,16.822,8.789,-9.531,-53.888,-13.792,-52.997
1.3808694999997897,-90.492,-10.356,-32.363,15.823,491.133,-163.65,13.223,6.979,-41.559,-45.527,-51.087,-31.7,-22.321,-9.448,-139.89,-27.403,-3.9,18.675,-39.877,-94.716,18.355,-32.896,7.054,3.485,4.17,-17.206,-55.883,-17.877,-64.215
1.3809350999999879,-93.987,-17.006,-44.113,6.585,468.1,-169.122,17.308,0.312,-46.128,-52.141,-57.696,-35.254,-25.373,-11.488,-143.848,-29.425,-10.044,14.045,-40.862,-94.621,17.312,-36.449,3.973,-7.277,-3.007,-25.386,-60.438,-27.08,-70.299
1.39618930000006,-78.012,-2.132,-38.946,21.436,464.046,-159.731,21.901,6.971,-38.91,-44.917,-49.954,-27.534,-20.224,-8.402,-130.385,-18.637,-6.447,20.691,-28.526,-87.354,34.713,-20.531,17.802,5.538,4.169,-17.163,-41.934,-21.93,-60.494
1.4108707000000322,-64.614,9.141,-26.1,37.296,463.069,-145.739,22.392,24.383,-26.575,-31.04,-35.047,-13.674,-12.007,-2.759,-116.934,-7.86,2.268,27.843,-20.3,-75.996,47.486,-10.265,24.956,13.217,6.214,-8.437,-14.228,-9.101,-52.237
1.4109293999999863,-65.574,5.033,-32.221,27.525,453.897,-143.544,22.882,25.383,-23.987,-26.91,-30.913,-8.538,-8.921,-1.219,-120.916,-5.803,-1.32,24.741,-23.354,-75.92,46.926,-16.914,17.247,0.396,-4.551,-13.039,-10.627,-13.19,-57.82
1.4258500000000822,-63.971,6.565,-37.824,21.862,448.833,-142.376,27.469,16.648,-27.037,-23.809,-30.883,-8.017,-9.425,2.368,-120.282,-6.821,-3.88,24.716,-26.917,-80.455,47.391,-19.971,14.668,-5.752,-6.083,-16.1,-10.104,-17.788,-62.885
1.4275610999998207,-57.76,14.755,-30.102,33.623,449.408,-137.623,24.368,20.73,-27.01,-21.224,-26.241,-6.472,-11.464,6.465,-111.453,-3.741,5.345,32.376,-24.328,-76.276,50.93,-15.853,19.264,1.939,3.144,-11.986,-0.36,-10.085,-55.65
1.440957199999957,-53.603,17.815,-26.486,34.614,445.373,-133.899,17.684,23.783,-28.52,-25.814,-24.678,-10.052,-12.478,1.335,-111.854,-0.663,5.852,33.881,-19.693,-73.126,54.465,-13.788,21.806,8.597,7.752,-9.924,-0.36,-6.489,-46.373
1.4410235000000284,-53.038,17.284,-31.07,25.87,431.095,-133.765,18.178,11.464,-34.127,-30.399,-33.362,-18.238,-14.514,-7.376,-115.84,-8.347,-6.962,24.113,-22.747,-76.639,55.948,-14.286,22.297,10.637,5.695,-9.402,3.739,-8.532,-50.937
1.4550015999998323,-57.083,14.193,-39.236,24.307,412.733,-137.73,12.013,3.768,-39.216,-33.442,-41.526,-23.856,-20.135,-15.053,-112.138,-20.122,-19.25,14.355,-31.434,-81.685,51.281,-20.42,16.639,6.528,0.054,-9.393,12.957,-11.597,-63.182
1.4550685999997768,-63.686,14.179,-39.197,27.357,399.0,-137.592,0.73,9.4,-37.64,-34.946,-39.947,-27.93,-22.164,-20.673,-109.977,-24.712,-25.891,10.755,-35.501,-84.678,46.107,-29.109,6.889,-2.187,-2.508,-15.531,6.796,-18.245,-61.582
1.46994339999992,-65.159,19.288,-21.739,29.891,393.991,-130.795,7.901,13.489,-30.942,-29.275,-38.371,-27.902,-15.482,-17.579,-113.453,-24.688,-26.377,8.182,-35.978,-84.081,49.647,-29.592,8.419,-1.673,0.568,-20.126,2.691,-17.203,-47.176
1.4700035999999272,-65.094,19.269,-16.082,28.837,396.158,-130.664,22.75,13.475,-28.35,-26.684,-37.82,-21.214,-12.393,-8.339,-116.926,-22.101,-21.228,9.711,-36.454,-80.41,54.208,-23.415,13.021,6.013,5.179,-17.032,9.348,-6.939,-40.468
1.4849464999997508,-67.078,10.028,-30.923,19.074,396.787,-136.168,20.678,11.413,-32.932,-34.342,-36.245,-19.144,-16.991,-9.356,-113.223,-19.518,-18.645,14.825,-35.393,-80.33,50.568,-23.391,6.86,3.958,8.247,-17.528,7.802,-8.981,-48.113
1.4866683000000194,-68.036,3.358,-38.064,13.419,384.607,-137.057,8.362,4.229,-37.51,-37.894,-41.332,-25.272,-20.048,-14.469,-111.06,-22.572,-19.651,14.297,-34.845,-82.299,48.98,-27.978,0.193,-7.317,5.678,-21.608,8.306,-22.292,-57.798
1.5000304999998662,-66.943,2.33,-38.026,16.48,372.439,-132.821,2.206,1.151,-39.009,-32.733,-41.291,-22.173,-13.88,-8.82,-111.462,-19.988,-15.533,17.357,-34.298,-76.069,55.591,-26.926,5.829,-7.309,-1.5,-16.976,18.544,-24.832,-60.814
1.5000945000001593,-66.364,2.328,-42.599,16.463,373.091,-127.053,8.352,5.76,-36.921,-31.163,-31.515,-12.93,-5.157,-0.614,-106.739,-12.796,-6.808,27.586,-31.19,-70.357,59.634,-23.825,9.921,-1.667,-3.036,-14.398,19.55,-20.708,-59.729
1.5150699000000714,-69.884,-3.31,-43.581,10.812,366.058,-125.902,15.516,5.242,-37.396,-36.255,-35.582,-18.552,-9.763,0.924,-104.583,-19.955,-4.752,29.095,-32.696,-78.484,52.402,-29.437,-0.335,-9.862,-0.984,-24.629,15.432,-30.422,-67.354
1.5151393999999527,-77.498,-12.016,-45.586,2.091,344.688,-134.485,10.377,-2.96,-45.044,-42.879,-53.99,-33.903,-24.098,-3.688,-115.75,-35.305,-13.969,20.357,-40.86,-88.139,42.616,-42.215,-11.093,-22.147,-7.643,-32.289,14.904,-41.662,-79.07
1.5304667999998856,-85.618,-18.152,-55.787,-4.571,326.924,-139.986,-0.392,-9.617,-51.146,-51.546,-61.108,-45.14,-29.709,-14.443,-127.417,-47.565,-23.689,13.676,-49.528,-91.637,37.45,-49.857,-13.643,-24.687,-17.369,-34.306,11.303,-38.546,-83.089
1.5305385999999999,-91.167,-23.257,-61.879,-7.128,310.716,-135.747,1.658,-15.243,-50.583,-56.617,-64.121,-55.341,-29.679,-21.601,-127.802,-61.349,-29.3,7.515,-53.577,-95.644,34.851,-51.344,-18.753,-26.199,-19.913,-37.858,13.854,-35.946,-84.543
1.5450667999998586,-88.002,-22.721,-57.206,-9.17,296.573,-130.489,12.415,-16.764,-46.434,-51.95,-68.155,-54.773,-30.674,-21.579,-120.502,-64.874,-31.32,5.971,-49.425,-92.475,37.378,-50.268,-17.709,-24.636,-12.721,-37.308,23.061,-33.349,-83.434
1.5469380999998066,-74.594,-8.354,-51.001,-6.087,301.912,-120.112,21.111,-7.014,-38.19,-41.139,-56.304,-40.374,-22.959,-18.484,-112.697,-50.977,-24.117,17.235,-37.593,-78.038,49.636,-40.997,-3.859,-8.73,3.686,-29.074,26.624,-16.922,-72.592
1.5601332999999613,-59.663,7.024,-50.438,2.629,314.93,-104.623,22.115,4.776,-27.394,-32.901,-39.342,-28.55,-10.641,-13.342,-105.924,-37.606,-15.383,23.878,-27.309,-68.226,63.418,-23.537,5.366,3.574,13.416,-18.798,31.721,-0.511,-63.81
1.575202999999874,-51.919,12.652,-49.363,6.212,318.201,-99.395,19.019,11.432,-20.194,-24.159,-32.642,-21.862,-2.945,-8.718,-98.133,-28.859,-16.905,21.293,-21.646,-64.571,68.99,-12.755,7.41,2.546,8.792,-10.07,45.521,3.588,-62.209
1.5752658999999767,-45.207,20.836,-38.555,13.891,318.907,-95.197,24.635,20.129,-13.514,-12.352,-23.9,-11.594,5.255,-5.635,-89.326,-19.609,-16.376,27.419,-15.477,-56.822,74.044,-12.742,14.575,6.13,11.345,-8.011,53.673,9.732,-55.487
1.5901435000000674,-36.965,28.5,-29.807,31.295,313.978,-83.319,31.271,22.671,-8.89,-6.192,-14.655,-5.947,11.397,-1.531,-85.651,-14.466,-8.675,36.101,-12.388,-50.618,79.093,-13.242,15.072,10.734,21.579,-10.565,58.23,19.456,-46.722
1.590204999999969,-36.415,26.423,-34.901,34.338,301.368,-81.186,22.53,15.476,-12.979,-11.821,-19.251,-11.064,7.799,-0.505,-87.614,-18.55,-12.252,31.966,-15.961,-55.178,75.941,-14.253,6.86,3.039,17.459,-11.066,62.782,17.9,-48.212
1.6052260999999817,-38.94,24.859,-39.476,23.033,292.87,-89.814,14.311,10.85,-19.114,-18.469,-27.941,-18.737,0.619,-8.702,-87.527,-27.753,-22.998,23.738,-20.044,-60.758,72.278,-18.338,4.804,-1.062,9.757,-12.08,62.72,11.734,-53.287
1.6052844999999252,-33.266,30.982,-31.752,27.108,288.991,-87.163,23.006,10.326,-21.144,-18.963,-28.425,-20.768,-1.943,-14.841,-82.828,-31.311,-21.438,25.251,-15.925,-56.086,76.305,-17.295,11.46,8.16,17.944,-11.556,66.755,19.407,-51.697
1.6202324999999291,-25.036,37.099,-26.085,35.79,283.067,-77.854,27.081,9.291,-20.611,-16.895,-25.835,-16.649,0.108,-9.19,-81.721,-25.132,-14.757,33.422,-10.274,-48.346,81.864,-9.593,15.034,12.763,23.05,-6.421,75.91,31.683,-43.961
1.6202996000001804,-24.499,37.574,-26.059,28.582,276.124,-77.776,18.345,9.794,-17.004,-15.853,-24.785,-15.607,-0.916,-5.083,-83.176,-20.497,-15.767,34.926,-10.776,-46.248,80.757,-9.583,15.019,5.065,14.317,-8.464,76.859,28.578,-39.818
1.6352185000000645,-26.523,32.926,-26.033,27.017,267.651,-79.235,16.79,12.346,-12.888,-14.813,-24.248,-17.641,-3.477,-10.713,-80.019,-21.501,-19.337,27.719,-12.302,-46.714,78.115,-13.672,13.467,2.499,11.741,-13.578,75.757,18.303,-45.414
1.6352822999997443,-23.935,33.405,-24.47,39.285,265.846,-75.058,28.556,20.018,-8.265,-11.724,-22.174,-14.037,3.187,-14.288,-75.84,-18.918,-15.732,28.716,-9.216,-43.594,80.598,-7.511,14.478,10.693,18.39,-7.417,81.829,20.846,-46.905
1.6512751999998727,-23.399,38.495,-21.884,38.733,269.166,-72.933,42.36,29.732,-5.183,-7.614,-18.566,-10.437,7.282,-10.176,-75.252,-15.825,-14.691,32.273,-6.645,-40.988,84.104,-4.429,16.001,10.17,17.859,-4.336,87.895,25.948,-42.76
1.6513337999999749,-26.449,30.259,-26.985,24.35,255.577,-73.373,42.317,26.629,-5.177,-7.606,-19.572,-12.476,3.176,-9.653,-73.64,-19.395,-21.849,25.581,-8.176,-42.484,79.921,-14.159,12.911,-2.648,11.693,-12.528,89.344,15.676,-50.402
1.6652604999999312,-27.96,18.446,-38.741,23.301,237.391,-69.201,27.418,21.479,-3.635,-7.086,-18.016,-6.828,7.271,-11.693,-68.443,-16.814,-18.753,25.043,-9.704,-40.393,76.768,-15.169,12.898,0.429,12.706,-12.516,89.255,5.927,-61.11
1.665326499999992,-23.834,24.575,-35.629,34.036,236.641,-63.496,21.243,27.093,-1.07,-0.419,-8.776,4.45,17.51,-2.46,-63.252,-5.527,-5.927,36.289,-3.035,-33.18,83.351,-5.932,23.644,17.847,23.964,-4.819,92.239,13.093,-55.413
1.6803196999999273,-18.687,30.698,-25.347,31.953,232.306,-66.507,29.419,22.455,-6.704,-0.931,-8.255,1.884,14.419,5.74,-63.189,-5.009,-5.409,36.765,0.555,-32.635,84.292,-7.463,27.718,16.804,30.088,-4.814,98.295,19.228,-47.673
1.6803823999998713,-24.303,21.958,-31.469,19.113,214.143,-73.613,22.729,3.99,-16.944,-12.201,-21.567,-11.438,2.621,-2.975,-70.81,-18.836,-15.649,26.482,-12.254,-40.799,74.986,-16.677,15.908,2.955,20.836,-8.395,98.197,15.11,-49.675
1.6953251999998429,-31.451,19.375,-37.073,18.582,206.244,-74.564,7.337,0.399,-20.001,-18.849,-30.767,-19.111,-4.554,-12.706,-74.325,-27.014,-19.22,19.795,-22.488,-45.369,71.837,-22.296,9.232,2.44,13.643,-10.436,93.488,15.095,-49.113
1.6953911999999036,-22.198,31.139,-25.765,31.371,210.649,-68.341,11.941,9.621,-18.956,-14.219,-23.051,-12.432,-0.451,-8.083,-65.03,-20.327,-15.614,22.849,-12.219,-39.688,76.889,-18.175,16.907,10.122,20.802,-6.84,102.103,24.814,-39.33
1.7102968999997756,-7.319,40.329,-18.567,42.61,214.024,-60.588,21.15,12.685,-16.376,-4.983,-9.196,-2.174,8.771,-0.39,-54.718,-9.548,-7.402,33.073,-2.473,-29.402,82.447,-7.399,20.476,11.137,22.83,3.413,117.883,32.474,-31.094
1.7103720999998586,-5.775,42.338,-17.012,44.617,219.446,-55.917,13.444,13.697,-13.798,-2.929,-5.601,-1.659,5.689,-1.926,-55.176,-6.977,-6.882,33.039,-7.593,-27.324,81.852,-6.879,14.821,7.539,12.561,3.41,115.716,32.441,-27.989
1.725312799999756,-10.892,40.759,-12.896,40.474,217.689,-55.349,10.87,15.732,-13.272,-4.976,-11.743,-3.707,0.048,-5.511,-57.17,-14.143,-16.097,20.199,-12.709,-32.419,75.623,-17.118,10.195,2.921,5.889,-8.889,108.94,27.286,-26.424
1.7253795000001446,-13.955,39.693,-16.982,37.36,200.053,-51.195,22.129,13.155,-9.672,2.714,-10.194,1.932,7.732,-4.48,-55.064,-18.739,-12.495,19.154,-10.135,-32.387,71.449,-17.101,8.136,1.381,8.445,-12.466,112.417,24.184,-29.984
1.7403911999999764,-15.99,37.604,-27.723,37.322,184.996,-44.484,20.058,11.093,-3.003,9.371,-4.549,2.443,14.897,0.647,-55.521,-17.184,-3.261,27.844,-9.1,-28.256,70.865,-10.936,8.64,4.454,9.461,-8.355,110.256,23.136,-39.175
1.7553508999999394,-18.536,30.907,-32.306,28.063,185.323,-49.562,11.841,11.594,-0.438,4.239,-10.179,-1.146,12.833,3.208,-57.002,-19.728,-9.405,22.693,-11.652,-30.277,65.159,-16.049,11.193,5.474,11.5,-10.908,102.973,18.502,-41.698
1.7554166999998415,-21.079,25.24,-32.274,13.178,184.626,-58.734,24.125,13.631,0.587,0.648,-14.268,1.929,14.357,1.668,-55.408,-20.733,-12.469,16.523,-11.641,-30.759,60.995,-16.545,14.768,7.518,13.026,-11.41,111.067,15.922,-38.582
1.7706998999997268,-21.57,27.264,-32.754,14.19,170.609,-54.577,34.347,17.204,0.586,1.672,-8.618,2.952,14.855,0.129,-54.328,-15.589,-5.797,22.142,-10.092,-25.605,62.983,-9.356,19.876,13.146,10.451,-4.738,125.3,19.492,-38.031
1.7707617999999457,-14.889,33.385,-35.283,26.471,160.192,-47.35,23.554,17.187,-2.488,-0.378,-9.122,-1.662,11.254,0.129,-52.737,-16.086,-8.865,20.582,-12.131,-26.092,61.896,-9.859,22.93,13.645,10.953,-2.684,128.249,23.571,-34.919
1.785298799999964,-5.652,37.45,-32.686,27.981,164.643,-46.791,19.944,15.633,-4.535,-0.378,-12.186,-0.636,10.73,-1.408,-48.074,-17.094,-11.93,13.902,-12.119,-29.14,61.834,-10.874,22.907,14.143,16.065,-3.706,128.121,30.207,-27.2
1.7853632000001198,-1.548,39.462,-23.432,23.343,166.015,-45.719,22.998,15.617,-7.092,-1.915,-8.076,0.902,9.183,-2.943,-42.39,-13.491,-9.357,13.376,-8.521,-25.524,64.334,-8.301,24.421,17.715,13.488,-0.116,133.116,36.325,-23.074
1.800326000000041,-2.059,39.422,-22.384,26.906,153.041,-43.112,8.118,10.991,-13.232,-6.523,-6.531,-3.71,3.538,-4.477,-42.86,-15.015,-14.47,10.801,-8.0,-21.913,58.634,-9.83,20.81,14.111,5.79,0.908,137.081,31.165,-26.637
1.801957399999992,-4.106,38.87,-30.046,33.539,147.253,-42.044,-4.185,4.32,-17.318,-1.394,-7.037,-2.169,1.998,-3.448,-42.305,-15.512,-14.968,11.302,-5.943,-19.842,56.526,-6.234,17.203,9.999,4.247,-2.166,138.481,25.499,-30.709
1.8153861000000688,0.509,38.319,-30.528,35.554,156.839,-38.928,0.942,6.365,-10.64,9.366,3.217,10.641,8.143,4.752,-30.992,-0.639,-1.633,22.562,5.334,-9.576,66.716,6.068,29.482,18.186,8.853,0.397,143.465,26.498,-32.728
1.815445599999748,8.705,36.232,-23.838,34.494,157.195,-31.717,4.015,11.481,-0.383,12.943,16.533,22.413,17.357,11.407,-20.715,14.731,6.053,31.248,13.013,0.168,70.747,11.185,37.137,21.242,11.918,6.032,151.007,24.422,-29.109
1.8304164999999557,6.135,31.072,-12.031,26.263,136.545,-28.611,1.962,9.933,0.129,12.93,17.029,22.903,21.438,5.248,-22.743,13.691,0.412,28.143,8.902,-4.443,65.041,5.026,23.78,14.048,6.783,1.928,153.417,23.373,-17.809
1.8304809999999634,-3.093,26.431,5.912,15.478,115.404,-32.169,2.984,5.312,-3.969,11.892,7.278,17.757,18.342,-1.929,-25.794,4.968,-6.761,19.918,3.257,-11.099,57.804,-3.688,18.633,14.034,3.19,-3.197,148.653,29.498,-3.959
1.845301400000153,-3.602,27.941,20.251,17.512,111.19,-35.723,4.006,5.307,-1.916,9.319,2.148,14.666,14.738,1.146,-25.768,-1.697,-7.267,16.312,2.23,-9.551,49.037,-5.222,26.299,18.118,12.409,-0.12,142.869,35.103,7.828
1.8453632999999172,-0.012,37.647,30.989,34.913,113.128,-28.003,7.588,9.4,1.16,10.846,4.707,12.602,15.748,4.219,-26.767,-4.769,-3.161,19.37,1.203,-11.078,44.377,-2.655,26.272,16.051,17.52,0.905,143.238,40.191,16.53
1.8603103000000374,-2.061,43.245,40.179,48.71,110.966,-19.778,10.142,12.464,-0.378,11.348,3.166,9.003,16.244,2.166,-27.765,-8.35,-4.695,20.375,0.689,-14.653,42.283,-6.238,23.172,15.523,12.891,-2.682,147.194,43.225,17.026
1.862141999999949,-5.645,38.078,33.479,44.563,109.83,-23.856,7.058,9.89,-1.915,4.164,-3.497,5.408,11.105,-0.398,-30.811,-16.027,-12.887,13.695,-3.922,-16.175,35.069,-11.355,22.637,14.995,10.829,-2.68,146.022,35.497,7.275
1.875340000000051,-9.226,29.843,17.564,33.76,102.036,-35.103,6.026,4.757,-6.524,-8.648,-11.179,-1.258,2.385,-4.496,-36.928,-22.671,-17.997,6.509,-11.603,-20.258,29.398,-12.369,16.979,8.832,4.158,-5.751,142.29,26.752,-5.54
1.8754029000001537,-12.291,26.74,14.985,30.14,85.54,-40.704,8.069,0.654,-14.202,-14.274,-17.315,-11.503,-3.253,-9.615,-36.891,-24.185,-23.102,2.404,-11.591,-21.774,26.295,-13.893,12.351,5.237,-8.654,-11.381,144.197,24.676,-10.146
1.8903098999999202,-7.668,30.299,15.995,26.524,84.942,-35.028,2.938,2.703,-14.188,-8.625,-14.224,-10.466,-2.737,-11.654,-33.268,-22.111,-26.665,3.426,-4.92,-17.654,24.732,-10.805,16.949,9.33,-4.034,-5.222,152.249,23.115,-8.086
1.890374999999949,3.099,37.953,12.905,24.96,101.251,-24.234,-0.138,8.848,-4.952,-0.931,-0.89,4.401,2.901,-7.544,-27.6,-11.331,-16.905,12.644,1.745,-10.976,29.83,3.038,26.154,16.493,8.265,7.079,157.22,25.141,-5.004
1.9057514000000992,11.805,42.526,14.429,33.644,107.81,-19.087,6.009,13.45,1.713,5.729,10.382,15.155,11.607,1.685,-14.764,5.074,-3.568,22.365,9.428,-0.719,34.924,11.744,34.837,24.674,1.597,10.658,132.984,31.264,-2.438
1.9058156999999483,12.818,42.484,11.853,36.685,104.628,-20.605,8.565,13.436,1.199,10.847,14.47,16.164,15.694,9.368,-9.626,9.168,0.534,24.392,13.517,4.917,32.327,10.195,35.827,30.284,-18.897,8.086,100.576,30.72,-2.435
1.920238899999731,5.12,38.343,2.619,29.476,99.913,-24.682,4.458,9.837,-3.925,5.713,8.82,15.636,13.117,7.822,-18.838,2.499,2.583,23.855,7.868,-2.26,28.709,5.574,25.545,24.619,-24.001,5.004,68.2,25.054,-8.068
1.9353366999998798,-3.594,29.595,-2.506,26.885,88.03,-28.244,2.404,8.802,-6.483,-4.539,-1.947,11.01,12.591,7.814,-21.893,-2.627,3.093,23.319,-0.337,-9.943,20.483,-3.14,15.786,7.176,-6.559,-2.686,78.89,18.881,-16.257
1.9353947999998127,-7.689,22.906,-6.09,27.37,80.257,-25.654,0.865,11.867,-3.403,-2.998,-3.482,5.363,13.603,11.392,-20.334,-8.26,0.528,21.247,-3.41,-10.957,7.142,-11.334,15.257,-2.053,3.182,-9.343,84.447,10.665,-22.388
1.9503709000000526,-10.243,23.395,-8.645,22.732,78.64,-22.042,0.352,8.782,-2.375,-0.433,-2.966,1.259,6.93,5.233,-23.9,-16.448,-3.571,21.738,-6.993,-11.971,2.525,-12.86,15.754,3.584,-11.166,-8.821,70.018,4.507,-24.415
1.9504375000001346,-15.356,18.761,-3.514,16.562,56.532,-25.606,5.474,-3.01,-6.983,-8.117,-11.16,-5.402,1.287,-1.945,-23.876,-20.53,-8.178,19.154,-11.084,-12.984,2.522,-15.409,12.665,4.093,-10.13,-7.788,75.583,3.99,-19.78
1.9652740000001359,-15.34,10.033,1.101,7.836,28.811,-26.605,6.494,-5.057,-10.562,-10.671,-13.198,-6.421,3.848,3.18,-17.193,-21.534,-6.633,11.963,-6.463,-9.897,-0.042,-11.807,14.189,1.015,14.983,-8.805,94.463,2.962,-13.1
1.965338999999858,-7.641,16.171,3.149,9.365,38.004,-18.894,1.876,2.633,-9.527,-4.512,-1.402,3.319,5.381,3.177,-13.077,-15.878,-5.602,9.389,1.741,-5.276,3.032,0.5,22.884,11.773,20.603,-3.16,92.832,6.545,-8.989
1.9803458000001228,0.564,27.425,8.781,27.286,63.069,-13.24,-0.175,3.655,-6.956,-1.946,6.284,7.414,2.814,-7.584,-11.015,-7.152,-15.33,10.917,0.202,-3.734,7.127,1.524,26.447,19.446,5.726,2.99,87.103,12.174,-7.443
1.980409100000088,3.637,25.861,8.26,31.87,57.883,-14.251,-2.736,-0.959,-6.437,-2.457,7.815,4.333,3.323,-7.577,-8.954,-5.096,-17.876,11.418,-2.36,-3.73,2.509,-3.088,21.298,7.643,2.134,1.963,96.75,11.137,-9.997
1.9953302999997504,6.195,24.81,3.641,21.592,41.943,-12.7,-6.832,0.066,-7.455,-0.405,11.393,8.939,9.468,5.238,-2.798,-4.066,-4.026,19.092,7.377,0.372,-1.079,3.063,18.715,3.537,-0.942,1.449,105.875,11.126,-12.549
1.99539249999998,10.288,30.933,5.174,26.693,46.0,-9.614,-4.776,5.189,-2.837,4.719,14.968,16.103,14.581,11.381,0.791,4.647,0.589,26.757,13.517,6.007,3.02,8.183,23.307,15.829,-8.626,7.082,120.114,17.262,-9.462
2.0103730999999243,7.203,28.853,3.12,30.765,52.614,-13.702,2.914,7.233,-0.785,2.665,9.83,11.476,13.03,7.783,-7.919,5.155,-6.072,19.558,4.794,2.415,-1.594,2.539,22.772,13.251,-7.592,6.563,152.781,15.708,-10.477
2.010453999999754,-3.05,21.652,-8.154,17.927,43.34,-21.373,3.935,-3.02,-11.03,-6.047,1.111,2.755,4.82,2.653,-17.645,-8.171,-11.189,8.78,-5.969,-9.371,-18.498,-5.148,11.478,-1.619,-11.171,-4.202,185.416,5.958,-18.151
2.0258278000001155,-4.584,20.606,-11.732,12.786,29.464,-22.377,-3.753,-13.776,-17.167,-6.553,-1.452,1.216,3.79,0.601,-14.553,-14.822,-14.764,12.357,-6.475,-12.947,-24.627,-9.753,5.831,-0.08,-18.844,-7.272,194.452,4.928,-17.109
2.0258952999997746,4.13,24.171,-5.573,18.92,25.848,-16.207,-8.36,-7.614,-6.903,0.113,3.673,6.337,10.959,5.211,-9.928,-6.098,-10.138,23.103,1.728,-3.713,-14.869,-3.596,18.121,10.678,-7.043,2.982,191.184,12.095,-8.382
2.0404445999997733,7.2,26.709,-5.055,14.803,25.31,-14.141,-5.278,-1.971,-3.31,-0.912,4.181,8.893,9.923,9.304,-7.356,-0.457,-2.956,23.08,5.825,1.414,-14.342,6.141,30.398,14.254,6.285,10.663,198.677,16.182,-6.837
2.040512099999887,2.069,24.12,-16.32,3.517,14.014,-18.738,-10.908,-14.777,-13.041,-6.034,-1.458,5.298,3.253,4.684,-5.812,-7.629,-9.613,14.86,1.72,-4.223,-25.598,3.061,30.368,14.752,2.692,8.091,204.114,14.116,-12.978
2.055561199999829,0.53,23.584,-22.452,4.539,4.779,-16.67,-22.68,-18.348,-12.515,-1.417,2.642,5.805,8.373,2.63,-6.831,-8.133,-16.263,14.845,2.743,-2.17,-26.597,1.009,29.825,17.811,1.665,6.034,197.762,15.127,-12.965
2.0556258999999955,6.678,29.708,-13.72,17.342,12.971,-6.407,-14.461,-1.424,-0.208,7.806,11.348,12.971,17.074,6.214,-3.238,1.096,-10.612,20.466,9.913,7.054,-19.91,9.717,33.381,18.305,8.835,9.102,199.101,18.698,-8.341
2.0704365000001417,6.671,28.654,-11.657,16.3,8.347,-2.814,0.411,3.701,0.305,7.798,7.238,9.884,11.422,-0.965,3.425,-3.003,-18.798,12.761,6.829,1.412,-27.063,6.121,28.225,11.115,5.753,5.507,207.612,12.531,-13.968
2.070503800000097,-4.094,18.379,-26.502,-1.135,-15.74,-9.472,-2.151,-8.086,-7.892,-2.456,-2.503,-2.421,3.725,-10.698,-4.263,-17.857,-32.099,-1.084,-2.399,-10.885,-40.868,-8.229,17.95,2.907,-5.524,-3.721,199.207,-0.289,-28.299
2.0855052000001706,-9.726,14.262,-30.062,-2.158,-17.773,-14.585,-1.637,-5.516,-2.761,-6.552,-2.5,-4.98,4.746,-4.027,-15.017,-18.864,-24.382,4.552,-2.909,-6.263,-45.95,-8.221,17.42,2.904,-8.08,-1.668,183.639,-2.85,-31.857
2.0855673999999453,-4.08,18.346,-20.298,11.676,-4.948,-12.009,12.709,8.322,6.975,-2.959,-0.961,-0.364,7.303,3.149,-9.367,-12.185,-17.698,13.769,-1.369,-2.671,-44.367,-4.627,19.452,2.901,-6.535,2.945,186.529,-1.823,-27.726
2.100505500000054,-2.027,19.865,-20.278,12.689,-21.849,-7.386,20.381,6.776,3.894,-6.542,-4.546,-2.413,6.271,-5.563,0.889,-15.247,-28.951,4.534,-5.466,-8.816,-44.835,-10.77,12.26,-4.274,-11.139,-3.206,202.736,-6.944,-30.26
2.1005740999999034,-4.074,17.796,-21.282,12.164,-43.856,-4.817,18.824,0.622,-0.208,-10.122,-4.542,-4.46,3.191,-13.242,1.913,-19.842,-34.045,-5.717,-9.047,-7.27,-47.864,-11.784,8.662,-5.295,-13.177,-6.276,212.78,-3.863,-26.644
2.1155651999997644,-3.558,17.778,-13.576,17.275,-38.177,-5.325,15.731,3.695,1.329,-3.964,-1.975,-4.456,1.651,-12.717,-1.675,-19.31,-30.937,-2.125,-9.55,-6.751,-52.427,-8.698,14.288,-1.703,-9.578,-0.635,209.493,5.875,-20.469
2.1306642999998076,-1.505,19.297,-12.538,11.11,-34.041,-4.807,9.568,3.691,-0.209,-2.936,-2.998,-4.963,2.162,-16.29,-0.649,-21.34,-35.517,1.463,-9.541,-14.429,-54.936,-10.738,14.786,-4.775,-8.544,-1.146,206.21,3.307,-24.547
2.130733500000133,1.058,23.376,-2.792,10.074,-39.13,2.37,7.509,3.175,0.304,-4.982,1.616,-0.348,6.77,-15.761,7.036,-18.757,-34.969,1.974,-4.92,-6.73,-51.295,-8.166,13.747,-0.672,-6.486,-1.145,214.713,2.279,-14.277
2.146690199999739,8.741,31.037,19.24,26.458,-23.209,12.614,12.112,15.468,9.012,4.757,14.422,9.899,11.887,-4.987,14.201,-6.443,-26.737,6.583,2.257,7.109,-43.559,1.064,21.418,11.112,1.718,6.54,217.572,12.011,4.693
2.1467499000000316,13.856,29.469,12.049,28.993,-11.403,12.601,15.174,22.624,11.053,11.412,20.555,13.987,12.899,-1.396,14.7,0.223,-25.174,10.675,5.841,4.541,-42.491,4.136,22.933,10.588,4.79,7.559,205.571,10.462,-8.119
2.1606089000001703,6.67,18.169,-13.579,12.058,-35.47,2.855,16.183,8.257,0.283,2.179,13.874,9.363,8.276,-7.03,13.66,-5.412,-29.759,9.127,3.786,0.95,-49.109,1.058,17.787,4.43,-1.363,2.428,203.316,-1.844,-28.604
2.160675600000104,-1.022,10.979,-14.077,7.435,-60.025,1.315,13.606,-6.608,-6.889,-5.507,4.639,3.718,2.632,-9.072,13.647,-10.53,-30.754,8.094,2.245,2.998,-53.67,-1.504,18.794,5.45,-4.435,-0.136,209.261,-4.916,-19.866
2.17563569999993,2.053,11.992,-8.94,11.526,-62.527,8.998,4.883,-6.601,-6.37,-3.965,2.585,2.69,2.117,-6.502,13.121,-11.032,-27.65,10.135,3.267,2.995,-54.641,-0.99,21.849,6.982,1.205,-1.673,208.539,-2.862,-15.235
2.177357000000029,10.76,17.616,-14.567,8.441,-65.026,10.526,-0.757,-6.082,-7.388,-2.424,8.73,5.761,4.164,-2.397,16.694,-8.459,-23.524,12.174,4.289,5.554,-52.537,4.646,24.389,14.659,12.474,3.964,211.917,2.776,-23.417
2.1918706999999813,16.897,27.332,-5.331,10.481,-69.571,9.491,-2.806,-10.687,-7.893,-0.373,13.332,8.829,3.135,-1.37,23.337,-4.352,-23.5,14.211,8.383,8.622,-47.362,12.326,32.562,28.477,26.294,17.28,221.951,16.606,-10.073
2.191971199999898,17.905,32.428,2.872,17.643,-66.94,13.068,-5.877,-14.263,-7.886,-1.909,11.27,6.771,0.058,-5.467,26.388,-6.397,-27.063,15.734,11.448,6.052,-49.364,12.314,36.115,29.473,30.366,19.312,221.217,21.712,4.281
2.205778200000168,11.739,28.809,-9.939,11.99,-73.533,9.468,-8.945,-18.347,-14.538,-11.129,3.574,-2.458,-4.04,-11.097,19.701,-19.198,-31.134,9.57,2.728,1.435,-60.073,3.08,27.37,18.173,18.04,9.559,213.823,10.42,-7.506
2.2058468000000175,6.092,25.194,-17.614,2.757,-88.829,3.824,-15.596,-21.915,-19.646,-14.191,-4.114,-12.701,-9.159,-14.672,10.972,-29.938,-38.788,-0.685,-10.083,-4.202,-66.16,-7.682,16.584,8.421,3.678,2.889,208.999,-0.861,-19.794
2.2206443999998555,8.135,23.12,-14.522,8.389,-93.351,10.992,-21.216,-13.184,-11.942,-4.956,-3.086,-17.812,-9.15,-18.243,11.986,-33.494,-43.872,-3.246,-11.097,-7.271,-69.68,-12.285,11.957,1.24,-2.474,-1.212,205.203,-4.959,-21.311
2.2207125999998425,7.103,22.072,-15.02,11.967,-91.208,16.104,-9.411,-1.9,-5.27,-1.877,2.041,-17.794,-6.067,-18.225,14.023,-37.046,-40.242,-2.218,-11.086,-8.289,-76.783,-17.396,9.895,-3.372,-4.52,-6.846,203.974,-5.466,-24.876
2.235650699999951,0.436,17.439,-14.493,2.734,-99.314,11.99,5.455,-8.045,-12.437,-8.535,-3.085,-18.288,-9.135,-17.695,7.861,-42.645,-41.739,-5.29,-19.272,-13.916,-80.292,-24.038,5.275,-8.492,-11.688,-11.962,202.745,-10.071,-29.462
2.237546100000145,-2.639,8.2,-17.552,0.169,-112.535,11.465,0.326,-15.722,-15.498,-11.088,-10.766,-18.27,-11.175,-20.238,8.878,-43.627,-49.381,-10.408,-21.302,-15.951,-80.212,-27.088,-3.952,-17.192,-20.386,-15.024,199.468,-20.82,-34.043
2.250709299999926,-2.636,5.63,-21.121,3.755,-117.033,13.503,-4.797,-10.071,-9.848,-7.491,-5.12,-10.567,-2.967,-18.169,19.115,-34.362,-44.721,-7.836,-10.522,-5.689,-79.62,-21.938,-3.948,-16.151,-18.316,-15.521,202.343,-24.898,-35.034
2.250775699999849,-2.633,11.773,-14.952,0.165,-115.891,15.539,0.331,-7.499,-9.325,-2.36,3.082,-0.31,4.721,-12.003,22.682,-18.446,-34.943,1.906,-1.803,4.563,-72.88,-11.158,8.864,-3.327,-9.076,-11.407,209.825,-18.213,-27.826
2.2656983000001674,0.443,9.712,-14.937,-0.859,-117.825,20.134,-2.231,-10.053,-10.341,1.228,5.128,2.251,3.691,-11.991,22.147,-12.28,-37.469,6.002,0.248,7.632,-66.147,-5.511,17.052,2.312,-8.043,-6.273,209.103,-17.682,-23.7
2.26576440000008,1.98,-0.544,-27.217,-1.371,-124.367,16.015,-5.815,-10.555,-6.744,-0.822,2.562,-3.386,0.614,-15.053,22.638,-18.927,-42.555,-0.664,-0.264,6.088,-69.667,-10.116,11.399,-1.276,-11.621,-7.291,204.283,-24.324,-30.849
2.281086200000118,-4.682,-3.618,-30.776,-15.714,-132.439,6.778,-1.711,-18.742,-10.836,-7.481,-3.076,-5.432,-3.997,-17.599,21.59,-24.544,-44.049,-5.786,-5.899,0.446,-76.77,-17.278,3.703,-5.374,-12.634,-13.432,203.566,-26.349,-36.966
2.2811487999997553,-10.825,-5.663,-31.258,-23.895,-147.676,10.357,-11.443,-27.945,-19.534,-12.597,-8.196,-7.476,-10.141,-20.143,20.032,-26.056,-47.591,-4.756,-10.504,-2.628,-78.23,-19.823,1.138,-11.516,-18.769,-14.955,204.388,-29.909,-36.416
2.2957037000001037,-10.302,-10.781,-35.325,-18.748,-167.508,12.396,-25.776,-26.892,-18.49,-14.121,-11.262,-16.178,-11.156,-20.635,16.426,-33.715,-50.105,-6.8,-9.981,-2.113,-77.127,-19.291,0.112,-16.628,-24.385,-12.379,206.232,-38.076,-34.843
2.29740559999982,-10.804,-10.77,-28.117,-21.803,-177.587,7.773,-18.066,-28.914,-17.959,-14.619,-13.812,-19.748,-8.583,-20.103,16.409,-39.829,-48.518,-8.33,-9.459,-3.648,-78.587,-18.759,-1.937,-15.586,-22.824,-13.903,209.1,-39.063,-31.222
2.31075329999976,-11.818,-10.247,-19.892,-20.757,-170.75,8.79,-5.24,-32.472,-19.991,-11.019,-8.163,-11.531,-6.525,-18.033,22.541,-33.129,-46.421,-1.15,-7.913,-0.058,-79.021,-17.203,-1.423,-13.521,-23.314,-16.963,209.916,-34.413,-30.166
2.3108148000001165,-6.683,-8.187,-23.459,-2.293,-155.722,14.416,-11.895,-25.779,-15.36,-1.786,3.628,-5.372,-1.396,-13.917,25.079,-22.337,-43.813,2.438,-2.269,5.577,-73.818,-15.137,3.702,-12.996,-27.901,-14.897,210.73,-33.354,-33.21
2.3258418999998867,2.545,0.018,-21.386,1.808,-149.418,20.037,-14.956,-18.069,-9.709,7.437,10.797,0.781,5.778,-10.829,25.567,-16.679,-39.67,-1.151,2.344,6.596,-68.109,-12.048,7.796,-9.909,-26.336,-10.271,214.618,-32.808,-30.615
2.342408500000147,7.666,3.604,-16.241,-7.416,-156.441,28.727,-4.183,-12.415,-4.576,11.528,15.909,12.564,10.383,-5.695,35.275,-8.466,-32.458,1.412,4.391,11.713,-63.43,-6.913,10.35,-3.239,-17.601,-5.65,223.113,-28.677,-25.974
2.3424755999999434,6.121,1.039,-19.811,-3.822,-162.945,29.21,-0.593,-9.329,0.551,12.541,17.43,15.113,11.397,-0.566,40.363,-1.797,-26.79,6.533,8.997,17.849,-60.293,-3.32,14.95,1.375,-8.361,-5.645,225.963,-27.111,-27.997
2.355873999999858,1.504,1.55,-25.427,-5.355,-165.343,20.472,-11.863,-18.541,-4.06,7.406,8.704,3.827,6.775,-8.763,32.126,-8.968,-31.374,4.99,10.013,13.22,-63.819,-2.804,20.059,0.861,-8.865,-7.176,218.565,-29.646,-31.555
2.355939099999887,-2.084,-1.013,-31.037,-19.695,-175.424,15.84,-19.023,-27.232,-11.741,-1.823,-2.064,-3.349,0.621,-16.951,25.433,-20.23,-40.052,1.399,3.855,7.572,-70.415,-4.338,17.989,-0.676,-14.492,-7.169,215.785,-31.665,-34.085
2.3709298999997372,-3.618,-7.16,-37.666,-23.261,-188.057,14.288,-11.832,-25.156,-9.68,-3.871,-5.135,-5.395,-0.404,-10.786,25.92,-22.771,-36.426,0.885,0.777,8.076,-68.296,-8.945,14.385,-0.676,-12.941,-9.723,219.155,-31.121,-35.588
2.3710086000000956,-3.615,-4.591,-34.554,-19.652,-188.381,14.786,-3.111,-27.18,-8.645,-0.281,-5.643,-9.488,-2.966,-11.288,29.993,-23.261,-33.828,0.372,2.313,8.581,-64.641,-9.96,17.445,2.911,-4.731,-11.763,211.764,-26.992,-32.478
2.3859400999999707,2.536,6.172,-26.323,-12.972,-177.946,26.042,-2.083,-26.128,-7.612,3.306,0.511,-3.331,-1.426,-16.912,36.623,-18.627,-37.893,3.445,6.41,11.646,-62.527,-0.729,25.112,10.593,1.934,-4.066,203.867,-18.768,-23.737
2.3860051999999996,14.317,14.875,-21.686,4.972,-170.084,36.774,2.53,-7.659,5.203,12.524,13.318,11.017,10.871,-4.087,42.734,-5.8,-28.121,9.59,13.575,18.807,-52.219,8.493,30.722,16.73,7.055,4.647,211.86,-6.966,-17.565
2.4012926999998854,19.938,18.446,-17.053,15.213,-170.938,39.299,10.724,2.083,12.883,21.221,18.94,14.08,16.496,4.626,46.79,-2.721,-15.798,12.142,16.123,20.325,-48.068,4.386,29.667,15.176,7.56,2.593,224.456,-1.836,-17.035
2.4013568000000305,16.332,15.354,-17.036,8.025,-173.329,42.333,11.226,-5.604,6.722,17.613,14.823,8.942,12.381,-6.649,46.231,-10.402,-24.491,10.08,9.96,16.206,-56.729,-3.815,23.489,7.476,-2.181,-3.557,229.355,-3.883,-19.068
2.4149250000000393,10.168,7.142,-23.679,0.333,-178.279,40.754,11.727,-7.647,6.715,11.96,12.246,7.397,11.856,-9.716,40.549,-10.392,-32.151,8.021,5.851,13.116,-57.697,-6.885,15.269,-1.24,-14.474,-9.189,226.564,-5.416,-24.172
2.4149858000000677,10.67,5.085,-26.217,1.357,-185.785,36.615,15.301,-3.029,13.369,14.51,14.283,8.414,12.356,-4.071,41.533,-7.82,-23.922,8.525,9.431,15.152,-51.492,-5.341,12.18,-3.801,-17.534,-11.741,221.727,-7.46,-30.807
2.429981400000088,19.369,11.74,-27.728,10.577,-186.624,46.824,13.749,2.097,17.454,21.155,18.367,11.479,12.856,-5.092,52.25,-5.763,-20.824,11.59,17.619,25.383,-46.829,4.91,19.34,5.937,-8.807,-6.606,226.628,-4.379,-28.215
2.4300497999997788,24.472,14.802,-33.335,16.202,-181.826,57.024,16.297,8.755,21.535,26.77,23.984,17.103,18.479,-4.062,55.784,1.927,-23.877,14.653,23.749,31.505,-39.098,13.102,26.493,12.079,0.936,-1.989,234.598,4.847,-23.064
2.4450519000001805,14.714,3.517,-43.036,0.304,-186.768,47.233,17.817,1.574,17.415,22.644,16.788,11.451,15.899,-2.009,47.019,-2.173,-24.366,11.052,16.553,21.228,-42.133,1.306,18.782,0.796,-8.287,-8.135,227.704,-4.892,-36.873
2.4451177999999345,4.965,-8.27,-54.776,-14.553,-197.339,38.476,2.943,-14.821,6.639,12.376,3.451,1.193,7.686,-6.105,41.336,-19.077,-27.415,5.405,8.339,14.034,-52.337,-8.429,12.103,-5.352,-18.524,-12.737,221.328,-20.256,-52.718
2.4600156000001334,13.157,-1.089,-51.647,-0.706,-199.191,46.123,-6.282,-11.221,9.194,14.925,8.571,4.778,11.265,-3.025,46.93,-15.472,-23.802,10.011,20.114,23.754,-42.038,6.949,24.386,11.047,-3.649,-4.528,231.865,-6.916,-40.882
2.4600744999997914,22.366,9.158,-30.591,12.102,-202.066,53.249,3.971,0.061,14.82,21.058,18.809,9.384,14.839,-0.973,52.519,-3.673,-17.63,16.661,29.316,30.902,-31.75,16.163,33.583,20.257,11.212,0.6,238.806,8.973,-24.96
2.4750315000001137,16.708,5.05,-21.851,8.504,-210.573,51.659,6.528,-7.111,8.658,16.426,11.617,3.227,9.702,-8.657,48.88,-11.867,-21.711,11.521,19.552,26.261,-39.403,6.413,28.427,11.015,3.003,-2.987,236.006,2.816,-25.959
2.4751102999998693,23.351,14.267,-21.317,23.865,-203.702,57.755,4.985,-4.542,12.747,24.606,17.753,9.884,15.84,-4.037,53.954,-9.293,-20.665,10.485,20.558,30.333,-33.216,9.481,29.935,13.566,0.951,0.602,245.503,12.547,-17.736
2.49014249999982,47.406,37.819,-9.0,44.333,-186.08,73.578,13.177,20.565,31.178,46.099,43.351,30.366,30.681,7.237,72.856,13.77,-8.349,20.721,35.906,43.11,-15.764,22.791,35.028,26.36,6.586,11.872,262.164,35.076,-3.886
2.4902078999998594,50.433,36.756,-8.991,31.481,-191.017,79.14,14.7,27.205,36.27,47.077,47.406,31.873,32.187,1.083,76.881,15.805,-12.439,19.675,33.309,42.043,-17.797,19.182,28.846,20.186,-3.155,11.348,262.927,31.455,-8.493
2.5050882000000456,39.112,24.424,-24.352,14.031,-204.659,66.253,11.099,15.395,28.036,38.321,32.502,23.644,27.032,-3.017,65.534,4.519,-19.599,11.971,22.517,34.828,-23.415,9.942,22.669,9.92,-5.201,4.165,256.516,22.202,-14.12
2.5204899000000296,43.171,32.597,-25.352,25.288,-197.794,60.552,21.335,18.965,28.008,41.356,32.982,27.206,30.078,6.72,68.542,8.101,-9.333,16.57,28.13,37.867,-17.756,12.493,27.77,17.082,5.05,6.722,259.846,27.815,-10.52
2.5205534000001535,49.788,38.712,-20.203,30.898,-196.059,71.25,31.559,26.631,32.079,41.827,40.633,28.204,31.585,5.176,78.207,10.654,-4.713,20.139,35.274,43.977,-14.665,20.678,32.865,21.676,1.459,11.838,265.221,29.836,-14.095
2.5351549000001796,46.152,30.989,-27.868,16.01,-213.794,73.74,32.04,19.432,28.973,37.687,37.519,21.003,27.967,-3.026,74.543,8.082,-12.393,14.996,32.677,43.933,-11.576,23.731,30.783,17.556,-2.641,9.777,264.956,25.196,-19.717
2.535218200000145,46.618,28.908,-37.574,8.822,-218.191,64.957,28.934,13.777,24.333,38.674,32.871,19.958,23.329,1.076,72.932,10.123,-13.405,13.957,29.571,42.352,-9.003,20.633,27.166,18.05,5.047,8.743,264.179,23.121,-20.209
2.550205399999868,48.621,27.855,-43.684,5.739,-209.263,64.38,17.122,14.276,21.235,35.561,30.788,20.45,20.232,5.685,75.42,8.576,-10.318,15.48,29.029,40.773,-14.629,17.026,28.163,17.52,1.968,8.734,261.865,18.488,-24.8
2.5520440000000235,45.498,22.192,-45.69,-1.951,-213.153,69.438,4.297,11.188,19.164,33.477,28.196,15.306,20.724,2.606,70.734,4.469,-7.746,17.513,29.0,40.732,-15.639,18.546,31.721,15.453,-4.182,7.701,259.042,16.42,-26.824
2.5652586999999585,48.014,26.78,-38.984,7.273,-214.989,69.369,8.904,14.25,22.219,37.542,29.193,16.828,22.24,5.677,67.589,8.051,-0.053,25.693,32.557,42.741,-9.988,22.114,36.3,23.122,7.093,9.23,260.32,23.063,-19.113
2.5653314000001046,51.552,33.926,-30.236,24.171,-203.503,68.275,26.313,23.458,27.32,36.992,32.75,23.471,21.705,10.282,71.108,12.141,3.533,30.278,34.061,42.698,-9.466,21.58,40.875,28.222,17.844,12.295,263.133,29.188,-11.921
2.580267499999991,48.427,29.793,-25.595,19.024,-205.349,68.719,33.972,23.946,28.317,37.467,36.303,23.448,24.245,7.71,74.111,11.616,-0.569,24.1,28.392,39.581,-11.506,15.41,38.272,22.046,13.216,11.258,261.333,29.671,-12.934
2.580330799999956,42.743,20.542,-26.594,5.685,-223.074,69.675,27.278,18.799,26.752,41.528,34.73,21.375,28.319,6.166,74.549,6.482,-3.13,18.953,23.753,35.956,-15.08,6.686,26.451,13.828,2.444,3.562,258.51,21.957,-17.532
2.59522620000007,41.164,14.886,-27.592,11.315,-228.999,72.167,25.714,21.854,28.775,40.974,33.67,24.428,28.291,11.283,75.499,3.914,-0.053,23.544,25.778,34.895,-16.602,5.654,21.814,11.764,0.905,-1.565,261.326,12.713,-18.539
2.5952856999997493,46.245,17.945,-19.879,26.16,-219.036,77.73,36.959,33.103,35.406,47.081,40.297,31.575,33.386,17.931,79.01,14.156,7.119,30.693,31.9,42.545,-10.438,15.383,32.551,18.413,8.588,5.609,266.187,18.848,-13.397
2.610205599999972,48.761,21.513,-15.761,27.159,-216.255,79.701,42.557,39.73,35.37,54.206,44.355,33.081,35.402,16.376,80.98,20.29,6.087,28.101,33.917,49.162,-6.841,19.978,35.08,22.493,6.531,11.239,263.872,24.977,-13.896
2.6119094000000587,38.466,12.782,-23.43,15.861,-229.359,73.474,32.781,30.469,24.064,42.369,33.552,22.802,24.608,6.114,76.288,7.974,-6.726,19.364,28.248,40.916,-11.445,11.761,26.335,11.199,-4.234,2.006,257.46,12.145,-21.055
2.6253578999999263,30.23,6.11,-20.845,12.771,-241.937,67.253,28.137,17.631,16.356,29.007,23.272,13.557,17.411,1.497,71.601,0.281,-11.33,15.758,22.585,33.703,-14.508,6.626,24.26,3.504,-2.181,-4.144,258.228,4.448,-19.497
2.6254242999998496,31.225,10.714,-12.115,18.906,-249.892,70.26,27.597,15.052,17.876,31.539,23.249,14.056,19.955,3.545,74.603,1.306,-8.245,15.742,20.0,36.743,-14.493,5.595,22.186,9.136,-2.179,-2.09,262.068,10.591,-14.866
2.640350600000147,29.657,8.654,-19.787,12.74,-263.987,72.751,18.347,13.5,19.395,34.069,20.664,14.042,18.91,2.004,76.578,-3.819,-11.311,11.628,17.931,35.682,-16.016,1.491,14.992,5.54,-13.447,-5.162,262.83,5.457,-20.487
2.6404145999999855,27.066,0.961,-29.501,1.968,-270.383,70.629,13.206,11.437,21.937,31.473,18.594,11.466,18.892,2.002,72.403,-6.377,-13.349,11.617,17.913,32.572,-14.463,1.489,18.05,-0.613,-11.385,-5.669,266.666,-2.233,-23.54
2.656489899999997,31.137,0.96,-29.472,2.991,-263.453,73.12,18.316,14.499,26.526,31.442,23.187,11.967,21.946,4.562,73.867,-3.809,-11.798,13.142,19.432,36.126,-12.911,4.049,20.594,4.511,-3.176,-0.54,265.887,1.356,-22.492
2.6565553999998883,36.229,7.107,-30.467,5.55,-260.628,78.682,25.47,18.071,28.037,37.046,29.311,19.128,20.9,0.459,81.478,-1.243,-9.737,12.616,20.95,39.676,-11.362,4.558,15.45,9.117,-3.173,-1.565,263.06,5.965,-23.494
2.6703379000000496,50.025,21.957,-22.24,16.815,-254.732,87.825,33.129,28.299,37.23,51.866,42.602,34.478,30.613,6.094,89.081,15.664,2.055,21.825,33.224,47.833,0.945,16.336,28.755,17.817,9.638,5.097,275.604,19.279,-11.688
2.6853571999999986,64.832,38.841,-6.336,34.216,-238.083,99.008,37.707,41.591,48.464,62.572,57.416,44.177,44.415,20.945,95.652,29.993,11.787,33.074,44.462,58.031,14.264,29.128,47.681,33.169,24.485,22.51,290.698,39.752,8.304
2.685424100000091,64.767,38.802,-5.817,32.645,-229.648,95.323,29.984,37.451,42.267,55.85,56.846,39.522,40.272,18.874,98.118,20.742,5.628,29.967,39.806,55.412,13.225,28.074,44.048,34.16,19.337,25.562,288.358,44.835,11.882
2.700419299999794,66.239,37.739,-8.373,28.002,-228.394,89.08,25.856,33.827,37.614,54.257,53.716,40.507,37.67,14.757,99.557,19.184,6.647,31.474,41.816,55.356,14.749,31.632,44.516,34.126,20.343,22.975,289.606,46.328,10.845
2.7004962999999407,71.296,45.386,1.369,39.245,-229.702,98.212,30.953,43.527,47.823,62.912,57.76,47.127,45.829,20.89,103.044,28.899,14.837,39.64,53.557,64.01,20.37,39.285,54.205,39.727,26.982,27.05,296.489,53.454,19.031
2.7153551000001244,59.954,39.192,-2.731,35.107,-248.428,98.114,26.824,34.774,44.189,54.652,48.481,36.833,37.586,13.184,98.842,14.525,4.576,27.305,42.745,55.749,10.616,27.463,41.343,26.367,12.611,19.851,289.02,42.129,12.865
2.715417299999899,48.623,22.759,-21.683,17.141,-266.11,82.134,18.6,16.297,29.8,40.253,34.6,24.501,22.18,0.364,90.546,-3.42,-7.724,10.884,27.333,42.886,0.871,13.09,25.42,10.972,-3.283,9.072,278.997,25.693,-4.054
2.7303876999999375,51.136,17.101,-26.272,9.439,-269.943,82.564,22.68,19.866,33.356,41.75,33.029,26.526,26.256,3.949,91.48,2.219,-4.642,14.459,31.917,48.478,5.481,15.127,28.469,14.547,-1.231,10.6,281.792,23.106,-9.173
2.7304457999998704,46.474,12.986,-23.685,3.794,-282.481,93.24,28.293,27.019,38.446,46.831,35.557,25.987,31.865,4.97,92.926,-0.345,-3.101,15.981,31.372,50.479,1.889,13.575,27.928,10.434,-2.254,9.565,283.56,16.935,-12.238
2.7454791999998633,42.842,6.825,-26.222,6.865,-292.957,96.221,26.215,30.066,36.359,47.296,37.059,23.912,29.272,2.916,90.271,-12.128,-6.684,7.768,20.583,42.744,-6.309,5.364,20.728,1.202,-7.375,3.408,282.252,10.771,-16.324
2.7455442999998922,48.434,7.843,-24.659,17.104,-283.442,100.223,26.701,37.208,41.445,49.298,39.071,26.962,29.755,6.499,92.743,-11.091,-7.702,7.248,19.025,44.751,-1.692,4.846,21.219,8.885,-4.294,4.429,282.482,13.834,-13.234
2.7604879999998957,44.287,5.273,-23.098,5.816,-280.597,101.66,31.798,31.535,42.941,48.737,38.007,24.886,28.188,-0.167,92.65,-7.494,-11.793,6.729,21.568,47.78,1.895,5.866,21.711,10.926,-1.728,3.4,283.224,9.209,-11.172
2.760551899999882,43.731,3.731,-21.538,-3.411,-285.44,98.997,35.864,25.868,38.287,51.249,42.58,27.935,28.16,-4.778,93.069,-2.876,-9.219,5.697,28.206,49.781,4.455,9.959,25.275,6.816,2.884,3.397,288.576,7.151,-10.136
2.7758201999999983,61.105,15.511,-11.782,18.109,-281.056,105.045,39.414,37.626,42.347,58.883,53.296,38.665,35.304,4.961,106.809,6.349,-1.525,11.327,38.936,58.441,16.746,21.22,34.984,17.056,8.005,13.639,299.558,19.951,-0.392
2.775883100000101,71.29,24.204,-7.16,28.849,-285.898,112.625,37.838,39.637,43.329,59.336,55.804,37.089,33.732,3.419,115.923,6.855,-4.598,11.828,37.36,62.481,20.828,22.735,35.461,22.674,2.874,17.724,305.919,27.616,4.732
2.790526199999931,71.731,24.18,-7.665,21.136,-293.809,114.562,30.628,31.401,39.188,57.228,54.211,33.979,28.575,-0.683,112.734,4.799,-5.105,7.718,31.688,60.881,14.147,16.565,27.741,18.041,-0.203,15.657,311.76,28.613,4.727
2.790588200000002,76.783,29.279,-2.534,25.725,-283.781,117.008,27.523,31.882,41.71,59.732,57.743,41.117,34.694,8.027,111.596,7.868,2.072,11.296,34.217,62.357,19.768,22.184,27.713,18.022,1.846,19.228,304.276,29.609,8.308
2.805534499999794,73.632,27.2,-7.655,23.651,-278.886,111.768,22.373,26.727,38.082,56.086,54.612,39.027,35.172,8.531,108.923,3.249,0.533,11.797,34.696,60.246,22.31,23.698,27.685,13.394,-9.939,15.11,271.697,20.358,0.615
2.8056006000001616,61.263,14.878,-23.529,3.135,-287.317,101.41,12.617,17.991,29.847,49.882,45.335,30.278,27.964,4.424,104.716,-4.951,-2.029,7.687,29.538,57.112,8.968,11.379,22.022,3.646,-22.224,2.8,239.15,10.604,-14.242
2.8205362999997305,58.128,13.838,-26.579,-0.455,-290.103,104.383,9.53,22.071,34.428,49.32,44.266,32.297,28.448,8.006,106.66,-7.508,0.022,7.679,25.922,59.616,4.86,7.782,18.926,4.155,-19.64,3.821,238.398,14.179,-13.203
2.820594700000129,61.144,19.972,-23.991,10.304,-297.498,111.451,15.156,26.66,40.541,51.832,48.32,31.753,29.957,6.461,108.603,-8.525,-2.027,7.159,24.872,57.507,13.565,14.434,22.494,6.712,-17.059,10.99,270.435,15.702,-9.092
2.8355891999999585,60.57,21.489,-24.991,11.831,-308.471,112.876,23.338,27.658,39.476,55.879,51.345,28.135,28.902,5.942,111.056,-5.955,-2.025,5.103,30.482,57.962,16.625,13.907,28.107,8.243,-14.481,11.491,270.677,11.588,-16.255
2.8356511000001774,58.973,19.931,-27.528,5.159,-308.675,114.813,28.95,32.241,41.998,57.872,52.319,28.107,29.898,9.522,116.58,-7.486,-0.486,5.098,33.013,63.027,16.608,11.844,28.078,12.333,-8.318,9.43,255.037,10.551,-17.776
2.8505890999999792,53.278,13.251,-32.111,0.031,-318.1,112.136,23.286,30.672,42.469,51.155,45.606,21.418,22.696,-3.295,110.316,-17.724,-8.683,-3.617,21.709,53.742,12.493,7.734,18.317,7.71,-9.335,3.786,252.22,10.029,-11.098
2.8506517999999232,49.639,9.651,-28.493,6.691,-334.688,105.876,21.213,27.567,36.791,44.956,37.876,13.2,14.989,-13.538,101.496,-23.854,-14.822,-13.347,15.028,42.418,5.308,-2.008,11.638,4.628,-12.911,-1.854,248.894,12.58,-6.476
2.865653100000145,54.712,18.351,-14.12,16.93,-332.304,109.869,30.926,30.613,34.705,48.497,39.887,14.724,20.097,-4.815,109.592,-26.904,-13.27,-11.284,20.648,50.06,7.352,-1.493,14.188,10.771,-10.849,3.784,250.695,18.203,0.191
2.865718399999878,59.268,22.943,-10.007,15.889,-328.898,116.932,29.358,31.607,33.645,53.059,42.921,16.758,21.101,-4.298,116.142,-30.976,-13.257,-9.736,20.115,55.133,12.468,6.193,15.711,9.736,-10.838,7.878,263.252,18.697,3.264
2.8806346999999732,60.746,19.847,-16.657,15.873,-334.205,114.765,19.082,30.551,32.587,54.031,40.829,16.229,15.957,-8.904,112.44,-25.31,-11.194,-13.825,16.509,51.492,13.48,7.211,16.72,7.677,-9.803,6.846,266.062,18.166,-1.35
2.8960203999999976,63.247,19.827,-17.665,15.857,-331.821,113.626,22.137,27.959,33.067,52.44,43.35,19.799,22.089,-0.699,114.377,-17.6,-6.572,-12.274,23.152,56.563,20.127,8.228,21.826,13.305,-5.695,10.937,267.845,16.099,1.725
2.896080500000153,59.085,13.659,-20.209,0.984,-340.199,112.488,22.627,18.197,25.861,45.727,41.77,19.267,23.091,0.839,115.287,-21.681,-9.127,-11.237,23.641,56.507,21.131,8.733,18.218,7.656,-10.812,7.34,295.755,8.398,2.236
2.91062090000014,47.243,0.838,-29.41,-8.751,-363.937,103.666,9.797,8.958,19.176,39.022,30.457,12.588,13.847,-5.822,105.95,-30.368,-9.118,-14.3,15.421,47.229,9.839,-1.01,7.954,-4.135,-21.56,-5.987,328.247,-2.369,-9.037
2.9106818999998723,45.659,2.374,-29.893,-1.57,-366.134,102.025,8.25,10.486,25.816,42.056,29.914,13.6,15.882,-1.205,102.77,-29.825,-1.936,-10.699,17.455,49.231,8.805,-4.595,9.995,-3.106,-21.026,-4.956,349.947,-2.879,-9.54
2.925655099999858,58.933,16.204,-19.105,5.092,-349.374,114.219,22.074,20.209,34.5,51.748,44.229,21.271,24.575,2.895,111.377,-23.136,1.652,-4.541,24.097,55.842,22.116,7.193,21.256,5.094,-12.808,5.807,352.159,7.37,3.277
2.9274860000000444,65.022,20.799,-12.938,8.161,-344.414,119.74,24.101,27.361,35.49,55.795,48.796,22.787,22.502,-5.818,115.876,-21.575,-5.522,-9.147,23.049,53.737,26.192,9.235,23.284,10.212,-11.258,4.264,347.196,12.486,5.835
2.9407117000000653,53.174,13.093,-20.097,5.591,-350.218,111.423,11.27,22.723,31.868,50.616,39.525,15.079,17.356,-12.984,110.125,-28.214,-15.763,-18.359,15.853,50.097,20.018,-2.558,16.088,9.69,-15.345,-0.863,346.849,4.276,-1.343
2.940777100000105,44.924,4.883,-30.324,-4.149,-353.454,106.189,9.721,15.528,27.738,44.93,35.9,9.941,16.314,-12.459,103.867,-33.309,-19.333,-20.903,11.739,45.948,19.998,-4.092,14.023,6.094,-12.256,1.187,345.477,-1.876,-6.977
2.955734499999835,52.051,7.952,-27.732,-1.071,-350.026,106.595,18.933,21.66,27.71,45.397,39.45,11.468,15.785,-5.786,104.275,-33.275,-11.117,-17.296,14.289,43.341,26.126,4.621,20.157,11.211,1.076,3.235,339.497,1.2,-7.995
2.955796299999747,56.098,15.629,-20.019,5.078,-344.041,104.439,19.427,25.225,29.732,46.889,37.873,10.432,15.77,-2.194,107.757,-37.341,-8.032,-17.278,16.324,44.834,28.149,4.104,22.698,14.786,4.149,4.256,339.669,5.297,-1.327
2.9707313999997496,49.894,12.539,-21.024,-5.173,-347.795,101.773,15.821,19.052,25.091,42.231,32.2,3.249,10.631,-11.414,106.625,-42.426,-17.758,-21.872,12.209,43.252,25.047,-3.072,18.577,9.648,-5.077,4.252,344.453,8.366,4.31
2.970794400000159,51.893,11.502,-23.564,-4.143,-352.058,104.233,20.928,19.033,25.578,40.14,34.729,4.783,8.571,-14.476,106.006,-36.749,-17.228,-18.776,12.709,44.746,30.145,0.005,18.558,13.224,-4.56,6.81,345.133,13.481,1.232
2.985790100000031,63.112,21.224,-20.979,11.23,-341.46,109.252,22.957,25.161,35.799,51.37,44.941,20.66,20.858,-0.629,113.072,-20.318,-2.354,-5.95,26.016,57.509,47.534,12.812,26.224,20.896,3.13,15.0,350.423,15.516,-0.819
2.987506399999802,71.758,25.302,-19.934,12.244,-333.434,116.827,20.372,28.722,40.374,63.102,55.654,36.52,32.62,8.593,123.718,-3.392,7.382,2.766,40.335,68.722,61.318,24.583,35.932,22.924,4.663,20.62,360.319,17.038,2.768
3.000804100000096,75.785,24.764,-16.328,11.719,-341.297,125.932,24.962,31.767,38.797,65.088,63.796,42.119,32.075,6.535,130.254,4.809,5.838,3.275,43.368,70.703,67.405,28.657,40.507,28.024,6.196,20.599,366.106,20.607,5.327
3.0008669999997437,73.148,25.252,-9.139,20.929,-355.813,127.343,24.938,31.223,37.221,63.486,63.22,39.003,29.994,1.918,128.587,0.706,0.197,2.247,35.128,67.558,66.825,19.919,32.782,23.898,3.628,17.505,369.839,17.0,4.297
3.0158627999999226,63.853,12.419,-17.327,9.637,-376.462,116.969,11.593,22.995,31.548,58.3,51.373,28.718,25.353,-9.355,120.774,-10.566,-5.951,-3.903,23.31,57.245,56.512,4.53,20.453,5.943,-10.72,8.266,367.42,2.126,-6.466
3.0159373000001324,56.104,-1.938,-29.605,-9.328,-398.115,114.803,2.359,16.824,27.418,51.069,45.687,21.005,19.692,-13.444,117.579,-18.24,-9.531,-10.046,20.213,52.577,53.382,0.939,16.334,2.351,-19.419,1.598,361.417,-8.634,-18.242
3.031273399999918,58.61,5.236,-21.891,-0.097,-404.889,124.934,11.579,17.832,33.026,53.58,51.789,26.619,23.259,-3.697,123.609,-13.611,-4.911,-3.889,26.34,63.795,67.161,10.672,21.954,14.132,-10.69,7.744,369.252,-5.552,-14.638
3.0313513999999486,63.674,12.915,-11.11,13.735,-403.972,128.396,18.739,23.962,35.555,58.137,53.274,33.253,26.309,-0.107,131.17,-5.4,3.803,6.874,33.486,69.879,74.778,14.247,28.592,17.704,-3.507,13.884,380.154,-0.423,-8.475
3.045800599999893,59.0,2.656,-20.833,5.012,-414.838,122.12,10.011,25.475,30.909,52.956,46.56,27.584,21.672,-3.693,132.064,-9.494,5.336,9.428,32.428,63.149,70.605,9.622,29.075,13.075,-7.602,9.771,377.212,-5.546,-15.127
3.0475679999999556,51.769,-5.031,-32.083,-6.263,-435.428,120.973,9.489,18.277,31.39,48.292,43.44,21.409,19.089,-2.152,128.345,-17.681,-1.841,4.808,30.346,62.061,72.583,10.637,26.485,9.988,-9.131,5.663,379.909,-12.713,-17.161
3.060809799999788,54.278,-0.415,-28.465,0.403,-449.337,125.463,24.849,18.259,33.92,49.78,45.446,24.973,20.094,-1.638,129.242,-12.028,-2.352,3.266,33.39,66.61,78.659,16.774,30.044,13.564,-2.975,7.707,392.337,-7.577,-9.459
3.060873899999933,59.859,4.196,-21.776,8.087,-453.499,133.022,26.361,23.876,31.837,51.268,47.962,26.485,21.611,-4.198,136.797,-5.868,1.237,5.312,35.918,67.568,82.678,17.782,33.088,17.137,-2.972,11.285,396.043,-1.934,-8.937
3.0757896999998593,58.775,3.167,-22.779,-0.118,-461.755,135.963,12.502,16.68,31.293,51.729,49.963,24.922,23.639,-5.731,139.222,-10.473,-4.912,2.233,33.321,66.476,85.67,14.178,26.395,9.435,-12.19,10.249,396.671,-8.08,-12.002
3.0907600999998976,61.79,1.627,-26.342,-8.315,-470.002,133.777,12.49,11.54,33.823,54.751,52.475,28.483,24.64,-6.749,137.033,-11.487,-7.981,-1.355,32.775,67.434,87.121,12.115,20.733,3.278,-17.813,5.628,400.373,-12.682,-10.966
3.0908187,69.413,6.236,-22.218,3.477,-460.823,137.742,22.211,23.312,36.863,61.868,58.058,35.115,29.226,-3.157,139.97,-2.766,0.736,4.794,33.254,70.952,91.644,14.152,23.786,7.886,-18.308,7.16,399.46,-7.547,-9.93
3.1057510999999067,66.27,9.304,-17.072,13.207,-452.677,140.678,19.115,27.899,36.314,63.856,59.024,33.543,32.271,0.945,139.318,-4.813,1.248,7.351,28.098,67.295,93.09,12.089,23.25,2.242,-21.363,7.665,393.426,-7.539,-6.334
3.105811200000062,56.982,3.147,-19.105,-0.126,-468.106,132.341,12.948,18.137,30.642,56.619,51.281,27.874,25.066,-1.105,134.055,-16.079,-4.901,-0.854,23.459,58.519,86.849,5.929,17.079,-5.957,-22.879,-0.028,394.057,-13.679,-3.254
3.1208802999999534,58.974,0.07,-22.159,-10.372,-485.569,133.745,13.96,15.558,29.075,54.001,50.205,28.87,20.943,-0.592,137.508,-11.452,2.788,1.709,27.022,63.071,92.397,8.484,19.624,2.246,-20.295,0.485,401.86,-13.153,-8.886
3.1209493999999722,64.55,4.168,-28.797,-6.263,-496.354,145.907,10.872,19.641,33.144,58.046,56.302,30.891,24.508,3.507,143.518,-2.219,8.933,11.441,30.069,71.205,103.576,12.574,22.166,4.293,-24.373,7.657,401.97,-14.165,-18.611
3.135871500000121,59.875,0.066,-39.527,-8.819,-512.764,143.199,5.226,17.059,31.062,54.402,52.66,27.274,21.922,-0.595,145.423,-12.463,0.727,5.794,26.965,64.474,97.325,7.951,18.045,-4.933,-29.984,4.063,395.933,-20.81,-25.252
3.135938399999759,60.84,-1.471,-35.389,-5.736,-521.985,144.081,8.294,21.653,34.617,56.396,51.582,27.247,23.437,-1.619,148.864,-16.549,0.214,2.202,31.549,65.946,98.764,12.042,24.687,5.318,-18.171,2.522,407.832,-16.179,-20.616
3.1518950999998196,67.439,6.727,-24.595,7.59,-521.463,157.769,15.971,31.365,46.365,68.123,60.24,31.83,29.561,2.994,149.228,-5.262,7.386,9.372,38.177,75.614,113.522,21.763,33.884,20.682,-6.369,10.716,429.966,-6.941,-13.423
3.151957300000049,60.199,1.597,-31.743,-2.152,-534.774,154.025,18.516,22.625,40.171,64.469,51.983,24.114,22.871,-4.182,142.931,-13.453,-1.843,0.141,30.967,66.317,106.749,12.008,22.067,10.415,-15.072,7.119,427.487,-14.619,-21.095
3.165860099999918,53.479,-5.577,-36.322,-9.834,-553.194,144.65,13.887,12.868,28.348,52.621,42.197,14.868,17.725,-10.837,143.812,-26.76,-11.575,-11.642,23.763,59.591,99.47,2.262,11.799,0.671,-22.23,-2.622,417.325,-21.777,-26.197
3.1659269000001586,66.233,9.286,-22.965,14.766,-551.104,157.313,7.213,26.175,39.59,60.766,57.524,26.636,25.392,-3.142,151.866,-15.462,0.732,-0.36,33.473,73.363,119.35,15.067,26.644,16.04,-12.986,5.066,431.765,-6.898,-8.24
3.18088009999974,73.852,16.961,-16.795,19.362,-548.504,167.401,10.28,36.395,47.235,69.926,64.639,35.319,26.392,-1.09,155.3,-6.225,8.416,9.887,41.125,78.413,128.452,24.786,38.913,25.245,-8.874,12.745,444.653,2.843,-0.547
3.180946800000129,67.118,3.112,-24.463,-5.76,-563.837,162.623,18.979,26.113,37.967,63.709,53.816,26.574,22.779,-4.675,157.706,-12.879,-1.326,3.729,35.448,70.65,119.615,16.564,30.164,12.925,-10.915,6.585,442.159,-7.406,-13.354
3.19596300000012,68.075,3.109,-26.487,-3.193,-570.445,162.461,14.861,21.988,39.978,59.547,56.324,25.523,25.83,-1.084,159.085,-15.428,-1.325,0.139,31.826,70.579,125.131,13.474,21.425,9.325,-9.367,6.578,447.865,-9.448,-13.853
3.1960398999999597,73.13,12.327,-23.899,13.717,-565.264,161.786,3.063,26.577,43.012,59.999,58.829,27.547,23.243,0.966,154.828,-14.388,7.386,3.726,34.356,71.021,131.153,18.584,24.477,19.05,-11.407,13.231,453.565,-1.242,-5.642
3.2099395999998706,70.496,7.704,-23.875,5.506,-572.896,155.989,1.523,21.427,34.259,55.841,49.548,22.908,19.121,0.966,155.697,-16.423,4.817,4.746,33.297,69.413,127.436,17.028,25.99,18.006,-12.42,9.632,447.476,-6.363,-9.735
3.210015099999964,67.864,2.573,-25.388,-2.184,-579.495,159.419,5.108,19.869,36.787,56.297,53.085,26.472,25.762,1.989,162.714,-12.308,1.738,4.229,30.702,71.393,131.407,11.888,21.353,8.767,-13.944,5.524,448.053,-17.115,-16.898
3.224942700000156,66.771,3.083,-32.535,3.966,-570.207,160.796,-1.045,25.997,43.922,60.852,59.692,31.056,26.761,-3.648,160.502,-11.783,1.224,-0.386,30.159,69.785,135.374,10.339,16.721,5.172,-22.64,5.518,449.654,-20.172,-20.467
3.225006399999984,66.704,-1.019,-38.65,1.913,-568.612,158.074,-6.679,21.36,37.731,60.791,55.021,26.414,23.148,-6.206,153.169,-15.87,-2.363,-6.021,31.154,66.641,135.238,12.378,18.754,4.654,-22.617,3.464,445.618,-23.226,-25.057
3.2399695999997675,68.175,-4.604,-33.489,-4.749,-582.9,160.99,3.574,17.753,37.693,61.242,59.065,30.998,28.248,0.972,158.139,-11.243,1.225,-2.941,34.196,70.673,141.251,14.415,26.419,6.699,-12.348,3.46,451.833,-24.227,-24.52
3.2400337999997646,62.983,-8.185,-32.943,-6.281,-594.1,160.829,15.353,23.37,42.266,62.718,60.543,34.554,27.707,-1.59,163.104,-10.72,5.323,-1.401,31.601,69.577,140.085,9.277,23.319,6.18,-16.434,2.432,455.479,-23.691,-23.471
3.254956299999776,56.26,-14.325,-41.619,-4.738,-601.191,154.008,8.166,20.273,35.051,58.045,48.187,21.711,16.409,-8.761,155.769,-24.029,-4.416,-8.572,22.86,59.262,130.211,-3.027,11.0,-3.048,-22.566,-6.792,445.29,-31.352,-29.082
3.2704758999998376,59.79,-11.237,-40.553,-2.684,-602.126,157.952,0.473,16.154,29.893,54.4,45.577,17.591,16.905,-3.629,151.515,-28.103,-5.949,-9.588,22.325,58.178,133.667,-4.049,14.063,-4.069,-14.858,-8.322,445.869,-32.857,-27.516
3.27054279999993,69.464,-0.979,-29.754,-0.632,-594.864,166.504,17.378,27.409,39.085,60.494,53.728,27.307,26.109,2.522,160.072,-16.292,7.377,-3.431,31.524,69.39,148.39,9.787,27.882,9.767,-8.184,3.469,455.67,-17.967,-15.706
3.284984099999747,77.592,6.194,-22.552,5.004,-589.659,169.411,30.681,37.115,46.73,66.581,57.261,29.842,28.645,0.983,167.597,-11.153,9.419,-1.378,36.616,73.42,156.951,19.512,30.415,16.93,-6.126,9.614,457.263,-6.679,-6.981
3.2850438000000395,79.563,10.286,-23.042,11.659,-588.044,168.729,15.793,33.492,43.098,63.953,57.204,28.787,27.079,-0.043,164.868,-15.24,-0.324,-2.401,34.53,68.735,155.77,14.881,26.286,12.814,-3.046,7.043,457.83,-6.16,-6.974
3.299988199999916,74.873,9.251,-24.556,8.573,-585.919,165.487,10.142,25.774,36.394,59.79,53.048,28.758,23.978,-1.067,161.629,-16.762,-1.349,-2.911,32.958,68.667,151.003,11.28,26.26,10.752,-7.142,6.011,457.885,-3.08,-10.553
3.3017666999999165,75.31,9.754,-20.433,12.151,-582.26,168.907,23.452,25.236,41.481,65.366,55.044,29.242,24.467,0.983,166.59,-13.671,3.263,-3.42,34.462,73.209,154.951,17.929,26.746,13.303,-8.671,8.566,458.452,7.682,-6.444
3.3151076999997713,82.92,21.016,-14.777,30.069,-571.944,182.059,18.818,36.994,51.173,75.547,68.821,37.41,33.151,6.617,174.621,-8.022,7.359,1.194,40.063,74.16,165.042,24.059,28.769,15.339,1.071,12.656,469.776,19.457,3.296
3.3151742999998532,81.812,23.556,-19.373,31.064,-567.786,185.975,8.041,42.592,47.536,74.447,66.703,37.372,33.118,3.537,172.909,-9.551,7.351,2.217,41.048,72.549,160.266,20.961,27.203,13.274,0.045,13.156,470.331,23.024,0.731
3.3301071000000775,73.021,12.774,-27.038,12.59,-580.538,175.03,17.766,30.254,39.292,65.151,51.78,24.527,23.863,-4.663,168.126,-17.738,1.196,-5.47,35.884,71.964,152.421,16.841,22.053,8.138,-8.152,8.532,456.541,21.976,-5.929
3.3301719999999477,74.485,15.323,-23.425,13.602,-583.031,176.392,27.995,25.613,45.912,64.573,54.289,27.577,27.938,-2.097,174.105,-17.721,2.22,-4.44,38.922,74.454,160.978,20.411,25.104,9.667,-1.483,5.962,459.158,25.028,1.249
3.3451279999999315,82.095,25.041,-19.815,28.445,-569.64,186.974,27.455,37.371,56.113,70.144,61.92,38.82,38.669,5.077,182.64,-12.068,12.464,5.811,48.616,77.453,168.501,23.976,30.715,14.78,5.178,9.03,468.945,28.077,5.346
3.345192499999939,84.575,24.504,-27.992,23.806,-565.997,182.177,27.939,39.895,55.032,70.586,59.809,34.17,33.507,7.121,182.97,-10.519,12.963,7.854,49.592,80.962,167.308,27.539,29.147,14.765,0.562,13.119,462.328,25.487,-4.393
3.3601008000000547,87.564,27.041,-30.526,17.634,-566.455,175.847,28.936,39.343,54.977,71.54,65.384,35.673,31.936,8.139,183.812,-5.897,5.778,7.334,49.031,84.979,175.338,37.245,35.778,17.824,3.123,20.278,463.915,30.585,-8.487
3.361811299999772,93.112,33.674,-20.761,28.375,-565.377,186.429,31.469,49.037,60.557,76.079,71.466,45.883,43.175,7.106,190.8,-0.256,8.334,8.864,56.154,88.993,185.409,42.331,46.501,24.467,12.854,26.918,476.771,38.239,-1.819
3.3751876999999695,89.945,32.103,-17.667,31.933,-571.471,187.78,31.95,43.865,57.935,73.954,62.173,38.153,41.595,4.537,189.072,-6.916,10.887,3.22,55.585,84.805,180.1,34.604,39.794,20.856,11.304,24.33,469.635,34.102,1.769
3.375254799999766,83.195,28.485,-23.285,22.167,-588.831,180.932,25.258,28.452,49.68,67.22,55.451,26.844,30.795,2.484,181.199,-17.667,3.192,-3.956,43.234,76.524,173.26,25.86,27.971,12.638,3.608,15.084,465.067,27.408,-4.893
3.3901967000001605,94.382,23.846,-29.921,14.973,-620.517,211.49,19.597,31.497,53.217,73.301,66.154,31.428,33.326,-2.642,202.022,-22.26,-3.472,-8.05,38.58,83.619,182.308,22.248,25.382,6.99,-1.519,7.384,497.389,21.233,-15.646
3.390257600000041,117.854,13.576,-40.65,8.81,-652.172,244.066,14.967,39.663,65.971,92.183,82.482,36.007,38.928,-5.713,234.608,-23.775,-6.03,-14.19,43.665,106.077,202.618,19.152,21.258,-2.238,-5.615,1.229,529.679,11.478,-21.266
3.4055740999997397,121.323,13.05,-45.732,10.338,-683.795,249.97,10.341,35.525,67.955,97.214,85.473,36.484,36.84,-1.097,240.008,-19.653,-7.048,-13.151,47.207,111.607,207.027,21.694,19.187,-1.724,-2.024,3.277,524.539,12.491,-16.634
3.4056374000001597,96.61,26.357,-34.928,22.111,-650.324,217.444,20.577,35.489,56.104,75.087,67.457,35.935,34.241,1.466,207.493,-14.51,-0.381,-6.99,40.5,86.392,181.204,24.234,25.828,11.086,8.737,11.471,491.739,27.848,-8.42
3.4202242999999726,71.411,32.478,-28.233,21.064,-616.886,184.951,33.364,33.917,41.703,50.934,44.336,27.702,28.059,-2.122,175.01,-17.569,7.304,-9.545,30.213,57.616,153.358,16.013,23.241,12.099,10.777,9.922,458.972,34.992,-3.801
3.435251899999912,68.778,26.81,-34.353,9.26,-615.757,182.205,31.793,23.124,35.001,46.272,37.632,18.965,21.884,-2.12,179.958,-21.138,4.223,-12.609,27.622,52.948,151.156,9.337,15.533,1.329,4.106,3.252,467.222,31.371,-2.773
3.4353173999998035,79.467,25.247,-33.806,17.96,-647.416,207.126,30.737,24.126,40.089,53.91,45.278,25.094,28.522,3.006,196.172,-16.506,3.706,-5.937,34.254,64.166,159.714,16.5,21.665,3.376,5.127,8.885,497.493,31.34,-1.233
3.4503147000000354,77.851,26.758,-29.674,30.75,-613.981,200.771,27.632,31.274,43.635,55.906,49.844,31.216,31.055,7.101,185.73,-10.854,12.412,-0.808,38.318,67.175,159.042,21.606,29.84,10.033,11.782,13.999,479.578,32.333,-0.719
3.4503782000001593,65.99,18.535,-35.792,18.936,-607.219,186.225,12.236,20.484,35.395,49.702,41.085,21.964,22.315,7.094,179.909,-15.966,14.448,-3.881,35.718,60.961,153.247,14.925,24.175,5.412,10.745,4.763,471.413,25.641,-9.94
3.46528249999983,61.826,6.221,-41.391,4.06,-638.888,192.699,6.076,7.144,29.212,42.48,31.31,14.257,16.657,1.452,184.852,-25.172,9.311,-9.0,30.56,58.85,148.996,9.787,17.491,-1.765,5.612,-3.951,486.823,18.443,-20.176
3.465346800000134,65.862,6.214,-37.764,11.228,-646.446,199.167,16.316,11.747,35.33,43.974,37.426,18.853,17.665,0.425,186.716,-23.61,7.765,-13.089,30.529,61.353,151.921,12.851,20.035,2.847,9.704,2.713,486.337,20.474,-16.57
3.4802764000000934,68.358,12.868,-32.603,22.488,-624.795,198.455,22.959,22.494,42.979,53.152,46.61,24.47,22.77,8.622,191.653,-15.902,8.782,-13.589,35.622,63.853,159.966,19.498,26.675,13.603,20.453,10.907,481.752,27.113,-9.381
3.4803518999997323,68.802,11.318,-32.058,20.416,-639.539,204.404,24.986,29.132,46.523,57.71,45.539,25.47,28.895,11.175,196.584,-16.91,10.31,-13.575,36.611,66.351,162.879,20.503,28.185,13.077,22.482,8.335,481.782,27.086,-13.983
3.495346000000154,71.807,8.746,-31.001,17.322,-647.609,212.909,31.108,34.738,49.55,57.14,48.568,28.519,29.379,9.114,195.875,-16.893,12.861,-16.123,37.086,70.383,163.229,18.433,26.108,5.379,15.8,3.716,476.69,24.497,-16.53
3.4954106999998658,80.444,21.032,-22.773,29.088,-638.252,218.332,38.25,40.851,53.599,62.718,61.327,37.712,33.448,14.228,199.778,-3.557,18.483,-10.471,45.246,77.485,169.726,25.587,30.692,9.984,19.37,10.372,483.385,34.207,-6.268
3.5104565999999977,90.61,37.917,-11.992,48.014,-635.564,226.31,42.31,44.908,60.205,74.438,68.95,47.408,44.685,17.8,210.336,8.23,26.15,0.81,52.886,85.092,175.704,38.882,38.859,19.708,24.474,19.071,498.271,48.517,0.911
3.5105210000001534,89.495,38.392,-13.005,48.991,-632.367,229.67,39.706,43.326,61.682,75.901,67.344,48.385,44.128,13.684,212.175,6.173,25.099,-1.753,50.271,83.47,176.04,37.818,37.795,16.102,10.105,18.027,500.335,44.882,-11.385
3.525735899999745,79.672,29.132,-21.189,31.523,-638.907,221.756,33.519,36.111,53.936,68.652,61.129,45.775,36.399,12.646,202.229,0.531,18.414,-10.972,46.635,76.727,174.327,27.534,31.61,13.525,-6.812,14.935,501.371,33.567,-24.182
3.525801599999795,81.129,25.517,-17.069,24.832,-648.514,214.874,31.948,31.464,51.32,69.608,59.531,46.241,38.412,15.707,198.953,1.043,21.981,-10.449,47.1,78.187,172.104,30.068,32.09,19.659,2.929,17.994,503.944,34.046,-7.251
3.5404100999999173,86.171,26.516,-9.88,34.028,-634.034,218.245,31.404,34.506,55.88,72.613,66.131,45.683,40.935,17.228,205.414,3.603,26.058,-10.439,47.566,81.182,170.907,39.26,34.62,20.152,25.468,21.05,498.829,35.548,16.322
3.5404755999998088,80.962,24.44,-14.481,35.531,-622.129,222.126,24.712,33.96,53.774,68.442,66.065,43.076,38.333,18.236,205.721,2.063,20.396,-17.6,42.907,78.027,170.736,35.122,31.511,17.57,29.028,20.517,497.305,31.927,9.646
3.555515699999887,80.881,23.903,-16.515,30.885,-633.29,220.879,20.077,30.852,54.745,69.398,62.413,46.106,39.831,18.73,202.954,3.085,22.425,-16.046,40.303,77.949,168.004,28.427,29.431,21.651,17.728,19.472,498.857,34.969,-5.221
3.5555828999999903,89.509,27.465,-9.839,38.539,-633.169,222.707,23.643,34.919,62.375,74.964,69.011,48.622,41.841,21.785,205.825,8.718,35.211,-9.37,46.41,79.921,165.274,32.497,31.45,21.629,15.661,18.428,494.26,40.057,-1.629
3.5704673000000184,84.809,26.926,-11.366,44.135,-621.265,220.948,28.743,37.958,58.727,71.303,67.917,44.987,38.213,23.812,205.107,5.123,35.175,-11.922,46.364,76.255,161.523,30.415,27.833,11.874,16.158,14.823,489.155,34.381,-4.189
3.570532700000058,71.916,19.214,-19.039,31.284,-622.693,211.505,30.763,34.334,49.959,65.596,53.505,37.258,34.076,18.665,197.729,-5.641,25.406,-20.619,34.022,68.494,152.652,18.089,18.583,3.153,3.334,8.148,480.981,24.101,-17.505
3.5854779999999664,70.82,14.584,-20.045,25.617,-617.972,207.195,30.22,34.812,50.933,63.481,50.377,32.097,30.456,15.061,191.896,-9.734,27.942,-23.673,30.914,64.839,145.839,17.559,17.54,0.588,-8.964,4.042,471.279,19.978,-19.024
3.5855412000000797,72.286,15.594,-19.0,36.862,-597.374,204.939,27.628,35.802,51.907,58.295,53.913,33.602,27.864,16.582,187.606,-7.675,35.087,-26.21,37.031,64.774,145.181,21.64,21.621,2.124,-7.931,7.111,468.246,19.446,-16.956
3.6005050999997366,65.041,8.919,-25.129,29.141,-593.19,196.024,25.551,26.032,45.707,54.65,49.248,32.544,26.299,15.029,185.369,-8.692,28.392,-32.332,31.359,63.173,143.499,13.934,15.964,2.634,-7.923,7.104,462.655,14.816,-25.136
3.600566499999786,62.927,4.811,-32.276,6.57,-612.065,195.316,28.087,18.834,40.539,52.034,45.613,27.388,23.711,10.915,188.257,-13.806,20.679,-39.984,20.056,61.06,140.794,7.26,7.751,-0.442,-9.452,1.462,457.581,10.702,-26.648
3.615602299999864,72.598,17.102,-27.633,14.248,-614.526,203.83,26.522,23.426,43.06,50.957,50.178,30.947,23.175,12.954,189.606,-14.304,25.269,-44.043,20.036,62.536,141.166,11.351,7.231,0.583,2.341,4.534,464.296,20.426,-15.863
3.615672999999788,86.87,30.405,-13.773,42.923,-611.35,215.922,18.811,28.013,51.214,63.202,62.936,42.187,30.324,21.65,199.663,-4.044,33.44,-39.9,28.213,69.646,149.221,16.463,12.859,10.316,11.047,16.313,485.349,37.311,-4.064
3.630606700000044,114.96,33.448,-9.661,47.491,-643.014,248.493,17.768,29.522,61.408,86.192,85.414,54.44,41.052,27.776,232.251,10.305,37.505,-32.176,43.042,91.605,173.663,29.766,22.58,16.454,2.839,20.907,517.651,41.885,-0.986
3.6465871000000334,147.633,31.878,-15.286,35.148,-674.647,281.033,22.873,32.566,73.13,103.525,106.846,67.706,48.696,25.699,264.806,20.541,37.98,-30.094,64.004,124.301,205.252,50.741,33.829,16.95,-4.336,21.911,549.921,34.158,-6.62
3.6466457999999875,152.608,32.358,-14.247,34.6,-706.248,287.924,24.387,37.657,83.815,108.544,112.887,75.835,52.233,24.649,273.251,31.278,42.041,-27.503,76.235,135.448,210.17,61.449,41.479,22.056,0.792,27.524,558.593,33.612,-11.225
3.660614099999748,120.18,37.961,-9.622,44.3,-672.754,255.361,27.949,45.816,78.609,94.603,98.429,71.148,53.206,32.821,240.702,40.469,52.245,-17.741,72.573,107.136,177.685,57.289,48.098,28.181,5.402,31.595,525.759,41.775,-9.676
3.660678799999914,87.784,44.583,-8.075,53.477,-639.293,222.83,39.192,51.406,61.624,66.844,74.764,62.368,50.079,35.35,208.186,38.379,54.242,-15.162,57.643,74.753,145.232,49.547,49.587,26.104,2.835,31.564,492.957,45.32,-8.642
3.67563569999993,78.475,40.44,-4.481,55.473,-605.866,194.942,49.911,48.281,54.39,54.482,60.857,53.084,43.369,28.142,184.924,26.558,41.892,-26.418,41.192,57.26,128.18,42.325,41.853,23.004,-0.242,28.458,468.386,37.59,-9.658
3.677324799999951,70.2,27.08,-7.038,45.683,-637.536,202.432,48.836,44.134,52.799,54.94,57.723,43.809,37.178,21.966,187.3,15.773,33.653,-36.125,29.88,52.08,123.441,33.061,33.101,17.858,-4.852,21.258,481.238,24.744,-15.796
3.6906370000001516,55.785,13.22,-20.351,33.342,-643.558,197.619,35.468,36.917,40.963,42.589,48.956,34.544,29.456,17.333,179.941,5.511,31.058,-40.7,20.628,45.88,108.973,21.245,24.871,9.131,-12.02,12.015,463.338,11.4,-26.539
3.6907006999999794,45.995,5.01,-25.966,26.649,-651.624,189.224,24.674,20.999,31.7,30.251,35.587,20.677,20.717,13.73,172.076,-6.79,23.343,-45.782,10.874,38.149,94.007,12.002,16.137,6.048,-14.057,2.781,436.747,2.167,-32.66
3.70570940000016,44.412,0.907,-22.354,23.548,-683.248,197.744,28.747,10.219,32.181,33.295,31.965,13.996,17.623,11.667,176.515,-11.907,17.172,-47.273,10.35,37.599,94.938,9.941,13.56,5.529,-7.895,0.217,404.035,3.189,-30.578
3.7057706999999027,47.954,-0.119,-21.307,23.525,-702.544,205.743,32.305,13.283,32.661,36.848,38.593,22.692,19.142,9.606,186.072,-5.747,22.277,-44.152,15.463,44.733,102.528,11.98,16.62,3.475,-4.301,6.877,372.892,7.797,-29.011
3.720663499999773,54.054,1.418,-21.285,25.038,-717.211,205.538,19.977,17.368,36.214,37.323,42.141,29.841,21.172,12.158,195.108,2.456,28.403,-37.448,16.985,50.836,105.499,15.042,19.165,7.057,-5.834,9.944,379.692,7.277,-27.445
3.720739599999888,55.537,2.954,-18.703,25.526,-730.838,211.992,10.736,16.839,40.789,40.36,43.635,29.299,23.2,20.343,200.036,9.113,29.911,-27.164,24.652,54.884,105.393,22.199,24.781,8.587,-6.34,7.372,403.39,7.269,-22.806
3.735681499999828,59.58,1.926,-17.147,26.012,-730.108,217.928,17.385,19.383,38.187,41.344,49.739,33.368,26.763,20.322,201.885,13.715,30.394,-21.502,37.435,60.465,108.362,30.374,27.83,4.48,-5.822,10.439,400.426,10.848,-19.197
3.7373836000001575,66.18,5.51,-16.105,28.036,-731.939,217.71,22.491,24.487,38.661,42.84,54.3,36.921,28.785,16.204,205.269,15.75,30.876,-23.53,39.959,63.99,111.84,29.832,23.192,3.963,-8.377,12.477,393.365,10.325,-19.691
3.751275000000078,59.966,5.505,-21.724,26.983,-743.502,215.955,19.394,23.438,40.671,43.309,49.635,33.298,25.171,15.675,203.527,11.124,26.234,-25.555,30.698,58.803,102.506,19.556,16.508,-0.139,-15.541,3.243,401.169,1.093,-27.868
3.7513574999998127,43.512,-10.382,-37.072,14.661,-762.739,207.542,18.35,10.094,27.823,31.483,37.803,21.994,15.924,10.536,193.59,-2.72,16.474,-32.702,15.81,50.035,84.985,7.241,5.221,-13.459,-26.797,-10.08,396.669,-16.326,-44.746
3.765765300000112,36.297,-25.229,-49.33,-3.797,-788.104,201.187,13.721,-4.26,13.963,19.668,25.982,7.115,8.223,0.28,189.81,-17.061,5.699,-44.452,5.548,44.35,78.753,-1.988,-6.567,-21.13,-33.942,-18.267,385.002,-31.167,-59.558
3.7658364999997502,40.359,-25.716,-57.99,-9.429,-803.197,208.671,4.998,-4.256,16.51,22.21,24.931,5.571,6.678,-2.282,194.231,-17.044,0.57,-45.433,6.567,42.768,81.235,-4.548,-5.024,-21.621,-33.396,-18.761,393.838,-32.673,-66.159
3.7810952999998335,45.954,-26.202,-65.617,-5.321,-805.468,215.122,6.018,5.994,22.642,28.848,35.152,16.324,12.307,4.893,198.135,-8.318,7.742,-35.141,11.172,47.336,83.716,3.141,4.715,-16.477,-28.752,-9.52,409.326,-27.005,-69.679
3.781162199999926,51.031,-25.664,-60.94,-6.34,-811.322,213.882,6.524,11.111,28.254,31.381,40.753,22.455,19.467,12.572,202.035,-0.625,16.443,-28.958,17.308,55.486,90.804,14.409,13.42,-6.214,-20.014,0.223,418.65,-22.367,-64.998
3.795691100000113,52.004,-18.978,-54.219,-10.432,-819.733,214.693,-1.679,6.49,32.325,31.861,36.613,23.457,19.447,10.51,205.932,5.523,13.865,-26.88,27.025,56.455,93.787,18.493,20.066,-1.597,-12.821,-0.29,449.995,-18.246,-52.126
3.797574000000168,45.805,-22.545,-59.801,-14.52,-826.085,210.892,-0.653,0.848,24.095,25.682,32.991,21.897,14.817,3.328,203.677,3.981,7.704,-27.365,28.022,51.788,87.546,16.425,19.534,-3.645,-16.907,-4.9,482.332,-20.789,-48.487
3.810743999999886,41.148,-28.158,-63.839,-18.092,-830.382,201.972,6.52,-2.739,15.362,19.509,31.933,15.727,12.241,1.275,200.399,-1.659,5.647,-32.973,21.334,52.248,85.921,15.897,16.44,-2.616,-16.378,-3.871,496.195,-25.379,-53.05
3.810812799999894,41.619,-21.47,-62.239,-15.0,-833.138,205.868,-2.708,-4.273,18.42,20.514,30.364,12.638,8.13,0.761,202.248,-2.682,2.055,-35.502,20.801,53.221,85.835,15.368,16.936,-1.589,-6.628,-1.817,479.305,-23.817,-51.972
3.825787499999933,41.578,-22.985,-68.324,-12.936,-849.211,211.81,-14.489,-7.855,17.89,18.444,27.772,9.039,4.536,-5.387,201.533,-10.364,-2.558,-35.466,16.169,45.995,77.553,7.668,10.259,-6.711,-8.158,-6.426,478.313,-27.379,-56.018
3.8407631999998557,38.462,-34.233,-71.33,-19.583,-865.78,205.451,-4.74,-13.483,11.724,11.253,22.621,2.882,3.507,-7.943,197.233,-21.112,-4.604,-40.554,3.345,38.265,70.815,-3.61,-1.534,-13.364,-17.884,-14.105,490.642,-40.16,-68.258
3.840823900000032,40.985,-34.711,-65.623,-17.514,-897.19,216.004,3.974,-12.957,16.835,16.365,22.599,4.416,3.503,-5.374,206.258,-20.066,-6.649,-44.1,0.78,44.374,75.867,-4.631,-3.582,-17.961,-19.403,-16.652,510.132,-43.706,-68.702
3.8557408000001487,57.851,-32.627,-67.094,-7.25,-928.568,248.575,-5.252,-6.284,29.626,37.866,40.507,12.097,10.16,-6.393,238.839,-15.947,-8.179,-40.982,12.05,65.334,95.259,3.058,-1.529,-16.919,-19.896,-15.098,542.409,-38.539,-60.948
3.855797700000039,75.723,-34.644,-70.613,-7.755,-959.915,281.115,-6.271,0.382,42.404,55.758,58.91,20.794,23.469,-7.411,271.388,-12.858,-4.073,-37.355,23.821,85.249,117.193,10.74,0.522,-10.754,-20.388,-10.985,574.655,-35.939,-60.888
3.870860900000025,64.377,-26.925,-63.37,-9.285,-926.167,248.558,4.494,3.456,44.411,48.018,53.215,24.871,23.446,-0.744,240.378,-3.623,1.055,-30.657,26.871,80.553,107.342,14.315,11.792,-5.62,-12.683,-5.339,541.805,-29.243,-57.753
3.870926000000054,32.037,-19.726,-54.085,-1.078,-892.453,216.034,7.051,2.428,24.387,18.256,27.034,18.186,10.103,3.356,207.862,-0.033,0.541,-25.503,17.111,48.197,74.959,11.227,16.903,-3.053,-5.498,-5.846,508.987,-19.992,-47.449
3.8858601000001727,8.439,-22.78,-54.031,3.021,-858.773,183.543,2.945,-5.259,5.919,-5.841,7.027,15.094,1.896,-2.283,175.379,-5.156,-1.509,-31.626,2.749,17.41,48.245,2.507,3.567,-5.612,-6.005,-12.5,476.203,-20.484,-45.864
3.885927199999969,6.381,-30.441,-63.199,-5.179,-890.19,196.167,-5.767,-16.525,2.84,-10.445,0.873,16.616,-1.18,-10.478,189.036,-12.324,-5.093,-36.205,-3.914,17.393,48.196,-6.717,-8.22,-17.389,-13.683,-18.635,508.515,-33.784,-57.089
3.90126250000003,-0.285,-43.731,-79.529,-22.592,-921.575,195.971,-19.081,-25.218,-6.897,-12.484,-8.862,-1.331,-9.888,-15.078,190.896,-25.631,-13.285,-36.681,-9.033,17.376,42.0,-17.981,-16.409,-32.741,-28.014,-28.862,508.518,-51.681,-72.914
3.9013309000001755,-11.556,-53.421,-87.135,-33.328,-887.866,179.381,-19.574,-29.291,-15.087,-17.083,-18.075,-18.236,-15.514,-14.551,172.775,-34.827,-17.883,-43.304,-16.196,5.063,31.712,-26.673,-26.639,-40.393,-36.696,-38.055,479.833,-61.875,-81.55
3.915890599999784,-1.298,-43.122,-79.363,-23.048,-892.101,195.083,-4.186,-24.139,-2.777,-10.405,-4.737,-3.361,-5.764,-9.413,184.385,-19.935,-10.18,-40.187,-10.032,12.742,39.877,-19.986,-20.464,-34.205,-27.437,-27.771,502.919,-56.178,-77.37
3.9159512000001087,18.171,-30.271,-73.648,-13.804,-920.923,215.38,-1.108,-14.893,3.886,-1.686,11.662,8.938,5.512,-6.842,204.693,-5.059,-3.51,-28.364,2.785,27.587,55.207,-5.621,-4.562,-20.338,-16.651,-13.398,532.642,-45.364,-73.194
3.930948499999886,17.128,-34.851,-78.185,-24.036,-922.051,209.017,-10.84,-20.001,-5.852,-4.758,5.503,-1.317,1.92,-12.471,201.927,-10.689,-10.679,-33.971,2.783,23.973,57.201,-3.054,-1.996,-14.682,-16.122,-13.897,529.036,-40.195,-74.146
3.931026899999779,11.988,-35.329,-76.058,-23.5,-932.4,206.759,-12.879,-27.153,-3.797,-4.753,2.936,-1.828,-1.668,-14.508,199.163,-10.166,-14.254,-38.548,3.804,25.998,55.607,0.023,2.104,-15.18,-11.496,-13.883,529.532,-35.032,-65.362
3.9449463999999352,22.222,-26.584,-68.809,-9.644,-942.738,216.798,-11.329,-18.929,6.966,1.912,12.154,7.395,7.043,-7.321,208.698,-0.934,-7.068,-29.288,15.584,37.243,63.236,10.269,15.422,-7.993,-3.799,-6.697,539.248,-25.775,-52.489
3.9450177999997322,24.249,-27.07,-70.277,-17.831,-947.943,214.532,-13.879,-18.398,4.397,-3.213,8.043,3.289,8.061,-7.826,213.1,-6.056,-10.647,-35.406,12.494,30.033,65.734,7.697,10.796,-4.398,-5.333,-6.178,540.246,-25.237,-52.437
3.9599358999998913,11.93,-35.24,-71.744,-29.084,-972.611,210.732,-12.328,-29.138,-4.316,-10.383,-1.186,-5.935,-2.193,-19.089,210.838,-18.346,-20.37,-47.666,-1.863,18.733,55.934,-5.118,-3.047,-10.542,-7.889,-13.344,539.706,-38.02,-55.458
3.959994899999856,8.844,-39.303,-64.5,-18.297,-985.47,217.693,-6.168,-23.986,1.323,-2.175,-0.16,-6.954,-3.728,-20.606,209.09,-20.377,-20.862,-41.983,-1.349,20.763,50.755,-6.65,-2.019,-15.142,-8.393,-16.917,544.289,-47.203,-53.866
3.975022099999933,9.347,-43.874,-69.046,-20.328,-979.362,221.574,-4.625,-17.302,9.519,1.413,-1.185,-7.972,-0.651,-15.463,205.807,-22.918,-21.353,-41.429,-0.323,20.23,51.729,-9.205,-5.091,-18.201,-16.069,-18.95,546.819,-49.717,-61.497
3.975084700000025,3.703,-47.929,-82.81,-39.775,-991.19,216.229,-8.207,-28.043,1.825,-8.322,-5.794,-13.599,-5.261,-23.132,202.015,-32.116,-27.992,-53.683,-12.618,13.55,46.042,-18.417,-14.82,-23.818,-19.639,-21.492,542.686,-54.279,-72.194
3.990037999999913,9.334,-42.758,-79.141,-38.198,-999.933,216.013,-11.272,-31.089,-4.325,-9.851,-2.715,-14.098,-6.28,-25.67,203.35,-32.084,-26.939,-52.092,-12.093,15.585,48.045,-14.301,-9.682,-17.646,-8.861,-19.934,545.217,-50.638,-66.486
4.005031700000018,25.719,-29.908,-63.692,-19.717,-996.884,229.629,-6.138,-20.299,6.95,3.991,9.071,-1.788,0.899,-11.812,213.905,-18.732,-16.666,-37.183,3.288,28.89,65.928,1.595,7.746,-0.723,7.029,-9.155,564.139,-33.681,-52.587
4.005096599999888,36.452,-16.558,-57.993,-9.451,-1011.256,244.769,4.627,-13.619,15.14,14.746,22.382,13.583,7.558,-2.579,227.523,-4.881,-3.842,-25.875,13.019,42.181,80.207,11.328,18.497,11.061,15.731,3.662,585.092,-20.328,-46.387
4.020450699999856,50.76,-7.832,-57.935,-2.782,-1042.52,258.869,5.647,-8.995,12.564,16.268,30.557,21.254,13.698,-1.552,246.251,3.833,2.31,-18.677,23.252,51.36,88.323,21.562,23.601,15.149,14.179,8.781,614.221,-15.697,-43.267
4.020512499999768,82.472,-4.75,-58.902,-0.73,-1073.753,291.398,-1.531,-4.887,21.773,32.646,46.408,31.991,19.832,2.036,278.793,16.637,0.258,-16.609,40.647,72.826,114.363,33.836,28.189,15.134,8.529,11.846,646.394,-12.607,-37.588
4.03513410000005,103.907,-6.282,-63.454,-10.463,-1104.955,323.894,-5.628,-6.419,37.12,60.278,69.415,46.816,25.447,0.497,311.301,24.817,0.77,-20.691,50.853,101.442,145.499,37.901,28.673,13.069,7.496,15.933,678.536,-12.594,-36.526
4.035207299999911,81.773,-12.936,-66.976,-18.137,-1082.845,305.127,-6.135,-9.487,34.009,53.557,61.149,39.597,23.885,-5.651,287.936,14.034,0.257,-23.744,44.142,91.095,128.448,32.74,22.496,8.445,3.902,11.306,645.582,-21.291,-41.612
4.0500818999998955,49.416,-19.071,-66.909,-13.508,-1048.974,272.547,-5.617,-14.088,16.044,21.228,28.812,17.015,13.103,-5.133,255.373,-1.349,-5.378,-26.282,22.581,58.728,96.044,18.875,14.789,-0.272,-2.249,-0.488,612.661,-28.442,-44.645
4.0517925999997715,19.653,-19.052,-60.183,-4.785,-1015.138,239.999,0.024,-17.148,6.807,4.813,7.266,8.802,8.479,-0.517,222.842,-2.885,-2.299,-30.354,3.603,28.956,65.209,1.95,12.213,-5.395,1.339,-5.099,579.773,-28.926,-46.137
4.065145699999903,16.047,-20.57,-52.438,0.855,-1001.827,243.345,5.147,-8.934,9.874,6.858,7.259,7.768,11.032,-0.005,225.181,-5.444,1.289,-31.86,-3.061,24.316,67.193,-5.737,12.201,-2.316,5.436,-6.631,587.902,-31.971,-49.677
4.065212800000154,11.42,-27.209,-48.799,-0.171,-1033.101,244.126,6.679,-3.802,12.425,0.703,1.616,-2.486,4.361,-7.689,231.103,-17.734,-10.495,-35.415,-6.644,17.632,63.54,-6.243,10.652,-0.777,4.918,-9.698,591.925,-36.55,-49.627
4.080185299999812,4.749,-28.719,-43.115,-2.22,-1009.014,235.685,8.722,-10.97,6.778,-3.396,-5.045,-11.193,-5.377,-14.341,219.602,-23.864,-18.169,-42.039,-11.76,14.028,59.378,-8.286,11.153,-1.288,11.061,-9.688,579.038,-35.488,-43.43
4.080261999999948,6.793,-29.202,-42.047,-2.217,-1030.546,244.158,8.713,-15.058,-0.914,-2.368,-6.577,-12.718,-5.372,-13.815,222.968,-23.327,-14.565,-43.022,-12.773,16.063,65.979,-8.79,9.093,-1.799,9.513,-11.215,593.828,-36.478,-43.899
