Timestamp,Cz,Fz,Fp1,F3,C1,C3,T7,C5,CP5,CP3,CP1,P1,P3,O1,CPz,Pz,Oz,O2,P4,P2,CP2,CP4,CP6,C6,T8,C4,C2,F4,Fp2
0.0,4.894,-22.658,-117.261,-25.38,-7.632,-28.21,446.303,8.339,-27.801,-20.425,-12.804,-16.74,-24.9,-6.097,-3.281,3.245,2.151,-12.622,2.666,-6.488,73.698,-2.191,9.772,-12.169,-38.438,-2.242,-98.676,-25.189,-44.263
6.940000002941815e-05,6.938,-15.463,-109.459,-13.059,-4.038,-22.034,413.581,18.577,-23.675,-14.257,-4.595,-12.624,-13.605,-4.554,-0.204,6.316,3.174,-0.826,4.201,-1.871,83.358,0.885,8.226,-14.206,-45.572,-1.216,-95.503,-19.529,-30.387
0.015009100000042963,12.566,-14.935,-112.935,-2.8,4.675,-16.889,380.892,34.952,-17.504,-11.681,-2.541,-10.05,-13.079,-13.259,-1.229,4.773,2.658,-7.485,4.709,-1.869,85.836,0.371,3.607,-11.118,-57.821,-2.751,-102.068,-20.534,-31.893
0.015084399999977904,10.505,-25.167,-114.872,-24.314,-0.965,-23.02,413.299,23.646,-22.097,-17.817,-9.711,-14.139,-23.312,-16.832,-7.375,-0.867,-2.467,-20.286,-1.444,-10.064,79.603,-3.215,4.115,-8.033,-75.182,-4.285,-107.601,-38.444,-41.083
0.031828199999836215,9.47,-23.092,-102.974,-24.29,-9.673,-19.411,424.156,26.184,-18.489,-11.139,-4.578,-12.588,-13.042,-9.643,-6.343,3.744,0.097,-8.482,3.681,-4.419,85.671,2.423,11.284,-4.951,-63.836,0.33,-100.834,-39.942,-35.919
0.03189650000012989,17.145,-10.261,-97.748,0.325,-0.954,-9.145,456.52,36.404,-6.687,1.167,6.698,-3.354,2.34,2.662,0.323,12.962,11.367,9.969,15.973,5.832,92.758,10.106,15.883,-4.434,-42.768,5.452,-97.659,-19.922,-28.711
0.04506420000006983,16.615,-18.448,-107.384,-3.261,5.707,-19.382,469.896,19.974,-13.341,-12.154,-4.068,-10.522,-9.958,-1.951,-7.874,3.727,6.233,-0.799,6.735,-5.445,84.98,-0.151,8.695,-10.577,-50.922,-5.824,-108.832,-27.075,-33.293
0.0451229999998759,9.939,-35.336,-114.961,-14.529,-7.107,-32.171,437.15,17.905,-27.16,-29.048,-21.482,-24.857,-23.78,-22.442,-23.748,-12.67,-10.167,-19.241,-7.616,-19.272,80.797,-11.421,1.514,-15.69,-59.068,-19.138,-118.457,-49.077,-39.407
0.06004189999976006,10.441,-32.739,-113.309,-9.904,-15.809,-29.065,434.152,31.207,-25.083,-24.408,-19.411,-20.733,-20.17,-18.321,-21.675,-11.633,-9.132,-13.074,-3.51,-15.154,84.815,-7.311,5.099,-16.187,-45.689,-16.045,-114.752,-44.417,-42.954
0.06010569999989457,11.967,-26.558,-114.221,-19.115,-5.547,-31.597,466.505,12.732,-25.57,-24.384,-13.244,-16.102,-19.638,-2.933,-10.382,-7.01,1.635,0.771,0.079,-9.504,83.705,-4.742,7.655,-13.609,-41.545,-12.443,-110.539,-34.127,-49.059
0.07511440000007497,7.857,-31.143,-116.668,-33.953,2.143,-40.275,447.083,0.424,-32.717,-31.531,-16.305,-22.233,-24.229,-17.275,-10.372,-10.077,0.097,-2.304,-1.458,-10.006,81.572,-8.836,4.573,-7.448,-58.409,-16.529,-112.99,-38.703,-49.522
0.07517959999995583,4.775,-32.648,-116.039,-27.259,-5.543,-34.087,414.361,25.015,-28.074,-23.303,-15.776,-19.137,-20.106,-28.016,-14.972,-9.043,-4.002,-8.449,5.716,-9.996,82.003,-5.241,9.18,-3.854,-71.159,-11.902,-112.877,-39.689,-43.325
0.09215659999972559,6.82,-30.054,-121.046,-12.375,-13.735,-26.88,432.39,31.137,-22.41,-17.132,-12.174,-14.507,-17.012,-9.545,-11.884,-6.472,0.1,-3.83,9.297,-9.986,78.335,0.399,16.343,-5.899,-66.477,-5.742,-110.203,-36.576,-43.281
0.0922233999999662,17.059,-27.463,-121.949,-6.727,-9.623,-30.952,464.745,10.101,-29.56,-24.8,-12.162,-18.591,-23.143,-4.925,-8.798,-8.515,1.125,-1.777,3.14,-8.439,79.793,-0.626,11.716,-5.381,-47.967,-9.322,-109.58,-36.027,-48.361
0.10559689999990951,25.239,-20.263,-106.458,-7.233,-5.002,-30.409,479.137,7.018,-31.067,-24.775,-9.588,-16.523,-23.632,-16.703,-14.937,-6.457,-1.95,-6.898,6.21,-3.308,89.447,1.424,8.118,-2.302,-29.988,-8.288,-104.86,-31.892,-39.604
0.10566199999993842,22.14,-11.533,-86.372,-0.053,-5.51,-18.595,446.383,25.454,-19.766,-13.479,-0.87,-8.822,-13.362,-11.563,-11.848,-0.303,2.15,-1.256,14.401,1.818,92.432,8.595,18.868,2.824,-30.983,2.991,-96.046,-24.688,-18.559
0.11917889999995168,19.556,-11.522,-79.113,11.73,-1.406,-10.38,413.661,43.359,-11.549,-7.83,2.205,-6.764,-7.201,-2.33,3.021,1.234,8.808,8.479,14.387,3.354,86.704,10.123,23.972,9.993,-48.37,6.061,-95.437,-21.077,-14.955
0.11924330000010741,21.586,-21.244,-93.379,-3.651,-2.941,-21.128,400.952,40.242,-18.71,-18.069,-9.58,-15.467,-17.44,-8.475,-6.204,-9.013,0.603,-2.8,2.077,-7.921,78.933,-2.694,9.604,1.274,-59.081,-8.289,-105.076,-26.691,-40.043
0.13413919999993595,11.318,-35.568,-117.364,-35.923,-14.721,-44.673,433.339,15.098,-36.622,-36.494,-28.526,-32.357,-33.304,-19.225,-34.374,-25.398,-12.718,-22.265,-18.93,-25.331,68.608,-22.672,-7.312,-23.318,-58.509,-27.236,-116.754,-41.522,-60.495
0.13419889999977386,-1.501,-40.143,-120.833,-37.424,-13.17,-48.214,465.693,3.3,-38.634,-37.994,-28.497,-35.399,-32.759,-23.305,-33.315,-26.909,-12.193,-20.706,-25.059,-26.843,65.977,-26.747,-6.792,-26.369,-54.864,-30.795,-117.662,-44.042,-51.725
0.1520050999997693,7.722,-28.832,-111.49,-11.259,-3.423,-27.674,470.863,16.105,-20.665,-20.025,-12.075,-18.97,-19.406,-19.695,-11.253,-12.538,-5.009,-8.902,-9.664,-14.521,77.182,-14.425,1.924,-8.924,-37.391,-15.907,-106.273,-33.239,-32.718
0.15207349999991493,23.084,-21.631,-114.965,0.023,-5.981,-17.4,438.116,30.433,-12.96,-11.808,-6.428,-15.365,-16.825,-18.651,-7.143,-8.939,-9.614,-11.454,-3.507,-11.432,81.716,-8.263,2.946,-10.452,-28.132,-9.232,-101.556,-32.694,-27.05
0.16423230000009426,16.913,-24.171,-108.19,-2.026,-2.901,-20.969,405.403,38.087,-20.631,-13.846,-9.495,-20.472,-21.931,-22.218,-10.21,-14.566,-12.679,-16.566,-9.139,-13.47,73.437,-10.816,-0.13,-18.638,-53.207,-15.37,-104.529,-35.735,-36.757
0.16429740000012316,3.576,-17.486,-79.905,4.124,11.959,-11.726,423.953,42.66,-16.0,-5.635,-2.826,-10.206,-15.249,-17.073,-5.077,-8.403,-4.981,-9.377,-4.519,-10.383,72.339,-7.219,4.993,-7.349,-66.986,-9.207,-100.326,-22.891,-43.38
0.17926809999971738,10.232,-7.223,-74.702,8.218,8.873,-4.03,456.317,36.982,-7.787,-0.506,1.788,-5.585,-8.062,-8.859,-3.022,-1.735,-2.927,-3.22,-0.928,-6.786,75.341,-2.601,9.599,0.855,-50.013,0.536,-96.127,-16.721,-32.578
0.19426650000013979,19.956,-12.339,-96.656,0.013,-0.357,-18.37,463.545,25.674,-16.488,-12.801,-6.923,-15.825,-15.226,-9.362,-4.044,-9.93,-5.998,-7.828,-5.538,-9.341,66.556,-7.21,6.003,-8.879,-49.963,-5.612,-101.154,-30.024,-20.25
0.19433260000005248,8.665,-19.499,-104.757,-5.622,6.815,-25.524,430.806,28.722,-21.083,-16.887,-9.99,-15.297,-19.309,-5.767,-0.966,-10.945,-0.869,-8.332,-2.971,-10.356,61.879,-9.252,5.997,-11.944,-51.45,-12.267,-101.565,-34.605,-27.402
0.20929019999994125,-1.077,-14.868,-99.016,0.019,9.37,-12.691,398.1,43.038,-9.791,-7.136,-2.808,-9.646,-9.044,-3.2,0.06,-3.249,0.157,-4.225,-1.943,-8.297,66.94,-5.656,9.065,-7.834,-38.591,-9.18,-96.853,-27.398,-44.793
0.2132696999997279,9.682,-15.878,-97.38,-1.006,0.652,-14.728,430.489,39.409,-12.855,-8.666,-3.829,-16.297,-9.035,-14.979,-2.502,-10.418,-13.164,-12.93,-8.601,-13.924,59.188,-7.188,4.445,-11.412,-58.02,-10.708,-100.342,-25.834,-50.896
0.22512789999973393,16.333,-23.547,-96.259,-7.153,4.237,-25.471,462.847,27.587,-22.576,-14.293,-9.973,-19.354,-18.76,-21.112,-5.573,-19.117,-18.786,-23.164,-8.081,-18.52,47.346,-12.816,0.854,-14.987,-65.647,-13.771,-103.828,-24.783,-40.599
0.22519430000011198,1.972,-21.474,-97.699,-4.072,6.794,-16.224,430.108,38.317,-12.307,-6.594,-5.865,-13.7,-16.179,-13.406,-7.617,-11.926,-11.082,-17.505,-6.023,-14.403,49.86,-13.315,2.903,-15.484,-32.793,-12.733,-100.138,-27.832,-28.263
0.23933149999993475,-5.715,-17.866,-101.7,-4.58,-5.508,-9.548,397.403,45.451,-7.684,-4.538,-2.785,-14.198,-9.503,-14.93,-7.609,-11.401,-10.559,-11.34,-12.165,-15.414,48.786,-13.302,2.387,-17.006,-43.007,-15.794,-97.476,-36.001,-28.235
0.23940099999981612,11.197,-18.873,-96.987,-7.649,-4.99,-15.686,429.793,33.623,-18.947,-9.144,-4.319,-17.258,-11.543,-17.989,-4.528,-19.075,-12.598,-15.427,-12.153,-17.96,42.589,-13.289,2.897,-9.817,-75.239,-13.217,-95.842,-29.305,-34.354
0.25434450000011566,27.58,-15.268,-91.255,2.092,7.31,-12.085,462.151,36.151,-15.854,-4.524,-1.241,-13.654,-14.093,-14.385,-2.986,-13.933,-9.511,-18.485,-8.042,-10.77,46.133,-10.714,5.456,-7.757,-44.425,-6.543,-91.135,-16.981,-40.468
0.2544136999999864,11.671,-18.839,-99.361,-1.496,0.131,-15.146,487.304,32.529,-12.765,-11.692,-4.314,-17.227,-19.202,-24.617,-13.23,-16.48,-18.723,-24.615,-16.743,-16.394,40.964,-16.338,-2.746,-26.193,-22.352,-16.271,-94.63,-32.845,-48.624
0.2692920999998023,-7.809,-30.091,-103.36,-19.938,-14.214,-30.5,463.251,10.979,-27.609,-26.025,-13.531,-24.894,-27.892,-32.276,-23.463,-29.784,-29.463,-30.738,-23.899,-29.185,27.603,-24.007,-7.867,-32.314,-54.605,-24.451,-99.658,-45.108,-48.063
0.27338959999997314,9.617,-18.278,-84.301,-4.548,-3.954,-19.711,430.512,29.923,-22.458,-11.142,-3.784,-17.697,-19.667,-18.924,-11.144,-21.045,-18.675,-21.998,-15.166,-18.91,35.26,-12.712,1.875,-9.74,-53.013,-5.472,-87.263,-16.886,-24.449
0.28525390000004336,30.612,4.794,-55.528,24.658,8.346,2.338,414.712,62.681,-2.456,7.312,10.565,-5.896,-2.229,-14.295,4.749,-6.679,-8.41,-13.267,-3.88,-1.985,48.544,1.133,12.632,0.515,-20.172,9.391,-73.344,8.747,4.265
0.2853258000000096,23.409,5.814,-31.394,23.608,6.8,-2.276,447.085,48.786,-5.527,-1.917,4.407,-7.94,-1.714,-22.477,-2.94,-12.82,-14.037,-14.79,-1.827,-4.032,44.397,-2.454,11.594,-8.194,-30.911,0.16,-79.418,-2.021,13.482
0.29940510000005816,20.312,0.685,-4.21,26.146,9.355,-8.421,468.155,35.417,-8.595,-4.476,2.353,-8.444,-5.811,-16.307,-4.987,-14.856,-14.023,-11.702,-3.362,-7.102,40.255,-8.599,6.972,-8.186,-29.855,-5.476,-84.974,-14.314,20.641
0.29947249999986525,35.149,8.882,28.582,49.174,11.907,1.321,435.412,51.264,0.635,6.287,13.109,-2.8,-1.195,-8.094,9.363,-7.157,-6.324,-9.128,-1.822,-1.972,40.727,-4.492,7.99,-5.104,-2.673,2.214,-75.668,2.607,52.895
0.3144244999998591,37.675,23.217,61.341,60.396,8.309,3.881,438.05,50.7,-1.415,4.744,12.584,-5.359,0.856,-12.184,7.304,-10.224,-6.318,-13.73,5.353,3.153,40.686,5.758,19.252,-1.513,-18.552,11.434,-67.395,33.855,85.63
0.31449079999993046,32.002,41.125,93.043,70.581,17.523,6.951,433.001,52.186,0.123,6.788,12.059,-3.817,1.88,-12.684,0.125,-8.676,-6.312,-11.667,11.495,8.785,45.256,14.974,28.967,9.247,-35.952,23.205,-62.717,50.215,118.332
0.3293887999998333,33.507,50.305,113.442,87.417,25.702,16.166,420.273,69.04,11.394,18.564,20.756,5.409,6.489,-12.159,10.371,-0.983,-3.744,-8.581,9.434,8.777,44.186,12.91,23.303,14.361,-24.645,28.305,-59.068,46.578,133.583
0.33338129999992816,39.109,41.546,113.841,84.256,14.405,11.539,452.64,59.75,4.722,13.935,18.174,3.866,4.433,-18.807,13.947,-8.154,-7.839,-12.159,3.277,4.669,35.433,3.675,17.132,8.199,-22.059,19.055,-61.57,47.044,111.933
0.34547029999976075,39.07,38.943,99.383,69.827,17.465,6.917,459.36,45.858,-5.016,5.212,13.032,-0.748,-1.719,-16.227,8.297,-12.757,-9.88,-9.073,0.712,5.177,36.934,2.647,19.676,3.068,-10.254,11.864,-64.583,54.169,93.378
0.35959589999993113,30.322,45.564,94.672,67.195,40.501,14.594,426.625,59.644,-0.4,8.28,18.655,2.326,-2.742,-1.866,14.437,-6.084,-1.673,-5.478,4.298,4.147,39.971,6.231,17.095,-0.009,0.003,13.901,-60.932,42.332,114.289
0.3596616999998332,22.607,37.833,86.381,63.542,41.485,9.969,442.08,62.146,0.625,8.784,18.636,2.836,-1.203,2.747,18.008,-9.152,1.915,-6.497,7.367,2.606,35.833,7.761,12.979,-1.034,-32.273,14.912,-59.334,19.748,117.761
0.3744665999997778,29.244,28.062,54.019,53.745,25.05,2.787,474.426,44.665,-0.913,7.751,17.081,3.858,1.36,-3.916,12.355,-13.241,-1.674,-1.367,7.36,7.214,36.821,12.364,20.139,5.627,-46.585,16.434,-60.299,17.679,85.368
0.37452799999982744,36.387,32.644,24.763,51.642,24.0,11.493,441.676,46.67,3.699,12.354,23.723,7.44,3.408,-6.986,13.879,-8.105,-1.16,1.196,8.889,10.793,40.371,16.963,26.778,13.306,-13.751,23.078,-57.165,29.445,53.007
0.3895173999999315,29.691,29.026,15.517,47.492,26.026,8.92,408.959,54.82,-1.94,6.706,19.089,0.773,-2.231,-9.028,9.767,-12.708,-2.183,-9.564,7.856,4.635,34.183,11.823,20.092,10.731,-6.052,23.055,-56.596,27.878,64.225
0.38957829999981186,23.513,14.652,-6.528,30.538,15.753,-10.556,441.338,39.908,-15.258,-6.62,4.725,-7.937,-14.524,-19.265,-3.563,-25.503,-12.427,-16.727,-5.472,-4.079,24.927,-1.509,9.313,-1.575,-35.76,10.224,-66.273,15.043,50.84
0.40634289999979956,24.514,11.051,-30.6,18.724,13.688,-12.083,471.122,34.745,-11.145,-8.151,3.696,-3.831,-15.534,-27.955,3.101,-26.502,-17.025,-14.149,-12.126,-7.149,24.39,-10.729,4.693,-7.209,-41.36,0.48,-69.281,6.318,18.514
0.4064075999999659,21.928,10.528,-34.667,20.755,20.335,1.762,438.376,57.252,2.187,4.153,12.401,0.784,-3.735,-20.243,18.467,-19.815,-9.836,-9.524,-2.38,-0.994,28.464,-6.108,8.274,-4.128,-18.265,4.065,-63.064,0.677,12.86
0.4195796999997583,12.685,-5.364,-52.563,13.05,14.167,-4.388,456.893,53.609,-0.89,5.173,8.803,-5.365,-2.707,-8.952,5.641,-21.845,-10.338,-13.613,-2.378,-1.505,24.337,-2.003,6.217,-16.931,-3.902,-0.037,-66.587,-20.841,20.532
0.4196563000000424,4.475,-21.753,-84.786,-5.919,1.857,-21.802,489.224,21.28,-17.282,-10.713,-4.526,-12.532,-16.024,-15.09,-14.857,-31.557,-24.16,-27.431,-15.696,-13.799,14.066,-10.198,-1.986,-32.283,-31.563,-12.332,-78.303,-42.849,-1.518
0.4346092000000681,8.057,-16.096,-82.14,-3.351,8.515,-14.608,456.459,31.505,-15.216,-9.166,-2.984,-10.982,-11.91,-24.809,-5.108,-32.55,-28.235,-32.015,-12.606,-12.249,16.614,-9.163,0.065,-16.37,-63.806,-5.66,-74.639,-31.536,-16.885
0.43467669999972713,14.197,-3.784,-61.053,9.46,18.753,0.776,423.727,64.261,1.193,6.213,8.802,-4.311,2.447,-21.198,10.266,-25.857,-18.473,-20.2,-3.372,-0.966,25.819,-1.469,6.725,-3.546,-50.423,5.616,-63.806,-12.549,-11.233
0.449571300000116,11.621,-8.391,-72.775,0.229,10.537,-11.008,456.091,44.729,-6.493,-4.552,4.694,-5.331,-8.314,-17.591,2.571,-30.442,-16.405,-17.618,-8.492,-5.575,21.182,-8.128,3.644,-18.911,-17.584,-2.586,-64.767,-20.733,-15.833
0.44963049999978466,13.146,-11.456,-91.146,-7.969,0.281,-20.731,459.221,25.216,-21.855,-15.818,-1.97,-8.912,-21.626,-19.623,-6.653,-33.998,-18.95,-21.699,-6.946,-8.131,17.063,-8.12,6.202,-15.306,-18.591,-2.584,-64.702,-23.786,-15.305
0.4666549999997187,22.867,-5.81,-91.567,-0.788,3.354,-4.828,426.487,52.344,-8.514,-2.482,4.179,-2.756,-9.309,-12.943,-3.573,-25.767,-7.148,-6.82,3.819,0.074,24.73,4.184,14.905,2.64,-42.139,9.714,-58.489,-14.541,-9.654
0.466725199999928,17.209,-18.099,-106.844,-7.96,0.789,-10.459,458.848,49.73,-5.431,-7.091,-2.997,-4.802,-8.275,-11.393,-7.155,-31.889,-3.555,0.871,-7.456,-10.685,19.07,-9.141,1.57,-17.855,-33.388,-5.665,-69.189,-32.457,-38.333
0.4801124999999047,0.798,-33.963,-131.328,-22.809,-11.507,-36.576,491.177,17.405,-30.529,-27.576,-15.29,-16.58,-24.148,-23.165,-17.906,-47.226,-17.896,-17.06,-25.891,-26.556,7.78,-29.111,-14.825,-42.94,-48.724,-29.737,-82.44,-47.794,-69.546
0.48017339999978503,3.871,-21.633,-121.975,-17.663,-11.495,-32.441,460.459,20.461,-27.425,-19.351,-6.565,-11.441,-18.489,-21.092,-15.327,-40.519,-16.341,-18.58,-18.693,-16.795,18.531,-18.836,-6.613,-25.479,-80.95,-17.925,-70.062,-26.229,-48.472
0.4946961000000556,16.674,-7.779,-97.775,-16.108,-2.775,-16.527,427.724,42.982,-6.392,-6.524,1.126,0.354,-4.638,-7.751,-7.115,-29.72,-6.591,-4.217,-7.403,-7.557,32.345,-9.083,2.103,-10.596,-57.815,0.024,-56.672,-15.957,-25.369
0.494760099999894,16.145,-18.53,-100.751,-23.777,-4.309,-20.097,413.976,42.939,-16.632,-13.178,-3.998,-4.77,-11.293,-10.305,-6.595,-36.35,-13.244,-9.848,-12.519,-12.16,30.775,-12.148,-0.973,-20.32,-31.118,-4.587,-60.202,-29.773,-37.639
0.5096874000000753,14.592,-23.122,-118.069,-17.605,-5.329,-21.614,436.103,42.896,-28.911,-14.702,-1.945,-8.863,-19.479,-9.782,-6.589,-38.876,-13.743,-12.4,-9.945,-10.611,31.769,-4.451,2.614,-16.713,-41.845,-5.607,-60.142,-31.28,-40.163
0.509748099999797,15.09,-20.538,-133.832,-17.075,3.385,-24.666,468.455,35.681,-23.759,-15.712,-2.967,-7.318,-17.923,-3.113,-5.557,-37.3,-6.045,-4.19,-1.226,-10.6,32.762,-2.91,7.222,-11.573,-30.532,-3.04,-57.008,-32.786,-40.635
0.5257557999998426,8.927,-31.276,-142.408,-33.964,4.407,-36.937,483.868,17.202,-27.321,-24.917,-11.161,-12.433,-19.954,-16.942,-9.65,-42.898,-17.822,-16.482,-6.86,-17.25,27.094,-11.104,1.067,-24.37,-21.28,-10.721,-64.123,-45.561,-63.136
0.5398230000000694,10.455,-29.195,-130.482,-28.295,-0.721,-28.19,451.109,29.993,-24.22,-17.72,-6.54,-10.884,-16.86,-26.659,-4.518,-42.343,-20.878,-24.15,-8.39,-10.573,32.19,-4.945,0.554,-20.247,-53.534,-9.686,-62.522,-35.781,-60.512
0.5398897000000034,24.277,-11.235,-117.544,-9.824,6.965,-11.256,428.629,52.504,-8.314,-3.358,2.689,-1.651,-8.134,-8.701,8.295,-35.128,-2.926,-2.096,0.327,-1.853,39.842,0.183,5.676,-4.857,-70.387,-1.991,-52.213,-17.815,-39.959
0.5547421000001123,22.204,-14.298,-128.697,-21.085,14.13,-18.417,460.988,43.743,-8.306,-8.478,-1.413,-5.236,-10.687,-5.106,4.7,-38.679,-2.411,4.053,-2.747,-6.974,35.704,-8.014,2.084,-17.66,-37.529,-6.088,-54.21,-23.432,-55.288
0.5548023999999714,10.911,-27.091,-136.253,-37.97,2.333,-25.059,452.842,33.965,-17.519,-18.203,-6.022,-12.915,-15.8,-18.934,-7.088,-41.714,-14.704,-12.345,-8.892,-11.065,33.619,-10.056,0.545,-34.036,-4.704,-10.18,-59.279,-33.655,-62.405
0.5697799999998097,13.974,-28.089,-133.555,-37.419,-11.502,-21.96,473.394,33.419,-19.551,-18.697,-7.553,-12.39,-14.247,-15.329,-6.056,-39.111,-15.202,-13.357,-4.784,-9.005,34.61,-7.996,2.594,-26.318,-16.994,-9.146,-58.195,-41.818,-38.264
0.5698397999999543,14.984,-34.208,-140.594,-40.968,-10.466,-28.598,505.708,26.213,-22.605,-16.629,-9.595,-14.427,-16.794,-12.239,-4.513,-44.195,-16.723,-10.27,-7.853,-12.582,30.989,-10.55,-1.507,-17.07,-49.253,-10.161,-60.186,-53.56,-46.423
0.5848080000000664,6.26,-36.223,-139.429,-38.878,-7.894,-27.032,472.927,33.871,-16.435,-9.44,-4.974,-11.851,-13.704,-14.789,-8.607,-42.614,-15.682,-13.333,-7.845,-9.496,37.106,-3.367,4.642,-9.88,-58.425,-3.491,-55.003,-45.309,-69.43
0.5887711000000309,14.963,-20.305,-126.994,-23.47,-3.275,-12.148,446.839,51.256,-3.611,-0.721,3.228,-1.593,1.167,0.595,-2.451,-30.788,-5.42,-7.172,7.019,1.784,48.34,8.932,20.007,-1.161,-25.579,7.783,-43.165,-24.259,-52.455
0.6017428999998629,30.317,-16.699,-128.916,-23.446,4.925,-10.087,466.884,49.155,-8.218,-1.233,5.274,-1.079,0.141,4.693,5.749,-30.757,-6.952,-4.091,9.574,2.807,47.779,7.386,16.913,-3.722,-20.943,7.776,-45.171,-23.723,-39.595
0.6018023999999969,20.553,-28.465,-134.423,-34.694,3.895,-19.298,435.167,39.885,-21.53,-8.404,1.17,-7.738,-14.204,-16.828,-1.942,-39.948,-15.654,-14.333,-3.756,-6.417,42.608,-2.355,5.625,-11.915,-53.197,-0.429,-52.81,-36.507,-51.338
0.6149141000000782,1.577,-32.535,-135.825,-36.708,-4.305,-25.939,448.051,33.697,-24.582,-17.617,-7.028,-9.78,-17.776,-21.422,-12.186,-43.494,-17.175,-17.905,-7.338,-11.021,38.979,-6.964,5.62,-18.051,-42.385,-8.626,-52.757,-45.179,-50.775
0.6149866999999176,-1.498,-35.577,-145.936,-42.307,-2.252,-30.524,480.391,25.979,-21.484,-20.673,-11.12,-10.794,-17.245,-13.204,-10.124,-45.5,-18.183,-11.739,-5.794,-13.572,38.428,-8.494,4.077,-23.668,-9.555,-10.154,-55.266,-48.208,-52.773
0.6298799000001054,3.626,-35.029,-144.765,-48.412,2.874,-25.37,453.783,31.076,-14.802,-12.456,-5.473,-11.296,-17.228,-16.777,-2.942,-43.918,-15.091,-7.117,-5.276,-13.046,42.488,-4.899,3.561,-13.398,-23.378,0.102,-54.699,-39.451,-67.065
0.6299457999998594,5.672,-23.723,-126.177,-34.532,3.383,-18.685,422.591,38.217,-15.812,-6.808,-1.881,-7.698,-10.551,-11.637,2.184,-40.287,-8.928,-6.597,-2.197,-7.398,43.47,2.278,10.729,0.448,-45.384,8.299,-42.349,-29.677,-58.801
0.6448762999998507,5.154,-17.039,-119.391,-20.153,7.99,-21.228,419.607,35.617,-24.506,-12.437,-3.416,-6.666,-11.053,-3.941,3.206,-39.735,-14.042,-11.202,-3.731,-7.39,39.841,2.788,9.182,-7.75,-28.945,2.656,-39.745,-32.722,-39.787
0.6489449000000604,6.686,-20.096,-124.907,-24.743,6.958,-18.645,386.912,42.242,-21.919,-14.473,-5.462,-8.709,-19.239,-19.306,-2.944,-41.744,-20.688,-18.363,-9.875,-14.043,40.313,-6.436,0.976,-21.062,-24.817,-5.032,-47.902,-33.713,-40.259
0.6614153000000442,11.29,-23.662,-136.565,-37.014,-9.443,-17.602,391.135,40.663,-20.873,-14.971,-10.58,-13.311,-22.805,-29.533,-9.089,-46.826,-19.13,-18.857,-14.989,-17.615,36.687,-15.651,-6.198,-27.189,-55.531,-10.15,-48.879,-33.68,-52.002
0.6614825000001474,9.229,-29.786,-151.798,-43.124,-17.631,-31.416,423.532,14.494,-34.684,-22.129,-13.643,-17.908,-25.344,-16.183,-10.617,-49.34,-15.525,-12.69,-16.511,-17.597,29.99,-16.148,-11.315,-33.309,-61.111,-15.775,-47.805,-43.38,-61.684
0.6749824999997145,2.56,-26.17,-145.498,-42.057,-5.83,-31.897,444.113,8.332,-32.6,-19.545,-4.408,-10.718,-18.659,-3.872,-7.533,-39.045,-7.825,-5.505,-3.174,-10.408,35.595,-5.373,0.48,-24.567,-28.262,-10.636,-44.683,-46.41,-57.011
0.6750481999997646,11.779,-14.873,-124.348,-41.502,1.348,-15.472,411.394,32.915,-14.637,-7.23,3.281,-0.461,-5.833,-0.282,-0.865,-28.247,1.404,0.648,12.198,1.386,42.732,5.391,15.849,-7.636,-20.549,3.207,-34.905,-37.142,-42.097
0.689938500000153,24.063,-21.518,-124.224,-38.899,-4.288,-15.968,388.953,40.566,-16.672,-9.272,-2.358,-5.071,-10.95,-3.355,2.21,-32.318,-0.646,1.16,2.452,-3.226,38.079,1.799,4.562,-13.776,-52.292,-0.383,-34.87,-36.593,-48.203
0.6900000999999065,11.231,-31.231,-138.444,-33.225,-5.309,-30.297,404.445,28.743,-25.364,-21.558,-9.528,-14.8,-22.21,-14.623,-1.891,-38.433,-10.892,-7.038,-13.432,-18.08,32.405,-11.523,-7.738,-27.082,-61.973,-13.702,-46.106,-43.216,-69.159
0.7049950999999055,-4.662,-24.54,-144.454,-32.679,0.332,-25.656,371.766,31.275,-18.679,-16.413,-6.444,-11.199,-12.966,-21.781,-5.988,-36.345,-12.93,-14.204,-8.807,-16.525,38.008,-11.511,0.979,-19.883,-54.739,-8.565,-44.523,-39.587,-71.14
0.70881159999999,6.101,-18.367,-142.772,-31.11,2.381,-10.261,373.443,43.54,-12.513,-0.516,1.247,-2.479,-3.219,-14.586,-0.858,-33.235,-8.819,-12.653,-0.089,-7.799,45.655,0.796,5.076,-8.592,-56.733,4.763,-37.306,-27.252,-61.335
0.7205156999998508,18.391,-19.886,-133.92,-23.394,-1.208,-12.812,405.857,40.422,-17.111,-3.589,-1.316,-4.526,-11.925,-6.887,2.729,-33.202,-10.859,-12.64,-3.675,-13.427,43.56,-0.742,0.461,-17.293,-37.209,0.148,-42.904,-23.639,-54.101
0.7350516999999854,8.638,-24.989,-130.2,-27.982,-8.891,-25.607,438.239,26.549,-22.217,-19.979,-12.585,-15.279,-22.672,-13.028,-10.082,-38.804,-19.557,-19.287,-11.869,-22.635,34.807,-14.574,-0.052,-32.645,-20.266,-12.148,-50.546,-40.521,-49.948
0.7351118000001406,0.433,-35.21,-144.415,-39.737,-16.567,-25.069,405.526,30.109,-22.707,-24.058,-15.647,-18.338,-26.235,-25.823,-23.392,-44.913,-24.661,-22.854,-15.443,-23.124,36.309,-15.584,-4.151,-31.075,-51.496,-13.673,-49.983,-56.874,-55.021
0.7500580000000809,9.654,-35.175,-150.93,-37.135,-14.501,-16.335,372.845,49.034,-20.635,-14.3,-7.946,-10.123,-21.598,-28.871,-15.172,-41.282,-19.513,-17.196,-11.329,-17.466,46.519,-5.834,-2.097,-19.773,-64.765,-9.048,-44.81,-48.108,-61.626
0.7501234999999724,19.378,-22.844,-130.799,-33.0,-6.802,-18.368,405.26,45.911,-18.565,-9.675,-3.328,-6.014,-13.892,-19.62,-2.861,-33.044,-11.297,-11.031,-5.17,-11.301,49.546,-2.755,11.225,-12.069,-32.424,-2.891,-37.593,-26.543,-55.417
0.7650355000000673,12.186,-19.748,-122.471,-37.065,-11.406,-23.473,437.642,21.275,-19.571,-13.251,-6.398,-8.057,-14.903,-10.891,-9.006,-29.937,-9.236,-9.483,-4.14,-11.29,44.886,-5.826,12.751,-5.397,-31.367,1.722,-37.043,-19.857,-51.776
0.7650955999997677,-0.634,-25.363,-138.231,-37.028,-17.542,-23.962,404.929,14.081,-23.138,-16.312,-11.515,-11.636,-20.011,-12.93,-18.218,-31.956,-10.764,-6.912,-5.161,-16.914,45.353,-4.795,3.516,-5.904,-45.681,-0.841,-43.666,-28.034,-52.236
0.7818652999999358,0.392,-29.436,-136.555,-38.016,-9.328,-24.962,372.249,28.924,-26.188,-17.32,-12.016,-13.673,-18.454,-19.577,-12.565,-31.924,-10.753,-6.905,-6.18,-17.921,49.919,-2.741,5.05,-17.681,-22.069,-6.476,-44.135,-36.715,-44.499
0.7819297999999435,8.076,-29.407,-115.926,-36.953,-1.634,-21.351,359.069,40.166,-23.601,-16.278,-8.93,-13.147,-18.948,-20.07,-1.281,-26.769,-8.181,-8.947,-5.662,-13.805,51.918,-2.738,9.143,-17.663,-11.801,-0.834,-40.504,-36.166,-42.405
0.7951606999999967,9.605,-18.619,-106.589,-21.547,-1.12,-14.67,365.882,43.712,-17.942,-11.651,-7.896,-12.109,-20.978,-11.853,0.257,-24.693,-6.124,-7.402,-4.119,-13.791,53.915,-2.736,8.109,-6.375,-33.818,6.852,-37.902,-27.933,-48.511
0.7952259999997295,11.644,-5.281,-109.556,-6.668,5.541,-9.532,381.398,48.279,-16.387,-5.492,-4.814,-10.048,-13.785,-3.132,-2.305,-24.668,-4.58,-5.345,-4.115,-14.29,58.472,0.341,9.638,-6.881,-32.247,7.357,-32.741,-16.122,-45.388
0.8101090999998632,15.731,-3.226,-115.082,-7.174,10.659,-3.375,407.656,43.62,-13.809,-0.875,0.313,-5.94,-5.574,-3.128,1.283,-20.033,0.547,-3.803,-1.549,-9.665,60.975,4.951,11.166,-4.825,-31.703,9.911,-29.122,-9.958,-36.121
0.8101728000001458,9.568,-8.858,-121.627,-15.876,1.939,-6.958,419.544,29.744,-12.258,-1.899,-2.248,-6.446,-9.155,-11.835,3.331,-16.939,1.059,-3.799,2.551,-9.655,56.816,2.385,7.056,2.865,-61.897,11.438,-35.241,-16.096,-30.45
0.8241146999998819,-2.737,-20.12,-126.628,-26.106,-4.723,-24.369,386.849,26.64,-20.955,-12.656,-12.492,-17.198,-17.855,-21.044,-5.381,-24.607,-7.139,-13.017,-5.137,-18.867,48.562,-7.351,-0.123,-11.483,-57.224,-1.893,-44.427,-31.961,-33.493
0.8241735000001427,-9.907,-34.957,-131.625,-32.74,-5.743,-34.591,354.187,30.2,-34.254,-26.988,-20.164,-23.841,-26.034,-27.171,-13.573,-33.804,-12.767,-23.25,-17.939,-28.069,43.903,-17.59,-8.32,-35.037,-24.38,-19.822,-49.506,-47.811,-55.489
0.8409523999998783,-8.872,-36.971,-128.932,-35.781,-9.323,-31.995,386.62,22.485,-36.781,-28.498,-22.706,-22.28,-31.643,-27.656,-14.071,-32.745,-11.73,-18.103,-18.946,-29.578,44.371,-21.159,-8.312,-33.978,-33.064,-21.339,-49.969,-55.96,-69.778
0.8410235000001194,-1.691,-27.2,-118.557,-31.135,-9.314,-23.766,408.263,22.975,-24.962,-16.174,-18.072,-19.184,-25.464,-21.993,-10.983,-24.516,-8.644,-8.864,-9.705,-21.864,49.962,-12.428,1.43,-14.988,-65.307,-9.022,-42.746,-47.707,-51.778
0.8553317999999308,2.409,-22.562,-125.61,-21.882,-4.694,-14.52,375.579,38.321,-13.666,-8.985,-9.345,-13.017,-14.167,-12.237,-5.849,-18.856,-0.439,-6.806,-2.011,-13.645,55.548,-1.145,7.064,-4.727,-52.946,1.745,-34.507,-32.802,-39.943
0.8553965999999491,-6.815,-31.249,-143.928,-28.008,-9.3,-21.166,384.425,27.524,-20.312,-16.149,-13.434,-12.492,-16.715,-7.102,-5.844,-22.935,1.611,-5.774,-5.595,-18.755,51.394,-6.779,0.909,-12.919,-33.425,-4.917,-38.058,-41.479,-55.784
0.8692605000001095,-15.005,-41.976,-137.636,-37.714,-16.463,-33.952,386.602,9.566,-31.563,-22.792,-21.618,-21.188,-22.334,-9.144,-10.961,-28.036,-6.588,-4.232,-12.762,-25.908,43.658,-17.019,-4.215,-22.64,-60.032,-16.182,-43.656,-59.88,-59.315
0.8693248999998104,-5.256,-33.737,-122.642,-21.282,-17.471,-20.086,353.94,30.561,-20.773,-10.474,-13.399,-17.069,-13.602,-11.696,-6.339,-21.347,-6.069,-5.252,-7.114,-18.198,48.737,-8.293,-0.624,-11.347,-74.317,-9.506,-35.415,-45.476,-42.349
0.8843010000000504,9.606,-13.211,-126.105,-4.867,-13.867,-3.672,386.374,43.85,-8.456,0.295,-2.627,-5.781,-8.465,-12.709,0.327,-13.129,2.647,-4.734,0.578,-8.958,59.959,2.986,6.549,1.472,-41.455,2.286,-26.158,-21.864,-39.233
0.8992554999999811,12.158,-14.223,-131.102,-12.547,-5.144,-15.452,418.775,26.9,-15.108,-8.927,-8.26,-10.386,-16.141,-17.307,-3.259,-16.19,-2.479,-5.754,-4.546,-12.535,60.412,-3.164,6.03,-8.776,-22.458,-3.864,-26.132,-27.478,-48.928
0.9032827999999427,2.924,-28.041,-129.434,-18.17,-0.528,-17.998,386.081,35.07,-14.581,-10.967,-11.326,-16.523,-15.613,-21.388,-1.207,-19.248,-11.186,-10.872,-9.664,-15.597,55.228,-5.21,2.438,-13.89,-44.977,-7.446,-26.106,-37.697,-48.879
0.9161159999998745,-3.739,-28.525,-132.891,-22.25,-10.262,-5.684,383.646,45.794,-6.881,-0.71,-4.654,-10.871,-8.937,-20.855,3.405,-16.154,-7.076,-11.885,-7.093,-13.532,57.734,1.967,3.46,-1.581,-62.35,-0.266,-25.567,-37.147,-44.219
0.916179800000009,3.95,-24.91,-133.27,-28.375,-14.35,-12.851,416.05,23.207,-16.608,-5.32,-7.723,-9.836,-10.978,-16.223,-2.746,-15.626,-2.458,-7.263,-6.574,-14.543,60.75,0.428,6.018,-1.579,-53.579,-1.803,-25.03,-41.72,-48.786
0.9294083999998293,14.192,-17.713,-119.817,-3.244,0.009,-13.35,383.359,31.38,-16.592,-6.852,-7.203,-6.752,-6.868,-7.498,-0.694,-9.975,1.643,-0.083,1.63,-7.356,63.251,1.965,8.573,-6.7,-42.254,-0.264,-15.783,-36.555,-47.712
0.9294749000000593,14.69,0.235,-101.766,25.961,5.132,10.741,350.7,64.137,5.966,14.672,10.735,6.575,10.557,0.194,12.627,2.843,11.375,8.626,18.022,8.021,71.897,17.332,16.249,6.114,-38.626,14.081,-6.546,-18.588,-27.685
0.944338400000106,17.237,1.772,-103.714,10.566,-6.656,9.706,383.137,50.752,8.01,17.219,11.748,6.568,12.596,-1.855,8.003,1.303,9.314,6.056,14.418,2.89,74.387,16.802,15.721,10.719,-30.903,12.017,-9.613,-19.082,-29.194
0.9443989000001238,20.806,-16.673,-124.615,-10.45,-9.211,-10.796,414.517,27.136,-14.028,-6.365,-8.243,-8.295,-7.909,-5.952,-7.374,-16.629,-5.552,-7.782,-2.503,-15.044,64.066,-3.194,2.385,-5.686,-23.187,-6.438,-18.825,-32.383,-60.415
0.959377300000142,16.174,-18.705,-126.539,-2.755,-1.517,-6.687,381.827,40.428,-16.575,-7.895,-8.235,-8.799,-15.073,-3.384,-5.317,-18.662,-4.522,-4.188,-0.451,-12.98,63.49,-3.703,1.871,-8.754,-31.361,-4.382,-18.294,-30.301,-52.67
0.9634980000000724,13.084,-2.293,-100.798,6.47,0.021,10.226,378.371,58.831,2.909,12.093,10.216,2.48,2.36,1.23,4.934,-2.762,9.827,16.308,13.382,1.378,74.697,13.719,16.726,10.21,-41.576,13.041,-6.492,-17.975,-19.83
0.9762946999999258,17.682,1.296,-88.914,8.0,-6.126,13.29,345.717,64.408,11.103,17.204,10.718,1.965,10.555,0.717,5.442,0.315,8.793,13.218,14.905,0.864,72.061,15.754,18.758,16.347,-35.899,12.003,-2.387,-14.371,-25.958
0.9763626999997541,18.177,-15.612,-104.706,3.894,-7.657,0.469,351.007,48.462,-5.302,1.305,-2.612,-7.258,-2.264,-6.969,-2.248,-12.493,-4.024,-6.263,5.669,-7.334,63.28,2.931,7.469,-4.673,-34.838,-3.378,-15.705,-28.189,-58.207
0.989669000000049,14.572,-26.867,-114.848,-10.967,-2.527,-15.926,383.444,21.773,-20.153,-11.504,-7.733,-11.349,-9.434,-14.646,-7.882,-16.579,-9.143,-5.232,-0.997,-11.425,68.339,-2.708,3.875,-16.452,-44.537,-8.498,-22.862,-40.456,-45.854
1.004478199999994,11.996,-13.008,-109.61,-10.956,0.038,-10.274,382.036,31.998,-6.813,-0.734,-2.09,-5.703,-0.203,-11.558,-3.263,-8.365,-7.597,1.946,0.029,-8.852,75.956,2.418,6.433,-1.579,-36.296,0.22,-11.568,-29.145,-31.976
1.0045466000001397,14.033,3.911,-102.84,11.084,-0.987,12.278,349.378,63.216,13.174,18.222,8.158,3.525,10.556,-3.862,8.523,-5.283,-0.417,-4.204,6.177,-2.183,75.367,7.539,11.037,8.669,-30.624,8.417,-2.847,-12.21,-53.973
1.0045884000001024,21.704,2.37,-99.663,27.467,2.6,21.999,337.758,71.35,16.234,21.79,14.298,7.107,14.132,-3.346,12.101,-5.79,4.707,-2.663,10.781,0.893,78.366,8.556,15.124,4.05,-54.16,7.896,-3.869,-12.198,-52.894
1.0194799000000785,19.633,-2.755,-102.638,25.39,2.085,18.903,354.326,68.205,11.095,17.157,9.673,2.489,7.97,-5.392,3.38,-5.272,-1.958,1.95,6.16,-4.743,77.263,7.523,12.035,3.021,-58.204,6.351,-2.841,-15.259,-27.226
1.0233408999997664,3.22,-10.437,-114.318,1.799,-11.237,0.441,386.76,46.62,-7.872,0.234,-7.243,-9.808,-8.432,-8.46,-9.431,-17.05,-11.178,-12.908,-6.142,-13.96,65.915,1.368,3.314,-4.667,-25.87,0.197,-8.473,-21.904,-34.371
1.0351041999997506,-0.37,-26.82,-123.938,-25.868,-16.861,-28.248,419.161,14.298,-28.868,-23.332,-20.043,-20.045,-21.231,-17.161,-13.52,-29.328,-10.654,-21.605,-11.259,-21.118,64.824,-8.368,0.237,-16.957,-16.111,-11.586,-19.223,-37.764,-57.391
1.0495412000000215,16.024,-21.67,-121.764,-17.133,1.086,-18.486,386.466,30.677,-15.007,-12.038,-9.265,-10.291,-12.501,-14.582,-1.211,-18.028,-1.934,-3.14,1.56,-14.437,78.08,-0.162,9.458,-1.059,-34.025,-3.89,-9.47,-32.091,-56.821
1.049606600000061,18.57,3.454,-112.421,9.012,12.868,14.32,353.804,63.434,7.037,16.151,9.7,4.064,4.93,0.289,13.134,-4.178,5.24,11.72,14.366,-0.078,84.149,17.256,21.744,22.508,-47.311,18.655,5.909,-5.418,-43.444
1.0644892999998774,3.694,1.914,-106.161,3.88,2.609,6.109,386.238,49.539,-4.753,7.425,4.567,-3.112,1.851,-2.785,9.023,-13.395,0.624,2.999,8.204,-2.64,77.917,11.091,18.649,16.338,-50.338,16.588,-1.269,-4.901,-29.056
1.0645731999998134,0.105,-17.043,-105.543,-12.005,-5.59,-20.025,418.64,17.214,-15.507,-13.074,-11.831,-13.355,-11.983,-23.274,-0.208,-23.116,-11.16,-9.299,-1.026,-14.932,69.643,-3.264,5.31,0.953,-26.721,-1.36,-9.977,-24.364,-20.318
1.0795727999998235,7.277,-16.514,-112.097,-10.969,-0.461,-16.419,385.946,20.27,-6.27,-6.914,-10.283,-7.707,-10.434,-23.763,1.842,-18.482,-9.612,-10.315,-1.537,-13.893,70.085,1.35,2.743,-5.708,-0.055,-3.408,-7.406,-29.462,-35.154
1.0796399999999267,2.659,-9.325,-124.793,-8.909,0.051,-10.255,353.284,36.132,-5.751,-1.271,-2.075,-5.137,-4.788,-4.784,1.84,-16.414,0.644,-2.62,2.051,-8.756,75.651,5.959,8.376,-9.289,-30.281,1.719,-8.423,-21.748,-56.636
1.095560199999909,-2.979,-9.316,-122.106,-5.314,-6.096,-9.732,323.73,47.366,-7.795,-4.856,-1.561,-7.694,-4.783,4.955,-2.773,-15.373,3.717,4.043,6.147,-9.26,76.599,3.392,10.417,-1.595,-61.501,2.229,-6.365,-13.529,-50.432
1.1100656999997227,7.27,-7.77,-106.615,-2.747,-6.09,-6.136,356.194,44.757,-5.738,-4.339,-1.559,-5.125,-1.705,0.851,-0.721,-12.284,-0.897,-2.109,5.117,-9.25,75.498,5.437,7.845,4.042,-35.824,2.74,-0.724,-14.028,-29.889
1.110133599999699,13.41,-14.422,-111.631,-19.138,-11.207,-22.012,388.625,17.048,-18.027,-13.556,-9.243,-10.755,-6.826,-9.396,-4.306,-20.981,-11.142,-14.402,-8.721,-16.926,71.324,-1.228,1.177,-7.745,-32.202,-1.362,-7.895,-27.334,-31.908
1.1246464999999262,-1.46,-25.678,-129.963,-30.389,-18.368,-34.285,355.961,6.785,-25.181,-20.203,-16.918,-16.892,-16.553,-15.534,-12.499,-28.132,-16.767,-13.363,-12.298,-19.983,66.642,-7.887,1.688,-9.786,-57.785,-2.385,-11.986,-30.893,-48.27
1.1247118000001137,-9.656,-14.894,-121.124,-11.404,0.093,-8.123,323.33,37.516,-6.713,-0.715,-1.019,-2.53,-4.753,-7.322,2.883,-13.247,-4.967,-0.03,8.206,-2.032,75.797,6.466,16.031,4.568,-33.137,8.888,1.858,-16.518,-49.759
1.139764600000035,10.334,2.027,-101.535,7.563,19.048,10.84,355.794,54.385,5.589,15.167,15.888,8.743,10.62,0.883,21.835,-0.938,6.309,9.192,21.518,9.241,89.041,19.779,23.187,9.686,-9.538,19.125,11.078,-5.23,-35.877
1.1398294000000533,26.718,-1.561,-105.019,4.994,3.66,-3.515,382.591,40.498,-5.175,5.931,5.113,0.537,2.925,0.369,11.055,-7.085,5.278,11.232,14.324,1.547,86.391,15.661,17.529,6.091,-28.483,16.545,9.018,-5.737,-24.058
1.1546023999999306,15.42,-9.756,-113.624,-4.232,-9.664,-10.172,349.933,33.798,-11.83,-1.76,-4.113,-3.049,-3.225,3.443,-2.276,-9.64,3.736,9.684,9.699,0.009,80.157,13.084,15.462,4.548,-16.672,9.356,5.935,-12.904,-28.132
1.1586011999997936,6.695,-13.333,-116.072,-13.962,-1.969,-10.161,381.858,29.666,-7.72,-0.733,-0.011,-0.485,2.413,7.026,0.288,-10.655,0.146,3.014,8.665,-2.041,80.589,11.022,11.348,-1.605,-5.384,3.711,-1.243,-26.723,-46.547
1.1703456999998707,16.423,-20.492,-123.128,-18.559,-8.115,-18.861,414.264,16.828,-8.737,-1.245,-4.621,-6.12,-1.688,0.871,-3.299,-19.866,-6.002,-3.649,1.996,-11.26,75.385,2.301,1.603,-6.726,-37.654,-1.416,-4.828,-34.894,-59.308
1.1704116999999314,19.48,-21.496,-124.029,-14.442,-15.279,-14.231,381.574,25.008,-7.703,0.805,-8.203,-7.651,-4.247,0.87,-5.345,-18.309,-2.41,-0.059,3.019,-9.712,71.724,-0.775,3.138,-2.621,-57.085,-1.414,-2.262,-26.149,-53.614
1.1846938999997292,5.116,-18.913,-123.393,-16.989,-5.53,-9.606,348.917,38.303,-6.159,-3.294,-8.707,-8.155,-4.756,1.381,-1.753,-18.29,-0.358,1.99,-1.083,-11.751,72.676,-5.385,3.647,-5.18,-39.097,-2.95,-6.87,-26.123,-45.875
1.1847601999998005,-5.135,-29.653,-136.077,-26.706,-9.111,-30.089,381.356,16.748,-22.034,-21.734,-23.043,-20.955,-21.145,-13.989,-15.071,-36.715,-12.141,-10.307,-22.599,-31.207,62.358,-20.236,-12.238,-23.105,-51.865,-16.779,-16.597,-47.102,-51.465
1.1997474999998303,5.628,-32.184,-133.892,-21.556,-14.225,-37.231,411.201,2.899,-31.233,-21.712,-26.606,-21.958,-27.271,-23.709,-20.692,-37.191,-14.178,-13.371,-23.601,-28.615,58.709,-18.679,-13.25,-33.841,-49.764,-23.422,-14.532,-53.202,-52.438
1.1998202999998284,19.455,-6.025,-102.507,-3.604,1.159,-7.992,378.514,34.659,-7.124,2.901,-0.452,-0.932,-5.215,-4.73,1.358,-11.538,0.693,2.524,6.137,-1.946,79.143,6.442,7.767,-16.901,-22.562,-1.37,0.852,-28.046,-33.943
1.2147813999999926,13.288,9.863,-87.036,4.084,3.719,9.947,370.963,53.068,7.74,14.681,12.869,7.266,5.037,10.132,8.529,-3.33,8.377,9.182,17.914,6.253,88.797,19.756,14.932,5.145,-40.983,19.636,9.048,-8.55,-22.126
1.218779799999993,0.979,-2.442,-101.293,-1.043,-11.141,-2.871,403.38,31.498,-9.174,5.445,-0.977,-1.963,-4.702,-3.198,-5.312,-14.085,1.709,3.537,7.65,-4.0,76.413,10.002,6.208,4.116,-53.749,12.957,2.379,-14.177,-35.936
1.2306565999997474,8.15,-12.174,-110.413,-5.652,-13.18,-11.065,370.701,24.806,-13.775,-0.196,-8.148,-5.547,-6.747,-9.855,-2.232,-19.706,-0.342,6.607,5.593,-7.582,71.214,2.308,3.64,-8.696,-20.908,2.185,-2.746,-23.897,-46.146
1.2307307999999466,15.827,-10.625,-106.717,-9.233,-11.117,-9.005,354.961,38.101,-1.466,0.829,-5.066,-6.054,-6.74,6.036,3.405,-19.686,4.269,9.162,7.124,-9.111,75.753,0.769,1.587,-14.835,-10.128,0.646,-1.207,-29.508,-37.391
1.2448488999998517,1.979,-13.175,-108.147,-12.298,-9.057,-12.07,387.394,33.965,-4.026,-1.734,-7.11,-11.171,-10.832,5.518,-7.869,-22.228,1.191,1.468,-0.055,-16.274,74.141,-5.892,-5.074,-17.894,-42.394,-5.502,-7.865,-34.09,-37.866
1.2449163999999655,-5.195,-19.822,-119.31,-16.384,-3.412,-20.767,391.618,21.635,-17.342,-11.978,-16.324,-16.795,-14.407,-16.517,-12.984,-29.891,-9.057,-5.705,-11.838,-23.943,68.431,-14.596,-10.192,-22.487,-63.356,-11.644,-16.054,-34.568,-56.271
1.259810799999741,-0.067,-26.462,-133.535,-27.638,-19.291,-30.48,369.197,11.368,-27.059,-25.286,-28.604,-22.926,-24.126,-26.234,-16.045,-41.644,-16.732,-14.409,-24.122,-30.579,63.752,-21.241,-16.33,-27.588,-59.706,-16.243,-14.501,-36.07,-61.85
1.259874899999886,-5.19,-27.973,-132.377,-39.906,-33.104,-35.572,380.098,0.085,-32.155,-24.749,-28.063,-21.878,-30.762,-18.011,-20.64,-40.065,-18.765,-24.641,-25.122,-32.085,61.639,-21.732,-16.826,-31.146,-56.061,-20.326,-14.999,-46.28,-48.98
1.2748086000001422,-4.16,-19.748,-115.851,-35.255,-7.455,-22.217,347.443,13.405,-21.876,-7.818,-9.079,-10.073,-14.338,-8.259,-5.762,-25.681,-13.111,-18.981,-12.802,-21.807,72.336,-8.39,-5.538,-20.357,-54.468,-8.522,-12.423,-44.697,-40.222
1.2787634000001162,11.213,-7.433,-103.952,-17.801,15.094,0.347,314.82,46.18,-2.387,10.121,6.299,0.183,5.657,-1.591,14.736,-12.847,2.272,0.506,3.093,-7.44,86.608,9.549,9.324,-0.356,-39.044,13.516,3.984,-22.623,-37.108
1.2908222000000933,13.251,-0.253,-100.774,-9.587,7.394,3.42,347.293,45.621,2.739,13.185,7.317,2.744,7.7,-3.639,15.233,-7.711,10.979,12.289,14.36,-0.773,89.083,17.224,17.512,6.816,-6.217,21.187,11.152,-5.694,-37.071
1.3049268999998276,4.528,-3.327,-106.309,-13.163,1.751,-10.928,379.733,13.3,-9.559,0.364,0.65,-1.357,-2.554,-9.27,12.657,-12.827,3.283,4.079,10.247,-6.407,85.408,12.084,12.884,-3.437,-5.699,12.969,0.382,-11.324,-46.768
1.3049940999999308,3.499,-13.057,-117.985,-15.199,0.213,-15.015,347.078,9.188,-19.284,-8.858,-8.572,-10.577,-14.334,-9.261,9.058,-23.06,-5.429,-10.782,-5.644,-16.647,83.785,-1.248,1.088,-15.216,-37.968,3.222,-5.253,-25.657,-47.233
1.3199314999997114,1.447,-12.532,-115.306,-8.012,-6.96,-0.656,314.456,41.455,-12.092,0.372,-6.002,-12.616,-12.783,-10.277,-2.222,-22.525,-3.887,-8.722,-8.713,-16.118,83.189,-7.395,-4.549,-15.713,-29.733,-0.88,-3.711,-29.73,-29.255
1.3199995999998464,0.421,-5.347,-102.383,-2.881,-6.953,5.493,336.683,49.098,-1.834,11.13,2.201,-5.431,-2.012,-10.266,-4.781,-16.867,0.728,5.12,1.542,-10.979,84.643,-1.24,0.066,-11.599,3.084,-0.367,-5.757,-26.114,-27.689
1.3349058999997396,8.105,-9.44,-105.354,-14.149,-7.97,-5.783,369.134,36.241,-5.418,5.996,-4.974,-6.45,-3.547,-5.133,-4.264,-20.436,1.239,-0.521,-1.021,-17.116,85.071,-2.263,1.603,-13.124,-28.682,0.658,-7.288,-27.625,-52.252
1.3349663999997574,6.047,-19.165,-114.47,-31.553,-8.987,-14.999,336.489,36.717,-15.147,-7.33,-16.239,-14.641,-14.814,-13.837,-10.92,-26.563,-6.959,-17.427,-15.364,-26.833,81.912,-14.556,-6.595,-16.185,-60.929,-3.441,-9.842,-35.794,-65.52
1.3518103999999767,-11.377,-28.879,-121.016,-42.28,-3.855,-23.181,355.62,21.823,-24.865,-18.081,-21.346,-19.237,-21.971,-28.68,-14.495,-32.684,-16.686,-21.508,-19.96,-30.904,77.731,-22.226,-14.273,-21.292,-42.425,-12.659,-18.542,-42.931,-57.257
1.351879100000133,-17.001,-36.535,-132.166,-48.898,-17.171,-36.478,388.052,-9.449,-28.427,-22.674,-26.96,-21.267,-23.999,-23.528,-17.555,-35.726,-12.058,-15.851,-12.255,-31.386,77.141,-19.13,-9.136,-24.345,-28.55,-15.72,-20.06,-43.913,-42.343
1.3661621000001105,-2.639,-24.203,-125.886,-39.627,-29.449,-26.195,355.389,5.929,-18.664,-13.942,-19.249,-16.635,-15.778,-8.136,-18.562,-22.882,3.323,-3.027,0.565,-20.596,87.823,-4.766,5.218,-11.513,-17.763,-0.335,-8.769,-30.549,-33.079
1.3662298999997802,8.634,0.412,-100.657,-8.849,-6.878,0.983,322.758,38.711,-8.912,0.929,-0.786,-4.323,-2.954,1.606,-2.149,-8.515,13.566,11.32,14.397,-4.181,104.641,12.144,12.897,1.819,14.018,19.645,3.535,-11.563,-37.657
1.379993099999865,12.724,9.121,-94.921,3.968,7.473,6.618,350.612,37.136,-8.391,8.1,5.362,0.805,-0.902,8.265,11.685,-6.969,12.015,9.26,19.505,-1.616,109.659,18.28,13.909,-0.744,17.078,23.212,10.191,-3.354,-38.132
1.3800570999997035,18.346,6.038,-100.461,-12.43,-4.317,2.513,383.05,27.365,0.327,13.215,6.381,1.829,2.685,2.621,8.087,-4.401,7.905,0.541,16.924,-5.2,109.55,17.749,16.457,1.306,-9.58,23.188,14.792,-6.425,-24.774
1.395028899999943,20.377,0.396,-96.262,-18.053,-0.215,4.047,373.957,33.485,3.913,15.764,8.424,3.876,10.367,-9.165,9.616,-2.347,5.335,-1.508,11.784,-6.219,111.489,14.658,14.391,4.89,-27.501,25.214,11.191,-14.615,-25.773
1.3950949999998556,14.722,-8.826,-101.801,-14.449,5.933,-3.642,369.997,27.304,-8.386,8.063,-0.806,-0.739,3.184,-7.106,11.144,-8.492,2.256,-4.581,6.649,-11.849,105.743,5.422,6.18,-8.947,-31.059,12.381,-0.603,-21.261,-39.58
1.4109376000001248,9.071,-9.329,-106.31,-21.095,-7.905,-4.663,351.696,31.887,-4.792,6.006,-5.416,-5.861,-1.942,-0.951,-1.163,-8.484,1.229,-5.601,3.056,-15.423,98.977,-1.756,4.636,-17.647,-6.95,-1.463,-5.726,-17.653,-36.467
1.4110092000000805,5.476,-4.709,-95.446,-27.734,-13.532,0.977,368.251,40.052,4.434,8.049,-2.849,-5.343,2.671,-7.61,-6.285,-6.939,0.203,-9.181,-3.607,-18.481,98.878,-6.877,2.07,-16.093,7.402,-0.437,-6.232,-20.709,-27.209
1.4251048000000992,3.934,-14.95,-100.986,-27.706,-11.47,-15.93,400.67,11.323,-12.988,-3.742,-13.092,-11.997,-7.066,-18.361,-1.668,-16.665,-5.432,-19.931,-13.337,-26.148,95.705,-13.531,-7.153,-23.249,-24.881,0.588,-10.324,-39.644,-29.743
1.4251712999998745,4.954,-21.595,-118.303,-24.604,-14.532,-26.672,367.994,0.553,-23.734,-12.447,-19.227,-17.109,-16.793,-22.954,-1.666,-19.21,-7.476,-16.325,-9.225,-25.097,96.634,-8.394,-3.56,-22.713,-38.689,2.637,-7.753,-40.117,-37.91
1.4400643999997556,-0.686,-11.84,-113.574,-16.895,-12.468,-13.326,335.351,29.754,-13.976,-6.287,-11.01,-10.944,-11.14,-19.857,-1.152,-12.019,-0.808,-4.013,2.055,-17.387,106.271,2.885,7.714,-11.932,-5.862,10.319,-2.109,-23.683,-52.217
1.4401272000000063,-3.247,-14.902,-107.825,-19.952,-9.894,-15.362,367.803,23.064,-16.524,-8.33,-12.024,-9.908,-11.642,-8.566,-1.663,-12.519,2.266,-5.033,2.053,-18.907,107.19,-0.704,7.707,-13.457,-7.393,7.747,-7.743,-24.684,-61.386
1.4550239000000147,5.978,-24.621,-113.865,-29.666,-11.934,-23.543,399.711,3.574,-19.069,-10.883,-15.086,-10.923,-14.191,3.225,-4.223,-11.482,4.313,1.632,3.075,-18.375,107.082,-5.314,6.162,-18.567,-21.218,2.616,-10.809,-32.856,-46.468
1.4700597999999445,3.411,-19.473,-111.19,-27.587,-8.848,-13.273,367.036,28.161,-9.828,-3.7,-8.923,-7.838,-7.005,3.222,-4.219,-6.86,9.432,8.802,5.634,-14.771,112.098,-3.772,6.156,-21.11,-6.34,2.613,-7.212,-37.434,-26.954
1.4740120000001298,-10.425,-19.966,-106.98,-31.146,-15.499,-12.748,383.062,34.28,-13.405,-5.746,-13.013,-12.441,-10.072,-7.027,-13.436,-10.951,5.324,-6.063,-2.569,-19.367,108.912,-8.891,-5.121,-27.748,-18.117,-3.537,-14.377,-47.13,-32.562
1.4861531999999897,-1.705,-23.02,-108.922,-34.701,-21.119,-16.321,415.467,12.217,-13.391,-5.228,-13.0,-10.892,-7.5,-6.508,-16.497,-8.891,2.245,-8.107,1.02,-14.737,112.902,-4.271,-1.018,-23.11,-36.542,-0.46,-12.826,-40.423,-46.362
1.4862193999997544,15.715,-6.091,-106.764,-16.223,-1.118,1.626,416.076,21.939,3.016,9.122,4.432,2.952,10.438,4.769,6.061,5.462,9.927,7.783,16.901,-3.963,132.257,11.614,18.451,-10.791,-10.89,17.472,5.63,-18.866,-45.803
1.4991927000000942,5.453,0.575,-113.317,-8.522,13.74,3.673,383.385,35.749,-1.086,5.527,0.841,0.387,5.305,-4.969,12.715,1.358,4.794,-2.471,7.662,-14.718,132.125,5.455,10.236,-17.953,0.904,15.917,5.112,-20.384,-45.757
1.49925949999988,-13.508,-18.381,-126.524,-29.006,-6.253,-20.409,365.583,19.832,-20.04,-14.459,-22.213,-16.519,-16.218,-26.993,-11.376,-16.574,-11.092,-20.399,-10.276,-29.56,114.062,-11.969,-7.705,-32.792,-23.175,-0.493,-12.824,-36.245,-55.958
1.5142132999999376,-13.495,-24.51,-123.836,-40.76,-26.227,-26.536,381.611,9.053,-20.02,-18.03,-24.753,-20.089,-16.201,-17.745,-20.074,-19.119,-9.032,-13.206,-7.192,-26.457,114.46,-9.908,-0.013,-30.71,-33.398,-1.517,-13.835,-39.283,-54.365
1.5142794999997022,-6.821,-16.801,-118.077,-35.596,-20.566,-18.312,382.767,12.63,-15.389,-11.352,-16.531,-15.458,-9.525,3.79,-9.295,-10.903,0.711,-5.509,-1.037,-24.381,124.592,-4.262,7.159,-21.458,-27.729,0.534,-8.698,-42.317,-37.404
1.5292335999997704,-6.302,-14.223,-118.983,-30.437,-8.25,-15.22,370.088,19.278,-13.837,-6.73,-13.441,-9.807,-5.93,0.2,-2.114,-6.281,2.76,-3.454,1.525,-21.283,129.59,-4.258,5.615,-18.362,-14.894,-0.491,-7.153,-40.226,-34.293
1.5333750999998301,-2.709,-8.573,-112.204,-20.673,-0.557,-8.545,389.698,29.505,-1.527,4.035,-4.206,0.449,6.884,-0.313,2.499,0.385,10.442,9.357,13.307,-8.454,138.682,5.992,13.807,-14.246,-2.584,9.243,0.027,-24.816,-43.993
1.5453769000000648,10.613,-3.441,-107.481,-18.603,-0.556,-1.877,414.412,35.623,6.159,12.228,1.946,3.01,13.025,14.545,0.96,6.533,16.579,16.52,16.367,-4.859,145.716,12.646,17.379,-11.157,-11.29,15.894,2.588,-24.279,-34.215
1.5454442999998719,19.312,-10.098,-111.984,-30.368,-9.265,-2.899,381.722,33.026,-1.02,6.58,-3.179,-2.116,5.84,9.407,-3.652,2.428,10.414,7.794,8.154,-12.539,143.521,4.949,7.628,-16.269,-16.402,8.706,-3.05,-39.624,-17.787
1.5592879000000721,6.485,-8.551,-112.897,-33.923,-12.842,-5.97,366.483,26.845,-7.679,-1.111,-5.225,-3.139,3.272,-4.947,1.475,-3.722,5.793,-0.41,8.658,-13.551,146.963,2.895,3.522,-18.302,-10.238,7.672,-0.998,-33.949,-34.675
1.5593527000000904,-4.792,2.216,-112.272,-21.594,-6.681,-6.477,398.904,22.207,-7.671,-0.085,0.416,-0.062,4.294,5.304,4.035,1.917,8.349,5.226,15.31,-8.414,154.501,11.089,10.69,-8.55,-19.962,19.448,4.639,-19.058,-55.645
1.5742669999999634,12.119,4.263,-109.086,-13.376,-5.65,3.264,374.427,28.333,-3.053,10.161,6.051,4.037,8.9,20.156,1.469,10.624,13.464,18.028,20.93,-1.234,159.982,20.812,20.926,1.192,-16.868,29.675,10.27,-21.601,-35.609
1.5743302999999287,26.451,-1.889,-102.317,-21.559,-14.354,6.847,343.314,31.378,-1.0,12.2,4.508,3.008,12.477,12.451,3.005,6.515,14.475,18.522,22.446,0.304,162.383,21.303,20.393,-0.346,-1.994,26.059,12.309,-26.702,-10.471
1.5893001999997978,7.469,-15.719,-112.973,-39.468,-24.073,-16.214,375.759,12.904,-15.344,-9.329,-12.403,-11.852,-4.954,-4.468,-9.806,-9.373,-1.421,-1.476,4.493,-16.602,154.024,3.351,-0.12,-13.153,-25.046,7.59,0.001,-30.261,-33.514
1.5932883999998921,-10.981,-31.073,-131.815,-47.113,-30.709,-35.153,399.461,-3.503,-31.21,-28.787,-30.834,-26.185,-27.49,-17.271,-31.313,-22.172,-21.4,-24.016,-20.103,-35.541,144.136,-18.169,-17.026,-32.095,-43.976,-9.836,-16.905,-50.211,-65.244
1.6062914999997702,-4.31,-31.554,-127.073,-43.992,-34.264,-28.97,427.239,-1.962,-27.593,-23.123,-28.754,-23.085,-23.364,-24.426,-32.306,-26.248,-22.915,-25.529,-23.669,-34.993,153.214,-21.737,-17.009,-42.31,-21.391,-14.95,-18.938,-64.506,-60.055
1.6063583000000108,-0.208,-25.887,-116.699,-49.584,-36.279,-24.331,438.082,5.724,-18.856,-15.415,-22.065,-19.476,-13.607,-25.426,-24.077,-24.685,-16.745,-14.233,-17.497,-31.884,162.794,-17.105,-16.992,-35.095,-21.882,-15.447,-17.382,-55.22,-43.601
1.619409899999937,-10.454,-25.861,-121.706,-51.583,-34.706,-26.356,405.369,15.965,-20.374,-19.498,-28.19,-27.141,-20.766,-25.913,-26.102,-26.709,-17.24,-15.756,-20.041,-35.438,162.632,-16.063,-18.0,-26.351,-51.574,-12.87,-19.926,-52.09,-47.144
1.619489700000031,-9.418,-21.737,-124.146,-38.212,-24.938,-21.718,372.688,19.535,-24.452,-21.528,-29.187,-26.089,-25.868,-23.326,-26.076,-27.707,-18.76,-27.523,-17.46,-30.792,173.227,-11.948,-9.785,-25.3,-55.62,-7.734,-16.32,-60.235,-56.318
1.6344288000000233,2.886,-17.617,-118.898,-32.538,-17.74,-17.086,405.103,8.244,-22.891,-13.822,-18.912,-14.28,-16.108,-16.642,-16.829,-18.458,-15.155,-23.909,-6.684,-22.565,188.936,-4.764,-4.652,-22.2,-42.757,-3.628,-10.668,-53.515,-55.237
1.6493544999998448,3.396,-17.087,-120.316,-33.018,-20.284,-11.433,397.013,12.847,-11.597,-3.562,-12.233,-9.655,-6.871,-14.064,-7.078,-11.267,-6.943,-13.127,-0.017,-18.956,196.431,0.364,-3.11,-16.031,-29.907,1.499,-8.096,-37.068,-47.498
1.6494165999997676,-4.805,-10.41,-115.073,-28.887,-19.239,-2.2,364.341,36.4,-0.827,0.54,-11.708,-11.694,-6.352,-18.661,-6.046,-15.354,-0.788,-15.163,1.007,-14.838,204.944,3.95,4.065,-12.941,-16.044,7.645,-3.989,-31.908,-37.716
1.6663226999999097,-5.824,-7.838,-98.052,-32.956,-14.609,-6.297,396.764,29.192,-7.486,-4.584,-11.696,-13.732,-7.882,-13.007,-11.163,-17.388,-1.812,-12.586,0.494,-13.799,209.862,4.97,7.135,-9.342,-13.467,8.15,-3.473,-35.462,-26.408
1.666390599999886,-0.183,-13.465,-96.929,-36.509,-16.644,-15.512,429.155,4.059,-18.237,-8.165,-13.222,-15.255,-5.313,0.839,-11.664,-14.809,-0.786,0.746,-3.093,-18.908,206.066,-0.158,-1.069,-9.332,-11.404,4.555,-8.08,-43.623,-20.746
1.6795208999997158,1.866,-12.939,-113.226,-22.128,-16.115,-16.521,396.451,9.691,-15.145,-10.206,-15.258,-14.215,-6.332,-3.773,-8.579,-20.942,1.777,-4.378,-10.262,-24.012,211.496,-9.379,-8.24,-15.983,-18.565,-0.06,-11.146,-51.777,-30.971
1.6795867999999246,-5.82,-13.951,-117.724,-18.52,-10.976,-17.529,363.779,23.001,-13.081,-14.807,-19.853,-15.226,-12.473,-17.089,-13.181,-27.581,-6.422,-23.329,-19.473,-29.624,221.53,-14.493,-12.331,-20.065,-50.822,-6.208,-14.721,-51.725,-40.674
1.6944634999999835,-14.524,-21.109,-112.995,-36.945,-15.576,-21.098,396.203,15.293,-16.654,-14.792,-24.956,-20.846,-11.436,-17.585,-19.316,-27.041,-16.149,-29.453,-20.991,-34.717,222.846,-13.454,-16.929,-19.021,-64.091,-7.738,-15.219,-50.136,-38.584
1.6945243000000119,-15.534,-22.625,-119.542,-44.08,-21.195,-19.027,428.594,12.717,-12.026,-10.679,-22.882,-19.8,-7.326,-18.592,-14.173,-27.014,-15.621,-26.862,-15.334,-33.146,226.721,-12.928,-14.863,-21.051,-31.239,-6.706,-14.179,-51.623,-43.156
1.7094563999999082,-17.567,-25.676,-118.398,-33.79,-21.174,-17.472,402.55,22.95,-5.867,-8.619,-21.322,-16.194,-11.418,-27.282,-15.184,-29.549,-14.068,-24.786,-13.27,-29.526,235.204,-15.477,-9.213,-24.616,-12.765,-11.822,-20.312,-53.621,-46.699
1.7095146999999997,-25.234,-31.798,-105.984,-31.707,-27.301,-23.089,371.409,20.878,-13.545,-12.709,-28.986,-21.813,-14.48,-26.743,-26.439,-33.618,-14.567,-22.2,-18.379,-33.595,238.042,-16.486,-14.839,-26.641,-40.929,-16.934,-24.903,-60.739,-34.87
1.7263315999998667,-24.697,-32.279,-117.661,-41.921,-33.421,-32.8,398.702,2.414,-27.876,-22.942,-35.617,-26.402,-17.027,-27.74,-27.95,-35.633,-18.138,-27.3,-23.484,-38.172,244.464,-18.519,-21.996,-28.663,-65.479,-19.991,-24.366,-71.949,-41.495
1.7263955999997052,-15.451,-32.247,-138.548,-42.904,-29.802,-37.378,431.091,-12.446,-31.435,-28.555,-30.458,-23.814,-22.645,-34.885,-19.212,-32.524,-22.731,-36.495,-21.411,-34.036,259.077,-17.988,-16.339,-27.61,-61.315,-22.532,-23.829,-74.439,-62.458
1.739983299999949,-14.411,-28.628,-127.651,-29.541,-26.186,-30.168,430.66,-7.822,-22.182,-20.841,-23.767,-20.717,-19.549,-28.19,-16.632,-29.417,-17.585,-32.872,-14.218,-26.317,274.699,-11.822,-11.199,-25.021,-41.274,-19.436,-19.707,-65.655,-45.489
1.740048300000126,-20.544,-20.915,-114.716,-22.851,-25.135,-20.404,397.954,4.481,-19.086,-16.21,-24.256,-19.159,-14.919,-17.404,-19.177,-29.9,-10.907,-25.154,-16.253,-28.34,284.158,-13.347,-16.824,-26.02,-48.405,-16.342,-17.125,-57.393,-29.05
1.7546173000000636,-20.011,-22.431,-122.286,-26.415,-23.06,-20.896,365.281,4.989,-24.702,-19.267,-23.207,-18.628,-17.465,-23.021,-21.207,-29.87,-17.044,-27.691,-24.433,-32.922,290.022,-19.994,-20.393,-24.457,-76.021,-19.912,-19.67,-57.335,-49.001
1.7546818000000712,-10.257,-20.359,-115.504,-25.364,-25.087,-15.752,387.457,8.57,-16.48,-11.051,-16.012,-18.097,-10.788,-25.048,-20.673,-27.791,-17.54,-26.639,-16.212,-25.717,304.077,-9.215,-13.2,-15.211,-54.94,-14.257,-11.453,-59.327,-41.267
1.7695847999998477,-3.587,-4.457,-95.408,-16.629,-28.135,-0.367,375.287,31.103,0.955,3.304,-9.848,-10.906,4.08,-11.703,-11.943,-21.104,-2.153,-12.267,1.735,-14.421,325.289,8.725,1.158,-5.975,-22.098,0.614,0.854,-53.12,-9.975
1.7696462999997493,-5.633,-0.867,-96.85,-4.829,-25.546,2.194,342.636,41.83,3.003,3.813,-8.813,-6.797,4.588,-8.105,-7.321,-15.959,1.948,-4.058,3.782,-12.869,335.21,6.154,8.841,-2.383,-35.908,2.151,-1.197,-42.309,-17.65
1.7854560000000674,-7.676,-17.26,-110.073,-5.849,-28.594,-14.202,375.081,18.222,-8.783,-7.974,-16.489,-15.499,-5.663,-18.343,-17.559,-22.603,-8.813,-13.788,-5.443,-20.029,336.924,-4.098,-2.439,-7.503,-54.827,-7.585,-9.392,-46.877,-33.002
1.78552609999997,-7.668,-28.513,-114.061,-30.434,-39.324,-31.606,407.494,-10.485,-23.119,-21.798,-31.33,-26.242,-15.903,-22.935,-26.763,-31.802,-11.365,-25.045,-11.585,-29.23,343.247,-6.655,-14.732,-19.279,-38.891,-15.775,-15.531,-61.175,-29.895
1.7997037000000091,-10.735,-24.899,-110.873,-39.625,-40.821,-33.111,374.811,-7.913,-28.731,-24.338,-33.348,-25.192,-18.961,-13.178,-23.15,-28.184,-5.206,-19.384,-11.061,-30.226,352.638,-3.575,-7.544,-16.698,-39.877,-12.173,-16.54,-55.99,-35.5
1.7997697999999218,-9.187,-16.677,-104.102,-13.97,-31.047,-20.783,342.161,14.124,-16.92,-11.506,-20.507,-20.556,-9.208,-7.53,-20.053,-22.521,-3.664,-11.168,-3.878,-22.511,364.068,1.04,0.148,-2.337,-47.009,-1.402,-8.326,-39.541,-29.317
1.8146453999997902,-10.715,-20.759,-106.047,-11.907,-32.04,-20.25,361.286,13.598,-14.853,-12.519,-26.634,-25.146,-10.736,-23.404,-27.718,-28.646,-12.37,-22.428,-8.485,-28.636,369.34,-5.622,-11.636,-10.019,-40.302,-8.573,-11.904,-50.26,-12.894
1.8296363999997993,-20.95,-35.083,-116.7,-40.072,-45.841,-35.086,375.782,-5.884,-30.72,-28.388,-43.513,-32.293,-26.094,-37.213,-36.4,-37.839,-22.091,-36.238,-25.382,-41.415,368.458,-20.985,-22.895,-28.964,-56.656,-25.983,-26.237,-71.726,-22.615
1.8296943000000283,-13.757,-22.752,-108.386,-28.249,-39.647,-23.78,343.131,7.442,-19.419,-14.015,-27.076,-23.039,-12.236,-19.245,-26.117,-27.555,-10.286,-19.808,-16.136,-26.517,388.07,-10.718,-11.601,-16.128,-66.333,-12.125,-14.94,-54.236,-24.641
1.8447077999999237,6.749,5.448,-93.421,2.006,-18.09,6.47,357.644,40.222,10.827,14.689,-1.946,-5.598,13.904,-0.27,-7.648,-7.547,9.704,1.217,10.008,-4.973,418.42,13.371,7.878,8.991,-44.237,12.478,5.055,-25.493,-10.784
1.8488056999999571,1.107,-4.292,-108.184,-19.001,-26.269,-4.295,390.074,24.301,-3.528,0.329,-16.801,-12.764,0.57,-13.078,-13.788,-13.175,0.473,-14.154,1.801,-17.776,416.465,5.673,2.747,0.273,-49.828,0.683,-5.196,-38.275,-30.754
1.8616340999997192,-20.411,-32.977,-126.519,-51.257,-55.445,-36.566,401.467,-7.999,-35.8,-29.897,-41.375,-34.268,-24.534,-28.946,-33.754,-33.142,-19.507,-34.119,-22.279,-37.226,406.314,-14.825,-16.211,-18.17,-67.709,-16.224,-22.097,-61.29,-47.117
1.8617091000000983,-23.464,-28.845,-111.536,-37.886,-53.852,-32.431,368.791,-4.917,-28.08,-24.744,-38.772,-34.234,-22.46,-24.306,-32.696,-31.572,-12.316,-24.864,-16.621,-31.041,424.351,-8.15,-13.121,-10.467,-45.612,-5.45,-17.976,-52.52,-16.843
1.8747951999998804,-16.781,-13.447,-96.055,-12.745,-32.281,-8.321,336.146,27.875,-9.609,-8.838,-26.95,-23.442,-12.704,-18.134,-18.831,-19.245,-0.008,-15.617,-1.748,-20.764,444.931,5.178,2.262,-0.211,-28.661,2.753,-10.274,-39.147,-2.994
1.87486379999973,-15.227,-10.872,-101.082,-8.634,-20.466,-6.263,324.027,37.581,-9.087,-6.78,-21.288,-19.832,-7.568,-16.067,-15.226,-17.689,-2.569,-16.626,-1.234,-22.28,454.733,3.124,2.259,-3.797,-36.829,-1.348,-7.19,-37.571,-21.947
1.8897809999998572,-14.187,-6.25,-105.592,-12.724,-17.884,-10.867,356.491,25.248,-6.516,-3.699,-22.291,-17.251,-4.999,-9.391,-17.26,-14.597,-0.518,-8.413,-3.282,-21.745,464.524,2.096,-0.817,-4.305,-37.817,-1.859,-8.719,-37.534,-21.925
1.8898421999997481,-16.222,-8.293,-111.634,-24.494,-33.748,-13.418,388.922,14.977,-6.51,-8.819,-30.466,-21.844,-10.629,-4.771,-23.902,-17.144,1.02,-8.917,-5.84,-23.773,467.133,-0.468,-2.865,-5.325,-47.0,-6.981,-16.908,-44.668,-21.903
1.9047706000001199,-19.28,-18.531,-127.916,-29.08,-52.157,-20.065,356.258,10.864,-15.212,-18.544,-34.021,-31.044,-14.205,-10.914,-34.637,-27.885,-7.69,-24.789,-13.006,-33.995,469.228,-8.664,-9.01,-13.005,-57.712,-15.17,-18.94,-52.308,-41.861
1.9087636999997812,-19.261,-7.242,-121.128,-2.924,-34.174,-8.774,323.626,28.783,-8.537,-6.23,-24.766,-20.254,-6.506,-16.538,-26.918,-19.148,-4.609,-20.154,-8.895,-32.937,481.566,-1.995,-1.316,-3.77,-33.063,-2.86,-10.724,-38.936,-32.598
1.920604099999764,-18.729,8.647,-88.219,17.059,-16.721,8.141,321.253,51.809,4.791,8.633,-18.081,-9.988,-1.376,-10.374,-9.985,-5.297,5.13,-2.203,-0.689,-22.658,484.158,9.277,10.468,12.627,-15.1,13.537,-5.59,-24.04,0.223
1.9206813000000693,-15.124,-4.17,-78.397,-4.987,-39.246,-8.261,353.72,31.264,-5.972,-6.744,-25.747,-22.786,-9.059,-7.802,-16.122,-16.562,-3.585,-11.422,-9.398,-26.221,481.113,1.071,-0.813,0.319,-36.601,4.814,-8.659,-36.824,-2.851
1.934886799999731,-11.523,-15.436,-102.91,-25.987,-48.941,-25.671,386.154,-0.53,-20.823,-18.521,-34.431,-28.398,-19.809,-15.991,-28.402,-25.767,-8.192,-26.268,-14.511,-30.806,493.439,-2.516,-6.96,-13.513,-49.885,-4.925,-13.773,-47.033,-35.124
1.9349560999999085,-18.172,-4.15,-103.319,-13.153,-27.887,-10.276,375.009,10.741,-11.581,-4.158,-26.712,-16.587,-12.104,-14.951,-18.127,-11.397,5.649,-9.335,2.922,-19.504,507.803,13.88,10.978,4.431,-33.441,9.425,-10.173,-33.666,-24.843
1.949901200000113,-28.4,-1.072,-86.822,-4.943,-31.958,-4.631,370.536,20.977,-3.884,-1.08,-19.513,-18.619,-1.846,-7.763,-12.474,-5.75,9.229,0.92,10.603,-17.948,511.394,15.916,14.04,12.624,-25.723,14.026,-5.04,-32.608,7.97
1.9499666000001525,-32.982,-16.44,-107.227,-23.381,-59.078,-26.143,364.017,1.488,-22.324,-22.083,-36.4,-32.433,-17.213,-16.977,-30.392,-20.089,-2.563,-19.061,-8.875,-32.787,507.296,-3.568,-4.417,-11.98,-49.776,-6.992,-16.306,-52.043,-14.58
1.964879099999962,-32.437,-25.133,-131.199,-29.505,-63.63,-28.678,331.378,5.585,-28.961,-26.16,-46.609,-31.888,-29.492,-23.108,-41.12,-26.729,-4.098,-23.652,-19.112,-36.852,507.301,-10.737,-9.535,-23.239,-72.78,-15.695,-26.535,-53.528,-46.84
1.9688522999999805,-26.769,-19.985,-111.087,-12.57,-45.636,-12.256,298.771,33.756,-8.952,-9.74,-30.169,-23.659,-12.556,-14.375,-32.37,-19.53,2.566,-8.772,-8.847,-29.643,519.601,-3.041,-2.866,-11.945,-53.752,-4.92,-16.775,-45.79,-31.937
1.9807694999999512,-22.644,-17.403,-96.119,-11.02,-35.344,-12.756,331.26,31.161,-5.357,-9.218,-26.04,-24.66,-9.982,-16.41,-26.19,-21.047,-1.535,-15.423,-12.937,-32.687,529.328,-6.112,-9.523,-16.543,-23.984,-7.477,-13.684,-54.453,-10.388
1.980843299999833,-25.695,-23.533,-110.368,-30.989,-47.604,-26.063,363.717,5.002,-21.746,-24.578,-42.92,-31.296,-28.415,-23.566,-29.749,-32.297,-7.168,-28.215,-26.244,-42.388,527.262,-16.352,-19.76,-27.798,-39.329,-19.253,-24.429,-60.034,-22.16
1.995009299999765,-30.28,-26.071,-109.233,-36.594,-63.95,-29.111,345.934,3.46,-20.187,-23.528,-42.365,-28.703,-25.313,-14.833,-32.281,-31.24,-0.501,-18.453,-19.557,-42.858,534.931,-11.213,-14.617,-17.524,-66.442,-14.623,-20.819,-52.289,-15.478
1.9950773000000481,-30.25,-15.799,-98.878,-22.212,-55.689,-16.786,313.313,27.023,-4.285,-8.648,-27.978,-18.428,-8.381,-10.208,-29.687,-17.377,6.672,-10.238,-2.119,-30.52,551.815,4.168,1.279,-2.137,-53.568,-1.8,-9.015,-48.651,0.419
2.0099457000001166,-20.485,-6.562,-101.34,-10.407,-38.215,1.674,297.118,42.878,3.404,3.656,-19.241,-12.774,-2.738,-14.808,-19.412,-8.138,4.103,-13.814,4.03,-18.707,558.948,12.36,8.963,5.037,-29.436,5.886,-4.907,-39.381,-11.877
2.0249377000000095,-3.047,-5.018,-90.48,-8.347,-41.251,5.77,329.609,35.662,3.913,7.239,-15.635,-14.298,-1.198,-11.72,-15.294,-10.179,4.099,-10.726,3.002,-20.225,564.536,12.348,6.905,9.643,-23.259,11.516,-2.853,-22.948,-12.89
2.0249966000001223,-5.093,-8.087,-84.755,-14.999,-49.406,-11.654,362.067,13.085,-7.362,-3.527,-25.354,-21.456,-8.881,-13.245,-25.525,-16.829,8.194,-7.642,-2.124,-25.84,570.12,7.725,5.361,5.023,-23.748,7.406,-5.412,-31.634,6.078
2.042020500000035,-25.068,-16.788,-107.211,-26.767,-44.234,-27.012,329.429,-1.785,-22.724,-19.405,-38.136,-26.558,-21.68,-25.015,-29.598,-20.91,5.624,-11.732,-6.733,-27.351,569.549,-0.48,1.769,-5.228,-30.897,-2.336,-14.116,-53.631,-1.612
2.0420906999997896,-22.993,-20.358,-110.178,-27.765,-39.579,-20.837,296.825,13.074,-18.09,-14.775,-29.901,-20.384,-15.511,-26.527,-20.346,-18.328,3.569,-8.647,-1.603,-25.274,574.103,-2.016,-2.843,-2.662,-38.038,-0.284,-14.101,-50.504,-14.418
2.0550846000001,-7.089,-11.116,-90.088,-13.905,-41.076,0.701,272.962,43.799,-0.142,3.171,-18.6,-15.24,-1.151,-13.692,-15.715,-14.723,9.713,-4.027,1.985,-21.151,582.238,3.621,-1.304,3.489,-32.365,6.376,-8.964,-36.109,-10.305
2.055150599999706,-17.84,-8.543,-97.17,1.478,-40.523,8.897,302.402,47.854,3.445,5.217,-24.729,-19.324,-3.199,-5.482,-20.823,-16.758,10.728,-13.245,-6.727,-24.203,580.631,0.032,-1.815,-4.199,-36.431,0.222,-14.078,-37.097,-21.566
2.0701281000001472,-33.704,-16.732,-110.393,-2.109,-45.093,-8.018,334.888,22.703,-7.83,-9.645,-33.414,-24.427,-13.954,-13.161,-28.999,-21.864,-0.041,-27.064,-17.478,-38.011,575.952,-12.776,-10.01,-12.904,-58.424,-9.512,-22.261,-45.257,-30.254
2.0701951000000918,-25.473,-15.178,-96.45,-20.55,-54.27,-22.354,367.341,7.311,-16.531,-17.833,-36.454,-29.014,-21.625,-24.931,-33.58,-25.428,-4.14,-27.037,-19.51,-41.047,576.401,-11.739,-8.463,-6.232,-61.439,-7.453,-19.677,-46.749,-4.096
2.085157999999865,-15.202,-3.892,-85.083,-19.505,-44.994,-9.524,334.698,23.185,-11.904,-10.643,-31.295,-24.374,-18.529,-20.295,-24.325,-20.792,5.086,-17.276,-9.757,-27.174,585.046,4.154,4.353,8.119,-38.836,10.485,-7.362,-32.357,9.229
2.0852217000001474,-17.236,3.797,-88.584,-1.555,-29.579,6.367,302.088,46.216,-0.109,-2.435,-18.456,-11.542,-6.727,-13.103,-15.592,-11.55,9.18,-16.234,-1.038,-21.511,595.732,9.786,7.423,10.673,-21.379,20.721,-2.232,-15.419,-12.298
2.101126000000022,-23.878,-4.404,-95.155,-9.75,-40.821,-1.324,327.913,37.46,-5.232,-8.58,-23.048,-18.19,-10.819,-26.409,-25.31,-15.637,-3.125,-29.026,-11.795,-33.273,588.988,-4.056,-5.904,-5.219,-33.653,2.769,-12.988,-31.285,-24.068
2.1011961999997766,-27.953,-21.306,-108.38,-29.208,-53.075,-17.205,353.713,12.32,-18.546,-16.769,-39.419,-33.029,-24.128,-35.092,-33.482,-26.892,-9.782,-33.607,-23.054,-41.949,577.641,-15.323,-15.12,-14.948,-61.796,-14.14,-21.684,-57.381,-21.483
2.1151661999997486,-21.265,-14.625,-109.809,-15.859,-33.554,-8.99,346.187,19.48,-7.257,-5.993,-30.67,-21.213,-12.321,-22.762,-23.714,-19.18,3.036,-19.229,-11.76,-32.173,587.309,-6.086,-4.859,1.461,-55.586,1.244,-13.466,-41.443,-19.924
2.1152329999999893,-17.658,4.858,-89.719,3.112,-21.738,6.388,360.186,39.953,6.07,2.21,-17.32,-9.409,0.499,-16.079,-17.543,-9.427,12.254,-8.964,-4.576,-23.944,596.456,3.141,4.88,13.755,-22.743,12.513,-6.28,-20.397,-4.535
2.130186500000036,-32.497,-5.393,-89.117,-9.699,-41.696,-11.037,380.83,22.494,-14.941,-17.773,-36.258,-26.305,-19.994,-21.698,-26.747,-22.226,2.508,-19.201,-17.379,-37.24,586.126,-9.157,-4.859,-0.604,-39.114,-2.869,-16.008,-40.868,3.666
2.1302560999997695,-35.026,-20.757,-109.008,-24.034,-51.388,-32.031,368.666,0.955,-30.807,-32.1,-51.078,-34.476,-32.782,-20.652,-29.282,-29.376,-1.593,-24.305,-19.411,-41.301,584.515,-15.808,-8.44,-6.239,-71.351,-6.452,-22.652,-54.148,-14.268
2.1441727999999785,-17.572,-7.416,-101.727,-20.936,-39.554,-13.556,351.904,21.959,-6.186,-11.575,-30.535,-16.511,-7.646,-9.361,-16.445,-12.44,14.802,-4.813,1.101,-21.28,598.275,4.7,7.45,7.088,-43.615,9.948,-14.432,-34.626,-25.525
2.1442461999999978,-23.19,-7.921,-88.817,-21.427,-41.563,-0.222,362.31,34.744,7.653,3.293,-18.721,-9.834,6.194,0.383,-15.916,-4.743,25.034,5.438,8.784,-18.697,596.652,11.868,11.029,4.007,-10.783,4.303,-13.393,-35.103,-27.548
2.1613459999998668,-44.684,-37.627,-113.831,-33.701,-58.94,-21.226,364.509,10.119,-14.896,-16.178,-40.22,-26.218,-14.304,-7.302,-34.343,-23.182,10.152,-16.596,-14.791,-42.757,579.149,-14.272,-8.962,-15.977,-32.289,-21.317,-29.773,-65.294,-35.718
2.1614082000000963,-40.029,-45.787,-130.111,-43.401,-66.054,-31.451,334.431,0.375,-27.177,-31.531,-56.573,-40.024,-29.147,-28.812,-46.092,-36.478,-8.301,-38.097,-36.293,-53.473,572.422,-30.139,-20.737,-19.035,-64.533,-27.443,-38.453,-75.475,-24.924
2.174281499999779,-26.669,-23.712,-103.341,-37.722,-60.352,-19.124,311.555,20.867,-13.317,-21.253,-47.295,-34.349,-21.946,-29.808,-42.972,-29.782,-4.195,-29.349,-28.06,-43.685,581.071,-20.375,-10.982,-6.208,-47.05,-11.534,-27.656,-53.883,-4.919
2.174348799999734,-32.277,-11.392,-85.307,-21.291,-54.657,-13.982,303.047,33.654,-6.132,-15.596,-38.539,-25.093,-16.288,-7.236,-37.806,-22.067,13.74,-13.439,-14.199,-38.519,587.15,-15.232,-2.262,3.019,-17.801,-3.838,-22.505,-34.874,-12.086
2.189252899999701,-39.93,-21.627,-97.005,-22.294,-53.577,-17.554,303.768,28.497,-14.322,-22.753,-42.086,-29.679,-23.444,-7.742,-34.694,-25.119,13.727,-14.45,-17.771,-40.529,582.465,-20.852,-7.895,-0.057,-31.615,-12.543,-31.192,-42.011,-22.32
2.18931799999973,-37.328,-33.901,-109.203,-40.715,-58.647,-24.709,336.252,14.124,-20.968,-25.292,-42.044,-34.26,-27.519,-30.275,-31.586,-29.193,-1.144,-22.12,-21.34,-41.001,577.272,-19.294,-14.547,-12.865,-47.978,-17.654,-32.698,-57.338,-21.786
2.2042947999998432,-33.705,-29.769,-111.143,-37.6,-58.076,-24.684,368.703,4.376,-19.41,-18.607,-34.83,-25.004,-15.709,-24.61,-27.968,-23.016,5.005,-13.389,-11.585,-34.812,579.768,-5.442,-6.336,-10.803,-47.417,-4.828,-21.906,-54.719,-30.473
2.2043619999999464,-28.548,-15.906,-99.249,-14.509,-44.698,-7.241,336.059,19.228,-6.071,-5.268,-25.573,-15.757,-0.836,5.129,-20.255,-11.21,26.004,4.556,1.747,-20.433,589.947,9.932,10.577,13.799,-40.198,11.058,-12.663,-39.295,-20.709
2.220203599999877,-20.835,-9.743,-81.731,-15.007,-39.018,0.451,320.354,32.529,4.181,2.422,-21.449,-14.717,1.214,9.222,-17.674,-7.1,27.515,3.526,7.381,-15.802,593.968,11.459,15.689,21.982,-16.079,13.096,-13.163,-33.108,9.538
2.2347421999998005,-18.252,-15.881,-87.797,-32.41,-52.299,-14.919,352.821,17.64,-8.118,-7.827,-29.112,-19.825,-6.472,-11.792,-30.464,-13.753,16.217,-8.773,-0.311,-27.057,586.201,-1.36,3.378,-0.07,-1.206,2.837,-18.273,-41.785,-4.304
2.2348077000001467,-20.283,-22.013,-105.64,-27.767,-55.32,-19.515,320.193,11.987,-18.868,-17.04,-37.28,-25.953,-11.588,-17.928,-37.605,-19.887,13.639,-9.276,-12.606,-33.69,578.443,-10.58,-7.383,-8.779,-29.894,-5.363,-20.816,-50.964,-36.575
2.2493753999997352,-23.337,-16.355,-96.825,-9.296,-39.383,-5.663,287.598,34.004,-7.579,-8.314,-31.608,-24.903,-13.114,-9.713,-28.346,-19.867,12.089,-11.316,-14.643,-32.119,578.377,-11.594,-5.327,3.525,-50.869,-2.284,-19.258,-47.84,-23.218
2.249444399999902,-24.85,-6.605,-82.384,-7.238,-37.295,-0.534,320.098,39.605,0.113,-2.67,-26.965,-21.292,-11.564,-11.24,-23.195,-17.285,8.49,-20.526,-12.067,-31.062,577.286,-11.583,-1.223,4.547,-24.178,2.329,-17.702,-37.546,1.396
2.2643975999999384,-20.727,-8.135,-88.962,-16.964,-45.454,-4.632,352.565,28.807,-4.498,-5.742,-28.988,-21.27,-6.941,-14.815,-27.27,-15.219,11.556,-15.383,-10.006,-28.47,574.66,-12.083,-1.734,-3.143,-10.834,-0.747,-17.684,-32.385,-18.073
2.264466799999809,-15.583,-13.25,-95.02,-16.947,-36.7,-5.14,319.937,29.803,-4.493,-2.662,-24.86,-16.638,-4.373,-11.726,-25.194,-14.179,14.618,-7.683,-6.409,-24.343,575.109,-8.485,0.317,-2.627,-33.877,-1.258,-17.154,-34.402,-29.838
2.279334199999994,-13.518,-10.163,-89.802,-10.783,-27.954,-7.696,321.667,28.749,-5.513,-2.147,-20.737,-9.962,-5.393,-13.251,-22.095,-13.14,9.993,-16.896,-3.841,-24.318,576.071,-2.329,2.366,-2.112,-36.917,2.841,-14.063,-37.954,-1.631
2.2833473000000595,-14.53,-7.592,-84.077,-11.284,-33.049,-8.201,354.133,18.474,-8.069,-4.706,-20.716,-11.489,-2.314,-18.874,-21.56,-10.053,11.007,-20.466,-1.276,-19.171,576.008,3.309,3.388,-0.061,-16.387,6.937,-8.414,-38.428,13.227
2.2952947999997377,-18.101,-3.998,-83.993,-12.81,-34.04,1.541,321.503,28.701,-1.913,2.983,-16.597,-11.989,3.324,-14.756,-14.366,-5.433,19.706,-6.101,4.361,-11.98,576.456,6.379,6.971,10.185,-14.322,10.516,-6.868,-29.68,-2.155
2.2953597000000627,-21.157,-1.945,-100.303,-11.772,-34.519,4.613,288.906,43.53,-2.424,2.98,-19.654,-11.977,-3.34,-8.594,-12.815,-6.964,20.198,-3.021,-0.767,-21.701,565.634,-2.849,2.865,9.151,-21.48,5.895,-13.009,-22.478,-16.498
2.309529300000122,-22.16,-13.726,-114.035,-19.445,-47.292,-11.785,294.253,30.166,-18.303,-13.929,-35.516,-24.773,-20.242,-11.659,-26.635,-20.277,11.469,-17.875,-16.648,-35.0,547.137,-19.24,-10.97,-4.179,-29.655,-8.968,-20.681,-32.19,-15.969
2.309594400000151,-24.187,-23.446,-92.916,-33.258,-54.417,-23.044,326.746,9.131,-23.408,-19.551,-40.091,-29.359,-22.784,-13.697,-34.805,-26.917,10.433,-22.98,-22.266,-34.965,540.442,-24.856,-15.57,-10.834,-46.019,-16.644,-26.296,-50.088,-7.756
2.3244018999998843,-23.651,-17.275,-75.917,-34.249,-48.215,-16.873,345.375,8.61,-13.65,-11.334,-31.854,-19.596,-11.49,-11.634,-30.159,-20.742,15.033,-15.785,-20.707,-33.393,542.463,-24.319,-16.066,-16.971,-46.486,-18.164,-28.319,-54.137,-5.187
2.324462399999902,-21.066,-16.745,-97.87,-23.457,-43.556,-11.733,312.754,19.36,-12.612,-10.298,-30.285,-17.527,-10.966,-13.159,-28.08,-19.697,15.018,-13.72,-21.199,-33.359,538.335,-25.319,-18.1,-25.151,-35.681,-21.732,-24.704,-45.373,-16.452
2.33943969999973,-22.069,-19.29,-109.043,-19.847,-43.0,-11.722,295.535,27.025,-16.698,-8.751,-28.718,-19.047,-13.517,-13.146,-27.54,-20.702,18.077,-11.657,-11.444,-24.105,537.284,-10.437,-5.786,-14.368,-47.941,-9.415,-18.019,-37.131,-23.608
2.34382689999984,-24.609,-7.488,-98.688,-19.315,-42.445,-8.124,328.027,25.461,-9.509,-2.082,-22.542,-13.392,-5.819,-4.423,-23.414,-12.484,27.28,-0.886,4.449,-15.884,539.821,8.017,10.614,4.09,-58.651,11.087,-14.415,-33.508,-11.802
2.3563960999999836,-24.072,-0.308,-95.003,-12.636,-43.939,-6.066,358.438,19.288,-1.303,-3.617,-22.007,-13.891,-3.764,-2.882,-21.853,-10.422,25.204,2.701,3.42,-19.454,532.109,2.374,7.529,6.135,-37.075,10.564,-13.376,-30.913,2.042
2.35646319999978,-20.974,-2.357,-81.588,-5.963,-37.747,-4.011,325.804,24.904,-2.838,-2.589,-18.911,-14.902,-6.321,-11.076,-17.733,-13.486,20.055,-2.425,-2.219,-19.947,527.99,-5.313,4.96,4.592,-11.935,5.942,-10.289,-23.709,4.602
2.3695557999999437,-15.318,3.281,-65.113,-1.346,-24.39,3.677,320.355,38.199,-0.274,8.172,-11.208,-6.178,2.394,-12.09,-6.444,-5.275,25.671,-2.935,4.956,-11.73,533.61,3.913,11.615,9.198,-4.239,12.596,-6.18,-17.026,2.548
2.3696227000000363,-18.376,-3.382,-81.442,-5.956,-30.001,3.161,301.592,41.235,2.288,7.139,-16.319,-8.221,1.879,-6.442,-6.438,-5.27,26.67,-8.055,1.877,-15.817,522.83,-1.726,3.919,-0.545,-16.53,5.411,-10.272,-28.279,-0.016
2.3845911999997043,-30.653,-25.408,-100.828,-25.93,-50.463,-15.285,269.015,29.923,-10.522,-10.798,-33.209,-25.631,-18.102,-12.583,-20.776,-24.22,11.786,-22.904,-19.642,-36.805,500.278,-23.753,-11.454,-16.938,-43.153,-13.549,-23.07,-49.768,-8.213
2.399489999999787,-30.11,-31.018,-101.239,-39.224,-50.925,-27.565,301.533,11.962,-24.344,-22.058,-39.324,-32.265,-27.818,-27.428,-28.952,-32.393,3.065,-26.467,-28.331,-45.478,494.143,-26.291,-13.492,-17.946,-52.332,-17.634,-27.658,-53.304,-26.648
2.3995512000001327,-19.834,-22.278,-107.798,-25.352,-36.529,-18.316,334.02,7.852,-19.196,-15.889,-32.112,-25.061,-19.593,-25.351,-26.362,-24.164,8.185,-16.195,-15.495,-33.137,496.21,-15.506,-6.819,-9.731,-38.959,-9.932,-20.458,-42.493,-36.867
2.4154343999998673,-21.863,-17.645,-101.543,-10.982,-35.98,-8.051,301.41,26.287,-6.369,-5.114,-24.908,-17.863,-12.914,-10.469,-22.237,-20.553,16.374,-11.055,-5.746,-24.907,490.591,-8.831,1.897,2.062,-42.507,-2.75,-17.363,-35.278,-15.826
2.415504300000066,-23.891,-14.041,-74.289,-17.119,-38.506,-11.117,291.887,32.92,-3.802,-5.622,-22.834,-16.309,-10.852,-9.434,-18.116,-19.508,21.481,-10.532,-8.302,-27.443,483.952,-6.261,4.969,9.744,-54.247,0.839,-18.371,-33.193,6.732
2.429646000000048,-18.231,-16.588,-80.362,-25.299,-31.295,-17.254,324.383,14.444,-12.507,-15.862,-25.885,-20.391,-11.353,-19.158,-16.561,-18.464,15.311,-13.083,-14.953,-30.49,476.296,-13.939,-4.769,-4.098,-38.311,-8.896,-17.328,-40.332,-5.57
2.429713399999855,-22.824,-23.744,-109.996,-24.761,-33.825,-16.724,291.783,11.869,-20.179,-19.432,-31.494,-24.469,-20.051,-24.262,-20.643,-25.106,4.538,-22.804,-22.623,-34.558,464.549,-27.757,-16.035,-22.537,-20.342,-20.67,-21.409,-53.1,-22.471
2.444591599999967,-30.486,-21.159,-100.664,-29.859,-49.161,-15.683,259.216,24.152,-15.548,-15.314,-32.487,-21.37,-24.642,-27.824,-29.332,-28.154,4.533,-28.929,-21.064,-37.085,458.449,-27.73,-14.995,-20.465,-35.691,-18.6,-26.51,-55.096,-18.35
2.4446530000000166,-23.283,-19.601,-78.022,-37.002,-55.772,-16.179,291.745,13.369,-9.897,-14.787,-29.893,-17.251,-16.42,-28.308,-35.962,-21.978,9.139,-21.215,-14.382,-34.998,454.917,-21.554,-10.881,-15.834,-61.783,-18.581,-24.947,-54.016,-23.967
2.459601300000031,-15.575,-25.729,-90.239,-27.231,-53.154,-15.139,295.039,7.208,-16.035,-15.797,-29.351,-19.795,-13.842,-20.596,-37.463,-24.006,10.667,-14.022,-17.442,-34.451,449.851,-24.606,-13.432,-18.892,-56.598,-25.735,-24.922,-59.598,-36.239
2.4596584000000803,-21.195,-24.166,-105.006,-17.47,-52.077,-14.099,262.469,25.132,-21.142,-17.318,-31.883,-22.337,-22.025,-22.112,-34.864,-29.617,12.193,-17.594,-23.572,-36.978,448.377,-24.582,-15.98,-14.774,-29.389,-21.611,-24.385,-60.05,-23.395
2.476573399999779,-26.297,-21.58,-98.753,-35.383,-53.049,-18.183,294.994,22.545,-19.072,-22.424,-32.364,-20.265,-24.053,-25.676,-34.829,-26.514,9.107,-24.236,-22.012,-37.454,447.928,-20.459,-12.89,-11.173,-30.385,-14.929,-19.75,-56.404,-10.051
2.476653400000032,-19.61,-25.657,-97.118,-46.106,-49.922,-20.727,327.486,6.641,-19.053,-20.352,-29.77,-20.245,-17.368,-14.892,-32.233,-27.512,9.098,-23.187,-18.916,-36.904,443.894,-21.463,-8.779,-13.212,-55.457,-19.525,-22.291,-53.786,-21.312
2.4901185999997324,-16.005,-26.656,-101.119,-26.593,-41.163,-15.583,294.884,23.541,-15.447,-13.159,-27.178,-20.225,-14.79,-10.778,-29.127,-31.07,16.261,-17.529,-17.36,-34.305,437.815,-21.441,-9.282,-14.223,-42.594,-19.505,-27.392,-47.072,-37.685
2.490194099999826,-26.235,-27.142,-101.53,-22.98,-34.974,-16.592,321.741,28.128,-11.846,-16.732,-27.151,-19.18,-17.336,-23.575,-34.221,-27.453,15.733,-18.024,-20.416,-35.296,428.156,-22.445,-10.81,-18.307,-16.936,-16.412,-23.266,-46.513,-43.795
2.504695399999946,-33.893,-29.676,-108.089,-40.375,-41.087,-29.383,354.207,-4.176,-23.617,-24.4,-30.71,-22.747,-22.954,-24.576,-38.285,-27.426,9.569,-22.104,-26.031,-38.847,419.53,-26.521,-10.287,-18.289,-47.658,-20.494,-21.194,-53.126,-39.14
2.504762600000049,-24.638,-26.573,-106.444,-31.113,-43.095,-30.89,321.577,-7.245,-31.278,-23.351,-32.729,-25.286,-27.542,-16.355,-29.538,-29.96,12.121,-19.008,-20.882,-34.197,417.062,-22.908,-7.203,-7.512,-79.885,-16.888,-22.197,-50.0,-16.559
2.519630100000086,-9.756,-20.911,-84.308,-13.664,-31.269,-13.953,288.98,25.55,-17.414,-15.643,-25.524,-17.063,-21.879,-24.023,-19.262,-21.733,15.183,-14.378,-8.566,-25.454,417.669,-11.614,0.489,-2.382,-48.555,-4.575,-13.466,-40.728,3.437
2.519692099999702,-6.16,-18.841,-79.101,-19.798,-28.164,-9.329,321.479,23.987,-13.811,-12.041,-21.4,-13.46,-17.247,-34.758,-20.78,-16.588,10.557,-18.975,-8.045,-24.916,412.129,-7.504,5.099,-4.941,-15.719,-2.521,-7.817,-35.564,-12.96
2.5369424000000436,-19.474,-21.896,-102.588,-24.901,-38.382,-23.664,353.945,-8.312,-28.654,-20.739,-28.551,-21.644,-26.963,-32.674,-28.443,-27.33,3.374,-26.64,-15.209,-31.039,397.372,-14.157,0.483,-2.887,-29.023,-9.179,-16.006,-38.09,-39.587
2.5370112000000518,-27.139,-26.997,-110.17,-21.802,-41.93,-27.739,321.316,-7.792,-31.187,-28.915,-33.645,-22.647,-30.522,-24.956,-28.415,-33.45,3.371,-24.564,-16.219,-35.618,385.191,-16.704,-2.079,-4.421,-46.925,-12.756,-20.601,-45.737,-25.203
2.549755600000026,-19.428,-24.408,-95.715,-22.805,-38.814,-17.465,288.719,25.004,-18.348,-22.226,-28.488,-16.989,-19.221,-16.734,-19.677,-24.708,15.151,-13.781,-12.616,-31.996,384.294,-9.515,2.534,-9.539,-22.799,-8.645,-14.945,-43.129,-0.075
2.549819899999875,-26.58,-23.359,-99.718,-19.709,-38.775,-17.447,321.218,23.442,-16.793,-17.081,-27.948,-20.558,-17.153,-19.792,-21.707,-21.097,17.185,-14.792,-13.116,-30.94,377.25,-11.555,0.482,-10.042,-17.653,-11.198,-16.979,-34.889,-19.542
2.5646864999998797,-41.923,-36.656,-120.11,-24.812,-40.785,-30.238,353.685,0.877,-27.534,-26.797,-35.604,-27.197,-28.919,-34.629,-35.005,-30.297,0.261,-28.61,-23.862,-42.18,360.991,-25.376,-11.813,-13.618,-49.911,-23.994,-27.208,-50.224,-46.675
2.564751299999898,-29.586,-41.23,-118.965,-36.058,-42.282,-31.232,321.056,7.024,-26.482,-29.332,-35.056,-22.559,-27.865,-31.008,-30.872,-29.755,2.823,-23.97,-25.375,-41.625,360.117,-22.276,-6.166,-14.629,-40.127,-23.458,-25.132,-55.809,-37.407
2.579744799999844,-13.675,-22.746,-99.891,-21.677,-40.19,-17.881,333.03,24.435,-14.673,-18.544,-22.726,-14.852,-16.054,-14.071,-15.984,-15.38,21.263,-4.479,-9.98,-24.677,366.93,-4.836,12.283,-3.856,-7.3,-8.065,-13.836,-30.65,-20.975
2.594727299999704,-26.469,-16.575,-96.205,-2.7,-40.15,-14.789,365.485,15.702,-15.683,-15.452,-22.191,-14.837,-13.989,-18.667,-23.14,-15.365,13.557,-12.671,-7.921,-25.165,356.829,-6.88,7.66,0.246,-39.055,-10.619,-14.334,-31.644,-10.708
2.5989276999998765,-32.59,-27.317,-102.257,-12.431,-44.721,-20.41,366.656,8.001,-19.765,-16.973,-25.755,-14.822,-16.024,-26.846,-32.339,-20.985,3.81,-29.565,-18.159,-35.386,346.226,-14.045,-5.155,-5.389,-71.292,-18.293,-18.419,-54.154,-1.988
2.61065839999992,-13.602,-26.778,-94.982,-22.665,-43.651,-15.778,334.014,22.85,-12.573,-10.809,-16.508,-10.197,-12.934,-17.085,-19.499,-11.742,18.663,-16.727,-13.53,-24.592,346.392,-7.884,3.047,-5.384,-38.433,-10.59,-12.252,-43.853,-15.819
2.6107231999999385,-7.441,-23.165,-92.325,-20.081,-38.484,-14.226,314.725,24.364,-17.684,-14.896,-17.003,-12.236,-15.483,-22.703,-15.893,-10.706,18.132,-10.051,-10.443,-20.981,336.824,-8.9,5.093,-7.428,-16.365,-11.604,-11.728,-35.1,-32.197
2.6248356999999487,-20.241,-25.703,-102.479,-16.987,-34.348,-20.359,290.331,12.557,-26.888,-23.078,-28.257,-18.371,-20.59,-42.148,-27.66,-19.917,0.695,-29.508,-17.092,-33.768,324.704,-15.551,-1.572,-9.47,-34.279,-16.715,-14.278,-47.361,-17.308
2.624900599999819,-20.733,-19.53,-97.254,-7.748,-24.067,-13.679,285.943,24.84,-15.59,-13.321,-18.495,-12.205,-17.496,-34.422,-18.411,-11.7,7.867,-26.405,-10.927,-27.074,321.818,-6.314,8.163,2.835,-12.216,-3.891,-6.067,-32.456,-7.556
2.6398494999998547,-13.54,-16.436,-85.373,-10.814,-21.994,-13.153,318.444,25.327,-13.525,-10.747,-11.304,-7.07,-17.478,-19.53,-4.56,-5.541,18.105,-8.96,-6.818,-19.875,309.713,-4.771,7.643,5.394,-10.667,-5.424,-7.085,-22.178,-24.455
2.6399145999998836,-19.674,-30.252,-102.194,-31.296,-41.952,-31.071,350.914,-3.387,-29.906,-27.642,-28.711,-18.334,-24.633,-28.22,-20.95,-16.806,9.378,-15.099,-20.644,-36.249,291.985,-20.648,-10.296,-14.591,-42.931,-25.398,-19.373,-51.357,-34.677
2.654795500000091,-24.777,-33.808,-121.56,-26.142,-48.057,-30.015,318.287,-0.823,-27.314,-27.102,-30.732,-23.951,-26.658,-36.901,-37.322,-16.789,6.807,-22.768,-24.209,-39.799,290.156,-23.701,-10.798,-24.311,-37.765,-25.885,-16.28,-56.941,-33.617
2.6587516999998115,-14.507,-21.479,-111.192,-5.623,-35.202,-13.079,285.694,25.306,-18.065,-14.78,-16.869,-16.242,-23.045,-31.741,-28.064,-10.112,10.898,-16.598,-14.963,-27.464,289.866,-15.48,-3.102,-19.676,-4.94,-16.638,-8.067,-33.318,-31.022
2.671737699999994,-1.172,-18.896,-93.662,-10.228,-33.63,-13.578,318.196,24.768,-18.559,-13.228,-15.827,-13.152,-16.362,-24.025,-18.814,-11.127,12.424,-16.581,-12.387,-25.387,282.916,-11.879,-0.538,-13.508,-13.644,-16.621,-8.571,-31.748,-15.622
2.671807700000045,2.928,-17.852,-87.933,-8.681,-26.936,-7.417,312.242,29.354,-6.246,-3.481,-8.639,-7.503,-4.05,-16.828,-13.16,-1.382,20.609,-15.54,-4.69,-19.726,286.731,-2.133,13.295,0.338,-19.778,-6.358,-1.39,-33.765,-1.774
2.684953299999961,-5.272,-10.15,-92.456,5.16,-8.978,4.374,279.654,40.084,-0.604,5.744,0.591,-2.373,-1.997,-18.348,-4.95,4.255,23.662,-10.401,1.975,-14.071,285.42,4.529,17.893,5.973,-13.611,3.382,4.759,-28.096,-15.605
2.685018300000138,-14.489,-14.238,-105.684,-6.116,-21.777,-7.926,307.039,21.6,-19.559,-9.118,-11.705,-11.08,-15.315,-30.625,-14.166,-10.094,10.831,-21.15,-8.273,-24.816,265.155,-5.722,1.993,-4.792,-44.848,-5.843,-2.931,-31.654,-37.106
2.6999476999999388,-1.666,-12.175,-98.406,-8.159,-35.587,-6.893,309.806,22.603,-15.441,-6.548,-9.644,-10.556,-11.201,-29.058,-20.3,-6.498,10.308,-23.178,-6.728,-23.254,259.254,-5.204,6.602,5.459,-41.217,-3.788,0.658,-17.79,-23.237
2.700009599999703,11.143,5.256,-71.155,15.415,-8.912,14.63,318.206,50.758,7.116,17.025,10.346,5.336,10.839,-10.073,-3.886,14.001,25.667,-2.662,10.697,-6.324,267.192,11.708,24.526,24.409,-8.388,12.097,11.929,-1.891,9.574
2.714920500000062,-4.237,-3.459,-79.793,7.203,4.417,2.32,350.675,32.776,-4.162,4.2,0.601,-0.305,3.144,-9.039,-1.32,5.278,25.641,-0.61,6.588,-12.978,254.117,7.598,15.28,5.942,3.916,2.864,3.72,-26.48,8.028
2.719051000000036,-11.918,-22.411,-110.452,-11.247,-13.006,-17.662,344.689,4.054,-21.576,-14.759,-13.744,-13.625,-16.327,-29.01,-13.102,-10.609,10.758,-18.028,-5.714,-22.187,240.03,-3.169,7.068,-7.897,-28.364,-10.459,-3.456,-36.187,-24.256
2.730820599999788,8.074,-2.92,-94.46,11.305,-8.382,5.922,312.069,36.838,-1.062,10.359,6.25,2.783,1.62,-31.03,1.256,3.746,15.358,-11.35,6.075,-5.258,250.037,12.716,23.967,19.776,-41.655,10.044,9.355,-3.363,-26.793
2.7308852000001025,9.603,12.452,-63.114,24.614,2.897,24.359,301.511,67.027,17.894,26.742,17.002,15.075,19.549,-15.117,13.038,13.989,29.688,5.567,14.266,3.456,248.25,21.925,25.992,25.391,-23.683,22.329,14.981,3.812,-1.663
2.745110399999703,-9.874,-9.59,-73.297,3.072,-10.938,2.306,329.386,42.882,1.995,2.637,-0.433,-1.333,-1.475,-16.639,-3.882,1.167,19.412,-4.172,-1.118,-12.429,222.386,3.972,8.036,-1.274,-19.048,0.79,4.207,-19.758,-8.834
2.7599719999998342,-5.254,-14.703,-86.544,3.069,-14.513,-8.455,338.791,23.371,-10.302,-7.1,-5.044,-6.968,-12.744,-29.942,-9.001,-2.42,6.072,-18.512,-5.727,-18.564,212.43,-0.13,10.589,5.387,-44.132,-2.797,3.691,-15.127,-6.776
2.76003559999981,10.633,5.804,-71.601,23.046,-2.716,5.898,371.24,32.057,-0.046,7.764,5.72,5.847,1.613,-22.228,3.816,6.291,16.825,-9.272,9.135,-7.787,218.365,15.239,26.46,27.411,-47.674,19.747,14.446,1.282,21.92
2.7749837999999727,1.913,8.359,-63.844,16.876,-3.225,6.404,368.819,36.636,4.565,7.244,6.226,5.841,3.661,-9.91,2.275,8.334,26.542,2.008,12.2,-6.242,210.974,15.224,23.872,18.675,-14.839,20.24,13.407,-7.429,13.702
2.7750559999999496,-13.97,-7.018,-81.199,1.489,-9.37,-7.947,336.175,30.451,-6.71,-4.034,-1.464,-1.337,-5.565,-15.023,-6.949,2.691,20.368,-4.654,2.454,-15.458,194.882,2.401,16.163,7.385,-12.263,0.752,2.635,-20.741,-18.587
2.791853799999899,-10.37,-13.671,-97.512,6.099,-9.36,-6.402,346.597,32.47,-6.704,0.581,-1.463,1.738,-3.51,-17.058,-6.429,2.688,20.86,-8.748,2.964,-16.467,189.052,-0.163,18.197,9.427,-44.526,-2.835,2.12,-17.134,-28.303
2.7919176999998854,1.423,-1.875,-88.193,20.437,-3.203,14.097,368.28,52.418,12.771,18.511,11.858,9.421,8.277,-4.233,3.311,12.419,29.036,4.581,15.256,-4.155,190.912,11.108,24.838,13.516,-26.038,9.975,12.364,-4.309,-19.565
2.8052011999998285,2.447,14.009,-63.001,26.052,11.144,26.89,335.636,67.222,21.467,26.69,23.117,15.047,18.515,5.505,15.091,20.604,32.593,14.31,22.925,3.534,192.77,22.88,29.424,25.798,6.776,21.748,18.499,1.843,7.094
2.8052647999998044,-4.728,8.872,-56.791,20.903,16.256,17.642,310.71,52.298,7.101,16.929,16.947,12.983,14.398,2.426,13.539,16.997,29.999,6.611,20.341,-1.593,186.942,21.32,28.883,33.969,-19.359,22.751,16.431,-0.721,26.555
2.8201076000000285,-5.748,-3.945,-70.054,16.271,3.945,4.817,343.187,33.803,-4.689,6.666,7.708,7.335,5.162,-11.921,5.84,11.344,25.87,1.481,14.173,-3.64,175.484,14.127,23.218,25.226,-51.615,15.556,14.366,-3.794,4.499
2.820174699999825,-0.619,-4.453,-77.156,7.034,-8.355,0.201,375.631,30.183,-4.172,5.122,8.725,7.327,4.644,-26.254,3.785,7.747,20.721,-0.569,5.962,-4.149,165.063,10.526,17.047,14.442,-38.756,7.344,12.302,-9.426,-18.559
2.8350875999999516,-1.643,-10.596,-87.325,-9.88,-17.056,-5.435,392.674,18.369,-8.266,0.507,4.618,2.709,-2.02,-25.715,-5.952,0.567,13.528,-15.426,-3.778,-16.44,154.139,-0.755,9.346,4.694,-10.028,-3.422,3.581,-23.248,-14.954
2.835149399999864,-4.715,-13.66,-94.922,-5.259,-22.162,-4.917,373.326,17.326,-9.795,-0.519,-1.022,-2.929,-8.166,-10.833,-15.68,-1.995,14.027,-19.509,-2.75,-22.059,147.325,-5.365,9.336,0.591,-12.067,-7.517,-0.521,-23.738,-11.353
2.8517987000000176,-0.612,4.797,-74.848,19.849,-13.942,7.896,355.022,41.9,2.51,10.753,8.2,5.783,7.724,1.473,-4.394,8.253,28.358,2.028,8.524,-7.18,146.665,10.01,20.598,16.984,-31.01,6.323,10.75,-4.246,0.953
2.851870500000132,-0.612,5.305,-67.6,15.219,-6.244,5.326,349.544,45.444,4.557,11.254,11.778,9.876,11.302,-4.676,4.32,10.294,30.378,7.661,6.466,-3.075,138.322,10.0,18.528,21.578,-37.127,12.976,16.375,-3.73,6.076
2.8652329000001373,-7.783,-16.218,-99.296,-10.924,-6.238,-10.048,316.919,21.832,-13.378,-5.663,0.496,-3.966,-11.251,-23.114,-3.881,-3.549,10.88,-11.302,-6.348,-17.416,123.839,-6.917,6.726,0.552,-29.917,-1.381,7.137,-23.706,-26.206
2.8653009999998176,-4.189,-9.541,-103.295,-1.692,0.429,-4.915,284.327,25.909,-17.464,-5.145,1.008,-1.913,-11.239,-25.653,-0.291,-3.545,8.308,-13.852,-0.194,-13.813,122.69,1.8,14.917,7.211,-41.158,-0.355,9.179,-17.534,-32.84
2.8792122999998355,9.135,8.399,-70.404,18.802,4.014,10.459,310.17,48.425,-2.077,10.229,12.79,11.409,7.727,-12.307,9.955,11.315,24.181,-2.055,11.589,-0.479,126.666,17.167,24.123,29.233,-63.146,14.502,19.416,6.049,-0.019
2.8792820999997275,8.101,0.194,-60.088,6.488,-7.26,5.326,342.647,40.692,2.536,9.194,12.265,7.299,7.719,-9.733,3.797,9.767,24.157,-2.053,5.43,-6.626,118.343,6.391,14.365,16.396,-34.394,9.364,15.298,1.945,6.641
2.8941838999999163,5.019,-5.954,-76.934,-1.715,-10.327,-1.852,375.093,19.646,-0.028,5.599,8.666,6.779,5.663,-13.309,-5.428,4.122,21.059,-2.051,6.449,-9.181,110.54,3.311,15.888,6.134,-1.572,3.207,12.209,-11.377,-14.37
2.8942447999997967,15.773,1.224,-81.98,12.631,0.442,8.908,372.668,25.262,7.144,16.864,16.854,17.531,14.878,-9.198,-1.324,11.29,28.21,7.685,18.738,3.124,111.454,16.116,28.167,20.984,-11.816,13.963,22.443,-2.657,-11.282
2.909939199999826,17.806,0.71,-82.41,10.057,1.466,16.584,340.02,46.241,9.186,16.335,19.911,11.366,9.228,-11.75,7.387,10.767,23.571,5.115,13.084,0.047,104.17,12.001,21.479,18.402,-44.08,13.949,23.445,0.932,-15.369
2.91000589999976,9.079,-4.413,-85.914,-6.347,-2.122,9.395,307.405,48.244,-3.118,3.511,11.182,-0.941,-4.101,-18.911,8.916,0.51,15.863,-6.673,2.313,-10.712,89.209,2.255,11.724,7.625,-46.598,4.201,12.663,-10.852,-26.625
2.9242561000000933,8.558,-3.897,-84.803,-4.291,0.954,-0.348,339.885,27.704,-11.824,-0.079,3.999,0.597,-4.609,-16.842,1.223,-0.003,21.483,-8.203,3.847,-9.676,80.923,3.277,14.274,11.716,-26.059,5.221,9.576,-9.304,-17.889
2.9243216999998367,1.377,-4.917,-85.743,0.836,1.978,-8.032,372.333,11.795,-13.862,-2.128,0.409,-0.941,-5.629,-17.338,-6.976,-1.028,19.924,-6.658,-1.28,-12.228,74.182,-3.386,10.161,4.019,-38.328,1.118,9.054,-2.122,-20.433
2.9392558999998073,-16.555,-10.548,-93.342,-7.362,-8.783,-11.098,339.685,14.857,-13.848,-8.786,-4.203,-9.137,-13.308,-28.079,-7.993,-9.224,11.195,-11.774,-9.988,-20.413,63.861,-12.092,2.978,-6.231,-46.999,-8.617,1.361,-8.268,-32.195
2.9542944999998326,-13.977,-14.123,-98.884,-8.379,-21.581,-9.038,307.07,26.625,-12.297,-9.802,-6.76,-8.103,-15.857,-35.736,-10.034,-10.751,13.233,-15.349,-7.929,-19.88,56.625,-7.469,7.586,1.46,-32.607,-6.047,-1.202,-16.457,-26.015
2.9543579999999565,1.406,-8.986,-96.224,0.851,-12.338,-5.443,291.394,34.795,-9.723,-9.792,-3.167,-2.459,-10.205,-32.114,-9.512,-5.105,17.318,-8.673,-2.285,-13.2,57.081,-1.826,14.751,6.069,-31.55,0.619,6.484,-13.366,-20.354
2.9692448000000695,6.015,-0.78,-82.807,10.584,12.777,-0.314,309.033,40.908,-3.566,-2.61,7.595,5.74,1.588,-17.225,4.33,5.146,20.887,1.581,6.939,-3.453,60.61,5.348,18.322,9.137,-31.518,4.717,15.186,-3.107,-10.087
2.9732137999999395,9.083,2.294,-70.941,18.77,15.838,5.321,341.512,39.33,1.561,11.225,17.833,14.956,10.808,-1.326,13.547,13.85,30.6,6.191,16.153,4.235,55.426,14.564,21.89,20.399,-10.995,12.909,18.245,7.142,9.903
2.985294900000099,11.123,5.878,-70.871,18.239,3.015,7.365,373.958,32.119,-3.564,10.189,19.865,13.916,10.285,-3.374,7.386,11.787,29.033,4.648,12.551,1.669,42.563,15.574,22.381,21.403,-5.348,18.019,19.764,12.258,4.257
2.985360000000128,8.038,14.069,-69.263,15.659,14.282,10.944,341.309,38.747,-1.511,8.13,23.431,13.39,11.811,-12.592,12.501,11.263,22.344,5.668,12.538,1.155,36.373,20.17,26.969,20.869,-17.638,21.075,25.892,14.808,1.179
2.999393499999769,6.493,16.617,-60.997,25.378,29.637,21.179,308.692,59.2,12.835,22.467,31.092,19.524,17.947,-9.505,25.809,20.473,28.469,11.81,23.797,8.326,32.75,29.371,34.627,30.582,-17.108,28.226,30.989,21.965,22.695
2.999461099999735,5.975,11.477,-65.034,27.401,21.923,22.695,293.014,63.752,10.261,22.956,27.987,17.968,12.806,-10.008,22.709,17.891,28.953,11.285,21.211,4.219,17.861,23.706,32.03,27.99,-20.165,26.149,26.347,23.992,11.914
3.0143244000000777,8.53,9.416,-70.604,8.419,15.753,10.889,325.509,45.757,-3.07,8.076,19.25,11.802,3.06,-23.318,14.49,7.627,20.727,5.126,10.432,-2.957,8.109,15.486,25.851,17.716,-33.977,17.926,20.685,16.284,-16.787
3.014383899999757,16.206,11.968,-56.701,7.898,19.836,7.292,357.971,30.854,1.544,9.093,21.792,11.79,5.618,-19.709,17.549,10.693,21.731,6.658,12.47,2.681,8.613,18.544,25.825,17.698,-21.648,18.932,23.739,10.12,-1.914
3.0294490000001133,9.53,17.08,-49.472,29.407,13.156,15.482,333.022,34.41,6.153,15.744,26.893,12.803,7.662,-2.783,20.093,15.293,24.783,7.676,15.532,4.728,-1.642,17.501,25.799,14.607,2.452,19.938,27.813,11.647,14.482
3.03364479999982,0.811,20.136,-65.304,29.89,4.946,17.003,300.414,45.134,-2.562,11.63,24.305,14.84,2.531,-2.78,16.487,12.717,19.635,2.033,10.905,1.137,-9.837,14.409,24.236,10.494,-7.284,17.357,26.249,17.783,3.197
3.045347100000072,14.13,17.042,-68.825,16.54,4.941,11.863,304.212,44.576,-2.559,9.569,21.719,16.362,2.016,-15.073,13.396,13.216,17.054,2.543,10.895,3.697,-7.265,19.006,26.261,17.143,-33.404,21.438,25.71,22.888,3.706
3.05951529999993,20.264,9.853,-59.535,13.45,5.961,8.265,336.695,33.773,2.054,8.022,18.624,10.71,4.576,-17.619,8.772,13.715,16.524,3.053,12.421,2.669,-18.529,16.425,24.698,15.589,-27.736,21.416,23.635,15.693,6.264
3.0595806999999695,4.362,3.183,-66.648,4.727,4.93,4.671,328.674,30.153,-2.047,3.404,15.531,11.212,2.522,-14.528,3.128,10.115,13.434,-5.659,7.797,-0.408,-32.343,9.749,21.087,3.79,-1.58,13.198,18.488,0.82,0.11
3.059620900000027,0.772,0.618,-75.803,-5.012,1.339,2.617,304.779,34.734,-2.557,4.425,16.54,17.86,1.495,-15.538,1.588,10.105,14.445,-4.629,7.277,1.642,-31.286,11.276,19.529,5.836,-15.411,11.648,18.982,-3.791,4.208
3.074482799999714,9.48,-1.431,-72.653,-1.421,-3.273,2.614,272.199,37.773,-2.554,2.371,15.499,11.695,0.469,-18.596,1.586,9.071,18.017,5.622,9.319,-1.434,-37.402,9.216,16.948,14.027,-47.671,11.636,21.525,1.335,-8.604
3.0745529999999235,5.372,-9.115,-81.29,-2.956,-5.831,-1.999,246.311,36.198,-9.212,-6.34,6.774,2.974,-4.143,-17.041,-3.538,2.914,18.511,3.567,5.211,-9.117,-55.296,1.522,13.857,5.816,-30.717,4.964,14.331,0.31,-37.797
3.0894898999999896,-2.83,-15.766,-92.991,-15.761,-6.85,-9.682,278.853,25.916,-13.813,-9.408,1.132,5.02,-6.188,-17.024,-8.658,-2.724,16.444,-0.023,0.595,-11.157,-62.413,-1.041,12.819,-5.973,2.101,-2.725,7.144,-6.351,-31.099
3.09349549999979,0.759,-11.139,-87.775,-17.282,-1.72,-9.672,311.362,17.181,-12.263,-5.3,4.717,5.015,-6.181,-24.179,-3.014,-2.722,12.841,2.539,0.595,-10.633,-65.936,1.009,13.318,0.693,-8.147,-2.21,12.26,-7.881,-13.137
3.106348799999978,10.492,-6.005,-81.54,-7.019,8.016,-3.515,280.824,23.824,-8.664,-1.709,8.811,0.912,-7.712,-20.569,4.162,-0.67,11.803,0.487,-2.992,-11.135,-72.018,0.496,12.28,10.939,-40.414,5.989,15.322,-1.726,-24.395
3.1064143999997214,12.018,-13.683,-84.532,-8.036,4.422,-6.585,271.834,26.361,-8.655,-5.805,7.265,2.448,-10.778,-10.302,-4.552,-1.694,9.23,-7.198,-8.624,-12.661,-77.069,-4.116,6.633,1.706,-31.665,6.495,10.696,-1.724,-29.493
3.1195874999998523,1.248,-20.842,-92.132,-19.299,-2.243,-13.751,275.148,16.601,-14.282,-12.972,2.135,2.445,-14.354,-18.488,-11.72,-5.278,2.049,-15.388,-10.665,-17.771,-83.652,-8.21,1.503,-10.079,-35.219,-3.757,11.197,-13.505,-18.193
3.134621299999708,2.784,-13.137,-92.04,-15.693,11.079,-1.442,242.598,33.491,-7.608,-3.225,7.256,3.98,-7.167,-29.228,4.174,-0.15,1.022,-16.397,-6.556,-14.68,-86.642,-1.542,8.162,-0.847,-64.898,-0.68,16.309,-12.467,-17.662
3.1346960999999283,20.712,-5.951,-76.579,-1.845,17.728,14.441,235.183,59.585,9.306,12.147,16.982,12.173,5.135,-14.342,13.391,9.072,10.242,-4.085,2.672,-4.419,-87.068,4.095,16.35,10.937,-41.267,10.079,18.342,-0.159,-13.034
3.149625399999877,16.592,-15.167,-73.428,-10.553,-2.269,1.107,267.735,38.009,0.587,1.377,9.281,7.037,-1.017,-7.156,-4.553,4.452,11.769,-2.032,2.157,-10.562,-96.202,-5.643,11.211,1.704,-11.512,-0.689,15.25,-8.868,-7.898
3.149690400000054,-2.892,-25.398,-95.384,-23.862,-10.464,-14.776,266.443,12.355,-14.782,-10.92,-2.512,-3.216,-13.824,-22.518,-15.819,-4.774,3.56,-16.374,-10.652,-21.31,-107.377,-15.371,2.49,-11.617,-37.115,-14.008,8.575,-24.229,-36.067
3.166439199999786,2.234,-21.274,-100.412,-11.031,11.576,-1.441,233.901,37.446,-1.448,2.923,6.2,7.546,-1.515,-23.007,3.664,1.378,6.118,-13.284,-10.642,-14.629,-104.708,-11.769,5.562,-13.655,-41.689,-9.384,9.078,-18.569,-62.159
3.1665100999998685,13.503,-17.154,-85.967,-7.946,21.81,7.27,254.16,48.167,6.751,7.019,13.366,17.272,10.782,-10.177,17.493,8.037,14.822,0.049,0.127,-7.954,-100.505,-7.147,8.118,-18.764,-24.229,-10.399,14.192,-14.965,-43.141
3.1796307999998135,1.706,-20.723,-89.979,-27.406,4.882,-9.131,286.693,15.843,-10.675,-7.333,4.644,7.521,0.013,-13.24,2.618,1.881,9.684,-8.66,-4.996,-12.045,-108.601,-8.164,2.987,-22.332,-52.382,-14.999,10.08,-22.634,-19.532
3.179693799999768,-8.03,-19.678,-96.037,-21.23,-10.492,-11.684,263.865,12.241,-11.688,-6.301,3.102,4.44,-4.598,-21.424,-9.68,-0.682,1.477,-17.361,-11.651,-15.619,-117.202,-10.718,1.447,-17.699,-68.723,-11.398,5.971,-19.025,-22.586
3.194594699999925,2.225,-15.56,-83.646,-0.205,-4.334,1.136,231.326,39.894,-0.406,0.365,7.71,7.509,2.579,-23.964,-2.498,1.368,1.476,-11.708,-8.053,-16.628,-120.159,-15.83,1.958,-20.242,-46.113,-12.411,9.039,-13.883,-28.199
3.194656799999848,9.395,-20.667,-84.074,-9.938,6.941,-5.525,253.124,31.657,-9.627,-7.32,3.091,0.842,-3.059,-22.916,-3.007,-2.22,1.986,-11.696,-11.631,-19.173,-123.112,-18.376,-0.094,-23.296,-56.825,-15.985,4.932,-20.017,-38.417
3.2095822000001135,1.188,-22.696,-95.773,-23.761,5.91,-15.254,285.658,9.084,-15.253,-9.874,1.039,1.865,-7.154,-9.573,-8.127,-1.193,7.107,-9.635,-14.181,-17.104,-125.551,-13.747,0.931,-16.613,-78.798,-10.334,1.853,-21.022,-56.821
3.209640699999909,-1.887,-13.451,-90.042,-9.905,4.879,-3.455,255.659,20.858,-3.967,2.431,10.26,15.183,4.124,4.781,5.201,9.567,19.908,3.182,-1.359,-9.402,-123.376,-6.048,6.566,-13.522,-56.177,-4.176,11.585,-13.316,-49.08
3.225491599999714,8.361,-4.729,-76.12,3.938,16.145,7.306,223.128,40.305,1.16,11.138,18.958,18.754,11.292,1.19,19.028,16.73,22.962,7.277,8.376,-2.221,-121.203,2.155,15.268,-9.41,-31.018,1.976,18.233,-5.618,-16.243
3.2255685999998605,10.402,-3.187,-72.458,-0.165,18.178,3.201,232.638,39.752,-1.403,10.102,20.989,18.223,8.207,-7.52,13.373,13.127,14.23,1.635,7.343,-3.243,-125.181,6.251,19.864,3.919,-20.741,9.659,16.678,1.56,-7.005
3.240092099999856,-3.953,-7.795,-74.947,-10.411,7.402,-1.413,265.193,34.077,-2.426,4.969,15.332,18.717,7.686,-11.611,7.725,7.99,11.654,-0.929,4.774,-8.363,-131.715,0.097,13.696,-2.233,-7.912,4.526,15.124,2.071,-27.491
3.2401558999999907,-6.51,-12.398,-81.532,-11.937,4.833,-3.461,295.154,27.383,-4.985,1.378,10.706,13.576,8.191,-16.21,10.791,6.958,12.155,-3.489,2.72,-7.33,-134.145,-6.051,6.51,-20.673,-22.761,-4.7,13.06,-2.542,-37.197
3.254764199999954,6.816,-10.848,-87.086,-6.29,6.877,-6.532,312.278,20.183,-9.078,0.864,13.257,13.562,6.646,-16.194,10.78,7.463,9.069,-3.998,3.23,-4.249,-134.523,-2.459,9.065,-17.067,-49.891,-2.134,14.072,-7.151,-27.938
3.2548321999997825,10.908,-8.276,-82.9,-7.308,4.309,-5.5,279.69,25.286,-9.069,-0.673,14.268,17.647,4.59,-15.665,6.671,5.919,5.986,-2.969,4.251,-7.318,-134.389,0.105,11.105,-7.316,-41.644,0.942,16.619,-10.73,-27.91
3.2697431000001416,8.335,-7.243,-75.132,-13.449,6.354,-0.372,247.135,38.068,-3.937,1.377,13.742,17.629,6.122,-20.26,2.053,6.938,7.517,-4.503,1.685,-4.237,-131.693,2.155,10.07,-7.308,-29.819,2.991,19.164,-1.497,-36.079
3.269809699999769,11.401,-4.674,-71.983,-12.411,13.007,1.166,279.675,35.981,-0.347,7.011,18.851,18.124,11.239,-16.142,3.076,11.029,11.608,-3.987,3.733,2.427,-135.147,6.763,14.158,-1.666,-39.523,6.574,21.706,8.238,-26.822
3.286581699999715,7.291,-9.28,-77.547,-13.423,10.433,-4.983,312.183,21.088,-9.056,2.393,15.246,14.52,4.568,-11.002,6.659,7.944,6.985,-6.544,1.168,-6.797,-147.82,-1.953,10.045,-6.275,-40.508,-0.093,15.025,-7.139,-22.697
3.286648100000093,-4.499,-19.005,-93.351,-12.385,3.762,-13.688,279.596,13.895,-19.805,-10.417,1.399,4.259,-8.245,-22.262,-0.008,-1.285,-5.829,-17.808,-11.641,-20.622,-154.332,-15.271,-1.235,-23.687,-44.054,-10.851,2.202,-18.915,-46.752
3.2999049999998533,-1.933,-10.789,-94.282,-0.077,8.882,-10.088,247.041,23.102,-14.662,-6.821,2.934,7.841,-3.626,-28.388,-1.032,-0.259,-2.75,-15.741,-9.068,-12.405,-147.518,-6.546,4.914,-14.442,-61.941,-2.131,9.884,4.157,-48.243
3.3147350999997798,16.512,5.616,-68.06,2.485,22.705,3.755,240.134,35.375,-3.377,7.531,17.788,19.616,10.723,-15.552,15.362,11.524,12.622,1.181,9.896,2.977,-141.223,13.44,21.815,10.676,-51.633,16.314,27.293,21.572,-15.407
3.314794399999755,26.229,2.536,-58.771,-9.301,17.559,3.751,272.681,31.753,-2.349,5.986,19.307,18.572,11.737,-7.339,15.859,13.562,12.61,2.204,10.911,0.925,-144.155,12.402,20.256,8.616,-18.793,15.785,22.655,7.206,-14.367
3.3298079000001053,16.469,-7.713,-83.815,-8.267,2.685,-7.524,305.196,19.938,-5.42,-2.217,10.579,13.43,5.065,-16.041,0.474,2.79,2.351,-14.192,-1.395,-8.81,-152.72,-0.93,9.99,-5.225,1.205,2.45,10.849,-1.511,-46.628
3.329868599999827,5.694,-5.143,-87.83,-1.086,10.879,-2.905,272.616,25.554,-4.903,1.884,11.593,12.392,4.548,-25.759,3.548,-0.799,-0.725,-18.276,-2.418,-10.338,-158.203,0.608,13.053,-1.121,-31.071,3.984,14.937,7.2,-38.896
3.344803200000115,12.861,-1.04,-68.274,-3.135,17.016,6.831,240.068,34.75,-2.849,5.468,16.704,13.405,6.08,-25.733,10.204,3.812,0.3,-10.061,0.658,-5.717,-159.582,7.267,17.139,8.614,-60.754,14.739,22.094,10.779,-8.119
3.3488244000000122,26.68,0.498,-70.767,1.992,3.166,5.288,272.616,31.641,1.253,4.951,16.688,19.026,9.148,-16.486,1.485,5.345,4.398,-5.953,1.682,0.436,-158.91,5.21,14.56,6.556,-35.078,12.162,23.097,9.743,-16.82
3.3609495999999126,28.19,9.207,-77.869,10.699,11.36,12.455,262.097,41.343,10.473,14.679,23.331,25.667,17.335,-8.272,5.069,8.926,14.64,-0.824,8.852,5.559,-154.652,9.304,17.619,3.475,-12.501,9.076,25.635,15.369,-37.296
3.3610169999997197,22.014,12.272,-63.959,10.688,33.89,23.201,229.559,57.184,15.073,22.349,30.992,27.179,21.929,-11.85,16.335,13.528,16.674,3.276,14.479,7.602,-149.375,14.417,20.676,10.132,-38.616,17.776,28.683,16.378,-33.16
3.3749196999997366,15.332,-1.061,-63.382,2.993,22.073,9.345,262.117,39.708,2.763,7.982,19.178,19.979,9.099,-22.597,8.634,5.318,5.387,-4.924,7.292,2.984,-157.935,5.694,13.483,10.122,-53.435,13.66,22.507,4.067,-24.417
3.3749849000000722,9.169,-13.355,-77.664,-10.842,4.633,-4.496,285.421,20.713,-7.998,-4.833,8.4,13.812,-2.181,-17.964,1.966,-1.348,3.332,-4.92,4.211,-4.191,-167.51,1.077,9.883,-2.696,-30.327,1.864,14.8,-2.598,-22.856
3.389980999999807,10.185,-6.169,-71.951,-16.467,17.948,7.291,252.861,42.209,4.305,8.492,20.687,23.019,10.117,-0.527,12.722,8.387,17.674,11.479,11.891,0.424,-160.683,7.736,17.046,-2.181,-25.174,7.497,20.42,5.602,-18.735
3.3900500999998258,15.81,1.009,-67.268,1.48,29.713,12.919,282.322,52.925,11.985,17.705,26.302,30.681,20.353,-0.014,17.832,12.477,20.73,10.955,11.367,8.62,-160.01,5.167,14.979,5.506,-43.592,9.026,27.06,4.572,-18.716
3.4049457999999504,12.208,-11.8,-89.23,11.213,21.487,-4.512,314.827,23.671,-5.445,-0.756,12.956,16.818,3.939,-15.896,11.155,1.707,4.828,-8.011,-1.964,-2.659,-172.658,-3.035,1.132,-5.771,-50.208,-6.352,17.811,-8.753,-35.091
3.4090243999999075,10.147,-21.522,-101.948,-3.655,13.781,-12.705,282.237,10.327,-14.661,-8.952,8.844,10.653,-4.774,-19.978,8.07,-0.857,-1.837,-7.491,-4.524,-12.39,-173.51,-2.007,0.619,-12.425,-41.449,-8.907,12.671,-8.232,-54.524
3.420812699999715,15.772,-12.278,-89.039,-6.726,17.353,-4.495,287.078,25.174,1.747,5.401,16.008,23.45,10.6,-14.323,13.697,6.316,6.874,3.788,5.215,-0.595,-165.139,2.605,12.401,-1.654,-34.747,0.836,20.342,3.047,-56.006
3.420881399999871,10.633,-6.119,-79.216,9.163,25.02,3.194,313.431,37.444,15.065,13.593,20.09,24.452,18.274,-14.821,18.294,8.872,6.867,-1.851,6.746,5.553,-168.048,5.164,10.852,-2.677,-45.471,-0.702,20.322,3.557,-41.606
3.435051999999814,2.938,-8.674,-80.161,12.74,22.434,8.826,280.842,45.603,13.001,13.067,23.144,18.792,11.083,-14.806,17.251,9.375,1.225,-8.51,-0.433,-4.698,-174.54,3.11,1.619,-10.871,-61.82,-4.8,14.666,-1.57,-25.682
3.4351173000000017,6.521,-11.739,-85.204,0.944,13.702,6.256,263.142,39.41,4.791,9.98,16.973,21.847,9.023,-13.254,10.574,8.341,2.248,-4.915,-1.457,-6.743,-176.414,-2.016,1.618,-8.811,-59.709,-8.893,12.09,-8.741,-16.947
3.4500270999997156,4.465,-17.363,-90.754,-7.254,19.836,-6.558,295.667,16.317,-3.41,-1.813,7.735,19.776,7.989,-17.852,6.465,4.234,1.221,-5.422,1.618,-2.125,-175.726,1.06,4.69,-5.216,-56.575,-12.471,10.541,-16.929,-24.103
3.4500865999998496,3.948,-16.321,-82.467,-3.148,29.038,-8.088,289.736,15.276,-3.919,-2.324,15.924,19.756,9.518,-12.711,11.069,8.329,3.782,-3.368,7.252,3.0,-170.939,10.792,8.784,1.962,-67.789,-1.187,17.191,-7.691,-38.423
3.4649882999997317,18.289,-1.448,-70.089,10.175,21.324,5.752,257.171,33.704,3.769,12.023,27.691,28.445,19.242,2.159,17.718,18.054,13.512,7.394,13.905,10.682,-168.719,14.368,13.386,9.644,-54.914,11.109,25.883,12.297,-38.385
3.468933300000117,20.32,7.263,-75.142,20.411,15.667,8.82,280.48,36.744,6.327,12.524,22.54,26.88,20.248,0.62,14.114,15.474,13.498,10.461,14.916,10.671,-171.624,15.378,11.835,1.438,-22.071,5.463,23.808,17.408,-26.563
3.480937299999823,5.955,6.744,-74.554,23.464,26.922,8.811,247.924,43.879,6.833,9.437,20.469,23.779,13.055,-6.041,12.563,12.385,10.411,9.426,12.339,7.074,-172.99,16.899,10.799,-2.15,-13.852,0.334,23.784,15.854,-21.414
3.481003399999736,11.072,8.274,-60.647,22.928,30.994,14.95,215.401,56.643,9.9,15.576,28.133,29.903,17.141,3.187,18.186,20.57,18.085,17.101,14.376,12.702,-174.866,16.883,14.887,9.123,-45.089,5.969,28.371,16.862,-15.757
3.495135399999981,26.43,3.655,-64.173,13.684,18.155,5.714,247.973,31.996,5.279,8.388,22.982,26.287,17.636,2.159,14.069,22.086,15.505,11.961,11.288,11.153,-178.789,13.28,11.798,8.089,-60.925,3.402,23.732,8.649,-9.081
3.4952045,19.744,-6.595,-73.33,4.449,7.891,-13.247,280.513,2.762,-8.046,-6.478,11.175,17.039,2.761,-19.36,4.834,10.793,-0.392,-7.519,-1.019,-4.228,-182.709,4.045,2.564,-2.677,-48.057,-6.848,18.073,-1.094,-18.806
3.510109999999713,7.941,-7.613,-67.109,8.03,10.445,-10.16,247.957,22.227,-11.112,-8.008,11.164,15.485,-4.926,-24.976,6.878,5.147,-2.441,-4.95,-7.166,-10.883,-189.186,-3.132,1.025,-5.749,-50.57,-14.526,20.104,3.006,-35.181
3.524089600000025,9.982,-1.97,-68.579,12.633,12.996,2.145,215.433,45.259,-1.367,-3.902,14.739,14.958,1.226,-11.119,8.408,8.728,5.759,9.4,-0.498,-5.237,-191.046,-0.055,2.049,-4.206,-74.598,-14.511,19.059,10.175,-32.584
3.524149899999884,15.608,-0.431,-72.097,11.084,6.835,1.631,248.006,39.066,3.758,-0.824,13.7,16.48,6.348,-8.546,3.277,14.867,5.753,2.218,4.113,-2.67,-185.732,7.118,6.145,4.508,-75.036,-4.25,18.015,11.189,-14.621
3.5412842000000637,16.105,0.082,-60.241,14.146,4.267,-2.982,266.713,30.83,-2.394,1.226,11.125,18.0,6.342,-15.198,1.736,17.926,0.624,-8.031,2.06,-4.717,-186.059,7.623,13.311,13.725,-56.005,0.877,20.047,10.154,-6.409
3.5413509999998496,15.576,-1.455,-61.718,11.571,8.873,-10.151,267.983,16.967,-13.662,-10.558,4.966,10.297,-1.861,-14.67,-2.364,10.223,-3.475,-5.973,-4.603,-11.372,-192.533,0.443,4.589,1.416,-46.216,-9.37,17.465,4.508,-16.649
3.554260500000055,15.561,-7.602,-81.124,-0.224,8.864,-20.899,296.917,-1.493,-21.845,-20.281,-0.674,6.189,-11.593,-13.119,-7.997,3.041,-4.496,-5.455,-10.746,-16.484,-194.389,-8.779,-9.248,-14.98,-35.411,-18.582,13.349,-1.644,-33.539
3.5543259000000944,12.471,-9.643,-84.629,-2.785,11.417,-16.78,264.344,8.754,-16.188,-12.064,3.937,12.842,-5.946,-18.741,-2.866,9.698,-0.393,-6.986,-11.247,-12.369,-195.732,-7.746,-3.091,-5.231,-37.937,-17.027,11.799,-2.667,-37.091
3.5692487000001165,6.823,-11.171,-78.397,-0.733,21.139,-5.492,231.805,25.139,-6.438,-5.904,6.495,12.83,-0.305,-22.821,2.772,11.737,1.657,-5.443,-7.137,-10.307,-199.635,-2.615,2.035,7.07,-70.175,-13.936,10.25,-3.689,-24.247
3.569312799999807,3.23,-17.819,-80.88,-5.343,15.995,-14.708,231.573,13.844,-16.678,-16.657,-2.733,4.62,-12.6,-21.261,-1.841,4.553,-3.98,-7.486,-9.18,-16.957,-207.12,-7.223,-6.676,-4.72,-81.375,-16.484,8.191,-8.296,-17.562
3.5842843000000357,3.739,-21.388,-88.996,-9.949,1.122,-29.038,199.066,6.657,-29.981,-25.35,-9.391,1.029,-19.76,-24.314,-9.012,4.036,-8.075,-12.09,-16.855,-22.063,-215.11,-15.413,-9.744,-21.622,-48.506,-26.713,2.035,-10.849,-38.037
3.584351500000139,3.223,-21.366,-97.616,-11.476,3.17,-21.837,220.384,16.385,-19.193,-19.689,-4.771,4.102,-11.543,-29.925,-7.466,6.082,-6.018,-12.59,-18.887,-20.504,-213.357,-13.86,-9.222,-22.113,-45.384,-32.834,-1.041,-7.765,-60.028
3.6001298000001043,4.757,-17.759,-92.908,-7.878,15.463,-8.495,252.951,18.93,-7.391,-9.935,2.406,10.245,-5.896,-22.21,1.251,9.149,-2.425,-11.553,-10.672,-12.799,-202.386,-6.674,-8.188,-9.283,-76.077,-20.506,9.718,-2.122,-46.648
3.6001993999998376,9.875,-10.057,-74.372,-1.21,20.058,-6.437,233.743,18.398,-12.506,-6.852,8.552,15.358,-1.28,-6.819,8.422,18.874,1.675,-6.93,-1.439,-3.052,-197.06,2.042,3.091,6.096,-76.513,-6.141,19.442,0.954,-25.597
3.614733999999771,10.378,-11.071,-77.371,-3.258,18.501,-9.505,245.804,14.282,-13.006,-8.382,10.592,14.831,4.869,-5.787,9.951,21.929,5.26,-0.263,0.099,-2.025,-199.937,6.138,9.236,8.651,-45.698,-8.184,13.788,-4.17,-33.768
3.614802199999758,6.269,-21.818,-93.688,-14.013,14.384,-12.569,278.346,-0.077,-8.382,-9.398,7.508,12.767,0.766,-14.491,6.867,16.272,2.693,0.761,-3.487,-7.658,-202.811,-0.528,2.054,-5.702,-30.795,-16.885,9.163,-10.825,-41.419
3.6293547999998736,6.263,-26.407,-87.959,-19.122,14.882,-14.093,245.793,5.558,-9.398,-9.901,6.988,11.729,-4.87,-15.501,5.835,17.792,0.129,-1.801,-1.947,-5.601,-203.12,-2.577,1.54,-10.819,-52.794,-16.868,10.691,-11.327,-35.23
3.629425600000104,7.281,-20.746,-82.748,-12.443,22.552,-6.395,213.271,33.217,-6.828,-3.743,10.567,14.279,0.77,-11.899,10.44,22.898,6.789,0.762,5.74,-0.473,-201.38,8.184,9.735,6.098,-73.746,-8.142,12.217,-5.68,-49.027
3.644351800000095,8.298,-11.503,-92.911,1.401,23.041,6.419,245.846,42.406,0.352,5.994,15.168,20.925,9.479,-8.813,15.553,26.461,12.93,3.836,11.369,1.577,-199.642,12.787,14.336,17.875,-47.544,1.088,18.352,6.109,-54.101
3.644420099999934,12.389,-8.418,-77.961,5.498,15.334,7.438,278.388,30.58,2.913,5.476,17.714,21.416,12.543,-3.169,15.025,27.459,9.843,0.758,9.309,1.063,-199.955,4.577,10.736,10.172,-22.394,-2.5,19.871,7.639,-21.259
3.6611330999999154,9.302,-20.193,-56.366,-12.438,10.195,-8.451,267.351,17.23,-4.775,-5.288,11.549,14.735,6.895,-1.629,10.912,22.309,5.222,-4.878,0.59,-5.086,-204.366,-1.063,-1.058,-0.084,-54.647,-13.768,10.63,-11.324,-14.578
3.67439800000011,2.121,-29.906,-78.339,-24.721,6.599,-20.226,234.808,9.015,-15.528,-10.918,2.828,10.109,-1.821,-7.263,5.778,19.212,4.705,-4.873,-2.996,-10.204,-211.333,-0.549,-3.618,0.94,-86.355,-11.705,8.57,-17.46,-46.839
3.6744636999997056,5.705,-18.606,-100.802,-9.839,5.055,-9.96,202.81,23.863,-10.39,-3.735,6.411,14.198,0.23,-9.305,2.186,25.341,5.212,-1.795,5.716,-2.509,-211.634,6.111,10.217,10.673,-53.993,1.627,15.734,6.124,-49.354
3.6894210000000385,11.334,-5.779,-81.234,0.929,7.1,-0.216,235.395,34.086,0.891,1.904,15.626,19.306,7.402,-9.296,3.72,28.389,4.183,-2.305,12.882,3.642,-207.837,11.74,11.744,13.736,-21.152,3.674,15.718,8.167,-16.517
3.6894984000000477,6.2,-11.921,-66.296,-8.293,5.043,-13.023,267.947,5.362,-10.38,-8.344,8.438,16.213,0.735,-17.483,3.717,21.701,-2.994,-8.451,6.209,-4.559,-214.801,4.556,0.462,3.989,-33.426,-7.088,11.091,-18.994,-8.303
3.704417899999953,2.608,-14.983,-72.377,-4.699,5.551,-21.207,235.404,-1.303,-21.641,-14.995,0.233,9.537,-7.463,-22.076,4.225,18.606,-8.114,-10.491,-1.481,-9.165,-220.222,-1.083,3.023,5.01,-65.668,-9.13,13.129,-15.901,-40.57
3.719380900000033,8.241,-4.704,-74.276,17.849,13.224,-11.935,170.415,24.834,-16.975,-8.811,2.29,9.012,-6.928,-13.831,8.827,22.67,-6.043,-5.345,-1.983,-2.995,-218.751,3.535,13.26,18.318,-94.193,-1.425,21.298,17.428,-76.831
3.719441299999744,21.553,1.448,-68.566,13.22,14.747,-2.702,203.032,25.834,-6.2,-2.142,12.534,18.737,3.838,-4.595,9.331,28.283,3.184,1.32,4.679,3.156,-218.532,7.63,7.612,14.714,-67.459,2.163,24.351,20.996,-69.069
3.7353644999998323,24.605,-1.627,-74.133,2.961,16.269,-6.797,235.617,11.463,-11.317,-5.726,13.546,18.718,6.908,-7.665,10.858,28.767,5.742,4.905,6.723,1.616,-220.875,4.036,8.629,11.113,-70.978,1.648,26.375,14.828,-73.099
3.735443199999736,16.384,7.596,-69.96,21.913,24.45,5.505,203.106,33.993,-2.084,6.063,20.705,22.798,13.561,-2.534,20.069,34.886,12.397,14.122,16.451,9.299,-211.945,16.328,22.965,28.008,-91.399,12.405,33.521,27.621,-54.582
3.749547999999777,10.732,16.298,-66.816,30.6,22.889,11.647,221.346,40.107,4.578,13.229,23.758,28.411,15.597,5.153,24.66,38.437,15.458,18.206,22.582,16.974,-210.197,25.533,26.528,37.202,-85.673,18.028,37.074,26.568,-33.011
3.7496149999997215,16.357,8.085,-71.36,9.565,18.255,-4.246,253.912,21.111,-8.234,-0.104,15.025,22.235,5.847,-3.049,23.098,32.251,6.733,7.429,16.412,13.371,-214.085,16.286,19.329,27.431,-74.316,9.301,28.84,11.173,-47.323
3.764588900000035,24.025,7.564,-60.53,14.166,31.045,-1.168,221.383,30.824,-8.738,0.408,17.059,19.651,5.329,-9.194,28.71,30.681,6.727,4.86,15.371,12.845,-205.674,15.245,21.359,24.842,-73.729,11.341,30.348,19.871,-60.083
3.7646522999998524,21.952,13.192,-57.396,34.644,28.964,9.591,248.314,36.941,-3.606,5.018,18.067,21.168,9.422,-4.061,19.972,28.089,10.306,13.052,13.818,11.296,-205.468,17.279,19.801,22.255,-68.02,12.866,35.441,27.023,-57.974
3.7794945000000553,10.147,-6.801,-82.954,10.531,1.271,-15.009,280.853,7.703,-23.071,-15.991,-3.468,6.29,-7.493,-15.328,-5.151,11.667,-8.147,-4.379,-6.688,-8.183,-225.243,-2.718,-0.199,4.815,-76.662,-7.127,17.987,7.016,-78.92
3.7795539999997345,7.063,-20.627,-89.019,-15.095,-1.292,-31.388,254.445,-5.113,-31.757,-24.172,-11.15,-3.45,-20.294,-35.293,-3.096,3.971,-24.533,-29.478,-18.977,-18.934,-230.653,-13.987,-7.884,-0.313,-100.151,-15.829,7.723,4.448,-87.551
3.7952261000000362,19.863,1.423,-64.851,4.9,24.325,-6.766,235.235,14.872,-9.696,-0.582,10.378,13.46,-1.83,-27.573,21.498,16.775,-10.676,-20.227,-3.588,-3.033,-216.59,6.007,10.055,17.618,-95.44,4.679,28.207,23.911,-54.675
3.7953026999998656,24.454,8.082,-66.323,16.679,23.788,3.487,230.901,28.69,-3.538,5.054,14.467,21.643,5.856,-12.688,17.89,19.832,2.655,-0.739,3.588,5.679,-212.787,14.198,15.168,20.674,-74.852,10.822,34.839,17.227,-37.714
3.8096569999997882,12.135,-14.98,-87.262,0.78,4.809,-13.935,198.395,25.075,-20.953,-12.369,-0.917,6.252,-13.617,-22.409,-0.059,7.004,-7.082,-6.886,-7.175,-3.548,-223.845,-1.185,2.858,5.284,-79.388,-8.656,17.898,0.303,-69.952
3.8097210000000814,8.536,-19.064,-86.15,-1.27,11.976,-18.019,187.95,19.414,-22.469,-12.869,-1.429,3.684,-16.165,-28.022,4.552,6.997,-11.173,-12.514,-6.655,-4.569,-226.183,-3.745,3.879,5.279,-89.043,-13.258,14.806,7.988,-91.399
3.824663999999757,11.602,-5.724,-76.842,10.002,30.407,-6.218,220.55,26.567,-8.614,-0.561,9.844,17.513,2.294,-9.551,16.843,17.749,2.67,0.306,2.573,3.12,-219.297,6.504,14.122,18.081,-83.831,3.149,24.013,22.837,-70.815
3.8247284999997646,3.905,-4.182,-77.79,11.017,24.229,-2.113,253.117,31.152,-5.532,3.026,13.42,21.082,6.902,-1.345,17.851,18.756,7.278,6.453,4.108,6.191,-221.126,8.547,14.62,17.551,-79.648,9.806,26.551,24.863,-52.302
3.8396804999997585,1.852,-11.862,-78.737,3.834,7.811,-9.284,284.627,14.214,-14.236,-4.662,7.259,13.888,-2.838,-15.688,14.759,12.077,-4.0,-3.799,-1.532,-0.475,-233.201,0.342,7.945,5.75,-81.106,-4.036,19.864,15.617,-55.835
3.8397429000001466,13.633,-17.998,-76.096,-2.318,8.316,-16.959,252.067,10.614,-17.808,-11.83,-0.945,9.776,-7.446,-25.406,9.109,8.479,-11.168,-12.505,-10.752,-9.184,-238.091,-9.392,1.277,-0.916,-89.734,-13.766,11.135,1.256,-69.612
3.8554181999998036,15.669,-14.394,-77.045,1.783,17.529,-10.282,219.54,32.632,-9.593,-3.621,4.691,13.352,-2.316,-21.795,7.563,11.032,-8.595,-11.98,-9.204,-3.027,-232.729,-5.797,3.325,4.721,-103.476,-2.994,16.247,-0.794,-73.641
3.870784299999741,8.481,-5.158,-83.116,7.929,20.585,-3.099,252.108,26.964,-4.973,5.092,14.932,18.974,4.347,-17.162,13.703,14.607,-7.05,-11.456,3.1,7.734,-228.911,8.554,13.568,14.45,-96.713,9.817,27.502,10.478,-66.395
3.8708606000000145,6.936,-6.177,-87.131,3.31,21.589,-11.293,271.836,9.519,-12.652,-1.061,7.745,17.931,0.756,-16.633,17.275,11.518,-11.654,-13.493,0.023,0.554,-232.78,5.983,14.579,13.411,-67.415,4.172,21.839,15.078,-66.328
3.8847359999999753,5.904,-13.856,-80.384,2.282,23.617,-12.819,239.289,27.953,-15.201,-6.695,0.053,11.253,-5.392,-20.202,15.209,6.896,-14.203,-12.455,-11.76,-8.668,-238.183,-6.318,5.855,7.25,-63.761,-4.542,12.595,9.94,-70.36
3.8848018999997294,-1.786,-16.916,-77.23,1.768,14.884,-13.318,271.837,29.462,-15.698,-10.275,-1.484,7.655,-7.948,-26.842,9.046,5.352,-14.189,-12.955,-12.26,-8.659,-241.531,-7.336,1.239,7.242,-94.948,-8.124,15.144,4.294,-67.216
3.8997691999998096,-4.858,-20.997,-87.911,-10.529,7.185,-26.625,304.353,1.255,-25.416,-18.974,-5.069,7.648,-11.527,-28.864,4.426,1.761,-12.638,-14.479,-9.687,-7.626,-241.801,-4.767,2.774,5.186,-96.902,-9.652,15.129,0.704,-70.735
3.8998357999998916,7.954,-14.316,-82.7,-5.908,23.059,-16.864,271.773,18.16,-17.706,-8.196,3.645,14.812,-4.343,-17.052,17.742,6.882,-5.453,-4.731,-2.505,0.579,-236.437,0.36,9.431,6.205,-65.042,0.604,17.163,8.9,-74.251
3.914773399999831,17.68,-4.056,-67.76,3.832,32.257,0.059,264.841,39.147,-3.856,4.107,12.351,18.896,5.395,-9.863,31.556,13.535,-0.837,2.958,3.646,6.213,-230.565,5.995,10.959,14.396,-73.174,6.751,22.269,15.551,-68.541
3.918881799999781,3.83,-19.421,-86.648,-17.177,5.585,-25.045,297.364,6.832,-24.345,-16.901,-7.129,7.094,-9.467,-23.173,10.52,0.714,-10.57,-8.315,-11.727,-10.699,-239.556,-9.38,-4.421,1.574,-105.376,-12.212,12.001,-0.346,-77.182
3.930739800000083,-8.469,-32.209,-109.103,-23.307,-11.327,-40.901,264.791,-7.007,-41.227,-29.692,-19.93,-0.598,-22.777,-30.835,-9.983,-10.558,-17.732,-10.868,-21.962,-18.373,-250.075,-19.617,-11.589,-13.797,-89.902,-22.445,4.304,-12.641,-81.203
3.9308077999999114,4.347,-15.783,-89.526,0.794,4.566,-14.733,232.251,25.788,-23.255,-11.219,-2.491,8.624,-8.922,-15.947,7.446,-0.813,-8.492,1.95,-4.521,-1.961,-243.165,-0.642,2.767,3.636,-59.586,-4.492,15.571,-4.944,-60.117
3.9448354999999538,16.638,-12.694,-77.141,-3.817,12.246,-11.644,264.807,21.663,-17.084,-7.622,5.196,13.227,-2.253,-11.32,20.246,5.848,-4.385,0.411,3.168,3.164,-237.286,8.581,8.912,16.952,-74.383,4.734,20.166,0.184,-64.668
3.944901399999708,11.498,-20.366,-98.069,-15.596,8.648,-21.366,232.266,10.883,-21.677,-12.225,3.142,14.238,-4.813,-22.067,8.955,5.33,-9.504,-6.249,-0.421,0.087,-238.586,4.986,4.805,3.615,-81.481,1.655,18.096,2.233,-94.317
3.9597748000001047,8.413,-7.025,-95.921,5.424,18.885,-2.389,199.759,40.074,-6.286,2.644,14.409,22.933,6.463,-14.873,12.02,13.009,-1.298,4.003,8.288,10.333,-230.662,14.715,9.923,6.685,-59.37,9.85,26.787,14.014,-87.563
3.9598332000000482,12.503,-2.92,-72.259,1.832,23.477,-2.899,232.347,34.398,-3.719,4.178,14.395,22.91,9.53,-2.05,23.279,11.971,5.364,4.511,7.255,12.372,-229.919,12.651,11.962,17.437,-67.508,9.841,26.761,14.0,-68.52
3.9748641999999563,5.83,-22.385,-79.871,-26.347,11.158,-24.926,264.902,2.089,-21.646,-10.17,0.036,13.666,-3.287,-13.319,13.521,1.201,-8.474,-10.862,-9.146,-3.009,-243.522,-7.342,-0.345,2.563,-85.883,-7.075,14.439,-5.481,-73.062
3.9788918999997804,-4.934,-26.973,-102.333,-19.66,3.975,-18.241,232.362,12.845,-22.136,-9.648,-2.014,11.09,-4.821,-26.113,-0.324,-2.387,-15.638,-11.364,-13.235,-7.105,-247.889,-11.945,-10.591,-12.809,-72.478,-17.827,10.326,-19.821,-74.014
3.9907868999998755,6.342,-20.798,-100.182,-7.345,3.971,-6.952,199.854,30.251,-15.966,-4.515,3.624,14.665,-0.717,-18.403,0.188,1.202,-4.352,-0.082,-8.099,2.636,-243.543,-6.298,-5.457,-4.087,-74.967,-14.223,14.414,-16.215,-81.112
3.990855399999873,27.852,-18.216,-88.811,-13.998,8.065,-6.432,217.585,28.171,-14.414,1.125,9.256,22.335,3.894,-9.163,9.922,6.324,1.288,4.017,0.619,9.294,-237.664,2.93,7.356,11.798,-94.359,0.648,22.084,2.757,-97.937
4.005010599999878,25.775,-11.025,-90.259,-7.836,22.914,1.259,235.81,34.803,-5.69,9.833,13.345,27.436,12.599,-8.641,20.67,10.416,-1.787,4.013,7.79,10.309,-229.229,12.661,11.959,12.811,-82.482,12.431,27.697,11.976,-85.544
4.005077599999822,10.893,-9.478,-94.779,1.393,28.527,-0.28,254.53,32.719,-6.196,4.7,10.258,21.773,12.075,-11.707,21.162,7.332,-3.322,1.96,-0.927,5.688,-232.586,2.914,2.726,-0.522,-78.301,1.148,23.571,1.718,-71.626
4.01992939999991,16.005,-11.517,-91.098,-2.194,19.789,-4.378,250.689,24.489,-9.776,2.134,9.223,19.702,8.989,-14.256,16.018,5.275,-3.831,1.958,-5.024,4.145,-241.063,-5.798,0.674,-0.521,-93.08,-8.075,20.986,0.179,-85.386
4.01999399999977,26.747,-2.284,-79.736,0.369,18.232,8.434,243.779,37.272,0.992,10.328,12.287,25.83,17.177,-8.607,19.588,8.344,0.271,8.104,8.301,10.289,-237.748,7.528,9.382,15.873,-65.834,3.716,24.039,11.45,-81.715
4.034974499999862,18.011,-2.282,-73.509,-3.217,18.726,2.791,265.564,37.235,-2.595,0.584,6.64,19.145,13.573,-2.963,19.568,5.262,2.833,9.632,7.268,8.742,-238.022,4.447,6.811,10.222,-39.641,3.2,18.379,3.241,-62.678
4.039315999999872,3.136,-19.186,-84.194,-24.218,16.146,-19.754,243.269,19.267,-23.085,-15.298,-0.539,8.367,-1.81,-14.231,11.864,1.158,-4.855,2.963,-7.084,0.536,-243.932,-9.902,-3.441,-8.744,-71.876,-10.635,13.75,-14.18,-75.423
4.051909700000124,5.695,-23.265,-97.43,-30.342,19.716,-14.099,228.681,19.248,-21.013,-8.623,6.121,15.531,1.266,-24.975,14.926,4.23,-7.924,0.91,-4.003,4.634,-238.565,-0.159,-3.438,0.999,-98.445,-5.502,20.909,-10.068,-89.18
4.065085100000033,20.546,-10.946,-88.623,-10.844,21.233,0.772,261.24,24.352,-6.647,3.169,13.8,24.225,12.536,-8.556,24.645,8.325,1.818,5.52,5.735,12.826,-231.154,11.625,5.275,15.855,-73.243,9.361,28.573,6.336,-71.16
4.065152300000136,25.136,-1.714,-71.628,5.561,18.651,-0.765,260.467,25.864,-2.03,6.24,14.811,22.151,14.06,7.846,23.596,9.853,5.915,9.101,5.729,10.764,-233.485,8.539,11.929,11.228,-53.19,12.937,29.569,13.502,-59.818
4.0800449999997,13.328,-3.761,-77.704,1.457,24.267,-1.277,227.931,40.695,-2.028,3.672,11.21,17.006,12.509,-3.432,14.863,8.307,2.322,8.067,3.674,3.581,-239.911,5.457,8.331,7.119,-56.21,7.289,23.391,7.341,-76.664
4.08010830000012,6.655,-16.565,-90.947,-11.865,20.657,-3.325,210.797,42.192,-11.247,-7.09,1.465,8.28,3.787,-15.212,5.627,-1.948,-2.291,2.936,-6.063,-3.083,-247.868,-4.283,-2.436,3.013,-70.499,-5.014,12.609,-3.425,-86.834
4.095025799999803,8.697,-25.258,-84.196,-18.513,5.267,-17.666,243.374,16.022,-28.654,-17.329,-8.783,2.636,-10.561,-11.61,0.498,-10.143,-10.485,-3.215,-19.377,-9.74,-251.719,-18.111,-9.605,-6.724,-89.384,-14.23,5.937,-10.081,-71.89
4.095085500000096,-1.558,-27.794,-80.525,-23.105,7.311,-29.944,275.918,-2.437,-35.798,-20.386,-10.311,5.707,-13.624,-15.185,4.084,-9.108,-15.086,-8.334,-22.432,-11.267,-249.93,-19.629,-11.133,-8.254,-89.294,-15.24,5.419,-18.781,-68.232
