Timestamp,Cz,Fz,Fp1,F3,C1,C3,T7,C5,CP5,CP3,CP1,P1,P3,O1,CPz,Pz,Oz,O2,P4,P2,CP2,CP4,CP6,C6,T8,C4,C2,F4,Fp2
0.0,1.769,10.904,-96.913,-82.314,25.482,-8.162,92.589,42.198,39.613,45.277,37.017,25.057,38.212,96.502,44.368,22.765,22.392,128.422,21.633,18.308,-127.974,0.45,-0.05,19.541,3.602,46.618,21.366,89.504,-100.61
6.789999997636187e-05,7.403,28.824,-65.565,-59.178,46.973,5.166,65.344,48.816,45.209,57.015,54.399,34.766,51.494,105.627,61.23,31.963,32.103,135.978,38.518,30.073,-122.211,17.868,17.881,41.55,36.386,65.527,36.714,122.202,-94.361
0.01503339999999298,-2.338,28.795,-63.45,-56.045,40.266,4.136,59.131,47.742,41.065,49.785,49.221,27.559,45.294,95.788,56.046,23.735,26.436,133.281,30.795,22.359,-134.384,11.702,13.765,44.583,32.764,61.875,32.579,123.617,-96.316
0.018927099999928032,-14.119,3.663,-95.662,-83.654,16.147,-17.385,91.859,28.227,32.315,35.391,28.167,19.847,32.441,91.081,41.133,13.977,26.41,133.66,21.03,12.602,-145.52,-2.142,-1.618,30.706,15.825,46.444,19.226,91.218,-106.978
0.03270989999964513,-7.957,-1.976,-110.936,-92.279,15.619,-18.904,62.053,28.199,34.844,36.892,29.676,21.364,35.483,101.236,42.628,16.524,30.482,136.6,25.62,16.176,-142.813,-1.627,0.945,27.089,28.616,49.984,22.793,89.589,-122.241
0.04541269999981523,0.76,8.272,-104.677,-80.916,28.923,-6.59,29.716,47.126,39.42,40.442,37.331,20.318,40.058,96.012,46.684,17.02,25.84,131.853,25.082,19.746,-138.572,2.473,7.604,28.086,26.539,54.032,26.869,103.844,-124.168
0.04547709999997096,-3.339,-2.495,-116.355,-84.934,27.87,-12.219,62.474,44.005,35.282,36.303,29.609,18.761,33.87,81.571,39.978,10.856,16.081,121.987,17.372,15.115,-145.606,-3.677,-1.625,16.788,0.384,43.732,18.132,90.421,-127.63
0.0600243999997474,-4.36,-16.325,-121.362,-96.119,17.083,-17.33,95.199,34.227,35.247,36.266,27.53,18.229,32.3,84.051,35.839,11.357,14.015,120.328,19.916,12.026,-153.657,-8.284,-8.284,9.086,-0.641,38.053,16.065,78.547,-138.773
0.060090499999660096,1.792,-12.21,-112.532,-93.462,16.554,-7.066,80.247,42.39,41.359,40.329,34.675,18.211,38.415,91.652,38.877,16.469,23.223,134.04,25.019,15.088,-148.38,-5.202,-2.64,18.299,2.434,42.626,21.172,84.104,-135.56
0.07504399999970701,1.79,-7.587,-121.128,-88.758,24.222,-4.498,76.068,46.446,41.83,40.801,36.177,21.779,39.913,93.61,40.887,17.989,30.372,141.078,23.457,18.659,-145.158,0.951,-0.076,24.428,-5.765,46.682,21.663,83.507,-125.691
0.07510549999960858,-2.31,-5.53,-122.032,-92.255,26.759,-8.592,76.505,40.252,36.666,42.809,36.653,23.294,35.263,92.491,43.92,16.947,26.755,129.154,22.409,19.153,-152.697,1.462,-2.637,16.207,8.585,47.66,23.179,80.35,-124.54
0.09055219999982,2.303,-1.938,-105.004,-93.7,23.659,-6.021,45.177,42.261,34.067,43.791,38.666,20.197,34.203,88.813,44.901,17.442,25.192,125.439,24.948,17.085,-152.545,-1.613,-2.122,15.166,15.236,47.1,24.18,83.856,-126.977
0.09063079999987167,6.399,-6.035,-110.534,-88.483,24.148,-4.991,23.103,46.317,36.082,42.21,38.627,22.226,39.804,97.945,42.807,21.011,33.876,138.633,27.485,18.092,-146.757,0.95,-0.583,21.811,-5.271,46.54,20.57,82.747,-141.707
0.10509219999994457,-1.805,-12.177,-126.305,-92.493,25.66,-8.572,36.4,36.537,36.046,42.68,36.027,24.766,39.764,114.754,43.789,22.527,42.551,144.642,30.531,21.148,-150.708,4.535,-0.583,20.252,1.906,47.518,23.623,80.615,-155.398
0.10515889999987849,-12.561,-14.214,-122.08,-108.282,13.852,-18.297,69.151,20.106,24.74,34.953,28.819,17.056,29.991,115.151,39.647,17.381,46.607,142.961,28.964,18.053,-160.292,-2.642,-4.68,14.084,17.786,42.348,22.575,77.973,-136.8
0.12014049999970666,-14.598,-18.298,-121.446,-114.834,1.03,-31.087,74.717,8.303,15.493,20.573,19.568,10.891,26.375,109.913,29.361,13.265,48.097,145.38,20.738,8.813,-167.816,-12.885,-12.36,14.582,-5.286,35.133,9.744,66.112,-113.609
0.12020639999991545,-9.973,-18.28,-127.472,-101.399,9.738,-30.543,42.367,13.418,19.576,24.651,21.086,12.93,30.447,112.877,28.819,13.764,42.926,142.16,14.057,6.243,-172.259,-16.458,-14.397,12.006,-15.014,32.536,8.71,59.386,-121.692
0.13511809999999969,-5.352,-14.163,-123.246,-91.051,26.635,-20.267,27.468,26.724,24.167,33.336,25.675,13.429,28.879,106.616,34.938,13.75,35.199,133.309,15.58,9.311,-166.451,-13.88,-10.797,3.797,2.932,31.479,17.411,62.401,-141.551
0.15015889999995125,0.802,-9.528,-119.93,-88.318,44.495,-8.453,45.359,41.515,27.701,36.847,31.767,16.476,25.237,91.552,43.571,16.284,23.353,123.317,23.744,12.875,-156.39,-5.658,-5.143,-2.35,6.494,31.417,23.515,61.248,-170.961
0.15413429999989603,-1.248,-4.908,-117.249,-93.865,39.84,-8.445,68.88,39.424,33.821,41.933,38.395,25.168,33.409,96.584,47.626,21.391,24.866,128.317,31.405,16.961,-160.845,1.52,-1.04,9.948,-9.394,40.095,25.028,61.699,-156.446
0.16698449999967124,-6.882,4.319,-96.127,-80.963,45.436,-2.289,36.535,48.606,43.008,56.748,44.505,26.68,39.523,103.66,50.652,22.394,28.428,132.287,34.96,25.141,-164.782,6.129,4.597,16.086,23.403,46.715,35.249,81.618,-129.137
0.16705179999962638,-14.048,5.852,-98.08,-71.661,48.464,-1.774,4.223,56.242,39.892,50.543,38.312,18.457,35.385,100.482,49.577,20.835,23.276,129.593,32.364,21.017,-166.154,5.61,2.543,16.069,45.921,45.131,30.091,90.757,-126.959
0.18019890000005034,-16.083,-1.327,-130.257,-84.909,39.706,-9.457,9.342,46.964,32.167,39.222,32.126,14.34,25.616,88.086,49.015,15.691,10.958,118.193,23.622,10.237,-171.111,0.994,-4.12,16.053,17.186,39.963,21.864,77.859,-146.812
0.1802640999999312,-11.968,-4.911,-144.984,-98.144,36.08,-14.058,42.121,34.11,28.036,38.671,32.607,15.862,16.881,78.777,43.843,7.991,6.848,111.415,16.938,9.715,-172.989,-3.105,-5.652,15.525,-4.348,38.386,26.453,70.609,-152.3
0.19433759999992617,-6.321,-0.296,-128.957,-85.751,44.754,-11.995,62.571,32.026,26.984,37.095,33.599,13.285,18.401,82.796,40.725,8.495,8.378,113.353,19.995,12.779,-167.693,0.996,-1.548,17.559,17.685,42.959,29.5,80.272,-147.025
0.19440209999993385,-4.778,5.852,-118.582,-71.833,49.32,-6.348,35.868,37.63,28.494,40.644,37.664,15.321,25.042,86.3,51.443,17.196,7.858,113.752,27.66,14.815,-162.403,6.118,2.039,22.664,50.455,48.039,29.983,87.876,-140.218
0.2092608999996628,-5.797,7.896,-120.0,-74.322,44.147,0.831,16.365,43.74,34.101,51.874,44.798,24.015,31.165,82.627,57.539,22.814,12.46,117.736,31.218,20.436,-163.265,7.137,4.599,25.203,63.213,46.454,35.076,89.838,-127.782
0.22507379999979094,-2.718,8.912,-122.442,-69.125,43.078,6.466,6.614,50.868,43.8,55.921,49.876,27.064,39.843,88.18,54.408,25.353,21.67,128.889,33.749,25.539,-165.151,11.228,9.205,28.252,52.391,48.969,39.14,93.846,-129.191
0.225137999999788,1.383,8.903,-122.32,-62.396,46.109,5.947,-2.101,54.916,44.781,53.816,50.339,23.964,42.877,91.678,56.915,26.352,19.086,126.711,36.276,24.489,-165.498,14.803,9.708,32.834,33.896,54.555,37.563,93.24,-148.018
0.2393408999996609,-5.79,-6.475,-125.783,-89.998,36.329,-8.404,30.688,34.369,24.756,43.003,38.505,17.792,28.49,77.754,47.124,16.08,6.26,108.141,27.531,15.755,-173.017,1.98,-1.06,20.506,21.054,41.693,28.817,73.679,-159.14
0.23940730000003896,-19.105,-31.059,-144.101,-122.184,19.899,-27.863,63.445,7.182,7.825,24.517,20.536,6.503,15.653,69.479,25.048,0.694,0.106,99.836,9.573,1.394,-186.676,-16.977,-15.404,-6.667,12.836,15.011,12.394,47.478,-163.592
0.2543719999998757,-20.622,-40.25,-160.863,-120.012,19.367,-29.884,31.107,15.884,17.039,22.443,19.491,2.911,17.175,79.656,25.535,-0.331,5.229,106.396,3.928,-2.193,-190.076,-22.595,-19.999,-17.931,5.651,5.775,5.722,40.258,-176.748
0.25443749999976717,-13.942,-34.062,-154.554,-105.035,26.007,-17.047,-1.2,40.459,30.342,31.13,30.23,11.105,18.695,88.798,37.805,6.842,13.933,111.925,11.608,8.568,-182.201,-15.913,-15.368,-8.179,4.108,16.015,15.962,47.903,-182.207
0.26936109999996916,-13.416,-29.929,-146.715,-108.516,24.445,-13.956,0.85,40.418,26.726,30.075,29.687,12.631,21.75,92.808,33.157,10.421,19.554,115.4,15.183,13.682,-176.896,-11.286,-11.767,-2.023,7.178,21.635,19.532,47.855,-169.73
0.269420899999659,-14.939,-34.51,-154.253,-110.969,21.859,-22.651,-0.175,31.669,21.576,26.458,25.559,8.519,27.363,95.789,29.025,11.947,19.534,120.92,13.119,9.058,-177.231,-14.861,-15.853,-8.169,5.122,14.953,14.902,38.073,-167.511
0.28540720000000874,-12.363,-43.185,-161.271,-110.346,24.911,-25.19,-27.839,32.149,23.091,28.481,28.095,10.048,25.287,93.131,32.07,10.399,17.466,122.336,14.642,8.536,-176.029,-17.92,-18.911,-13.796,2.043,11.352,14.887,30.35,-182.712
0.2998327000000245,-6.715,-42.629,-156.499,-113.31,32.57,-16.968,-26.787,32.63,26.142,33.063,33.19,14.649,27.823,89.452,35.624,8.851,18.985,122.213,21.288,13.138,-168.169,-9.193,-13.257,-8.147,16.898,18.0,17.434,36.468,-182.53
0.2998990999999478,0.464,-29.266,-144.559,-101.413,39.198,-9.266,-2.169,38.232,35.337,46.863,41.354,20.269,40.091,94.998,46.859,19.089,23.065,126.702,31.0,20.298,-157.242,3.112,-4.022,2.62,37.885,30.278,23.564,54.362,-164.416
0.3144435999997768,5.587,-17.966,-133.656,-83.381,37.109,-5.159,30.62,44.854,45.548,55.525,48.485,26.909,43.637,103.1,54.497,29.828,26.115,131.186,37.629,28.474,-150.937,9.769,4.179,12.863,29.138,39.981,32.762,69.164,-158.616
0.31450449999965713,6.094,-9.752,-126.863,-84.322,36.048,-2.08,50.57,39.686,44.99,49.834,47.924,25.857,39.494,101.972,49.831,27.237,29.163,133.616,41.178,31.007,-147.712,15.907,12.371,21.56,10.154,47.114,37.852,82.415,-160.507
0.32941299999993134,7.112,3.066,-119.051,-85.263,47.795,3.046,18.244,41.696,38.798,49.272,47.876,20.196,37.918,93.673,53.368,25.16,26.572,132.97,42.161,29.952,-143.979,18.965,12.871,23.075,30.123,53.727,38.839,95.653,-143.44
0.32947029999968436,10.179,10.235,-108.686,-70.833,52.87,5.604,-14.05,49.851,33.636,51.272,49.365,19.151,31.732,86.407,60.999,29.746,20.398,131.813,39.045,30.434,-140.761,16.384,8.248,16.904,60.319,53.161,42.386,91.971,-120.755
0.34448299999985466,12.218,10.225,-102.43,-61.028,51.28,2.012,18.752,37.506,27.967,42.511,49.316,19.645,25.553,85.808,59.401,30.741,24.476,137.316,39.006,33.477,-135.497,18.417,9.264,17.4,48.988,53.107,42.856,83.17,-119.61
0.34842289999960485,11.181,16.362,-99.766,-58.918,62.5,0.473,51.521,24.66,25.89,41.957,52.34,22.186,29.114,89.309,64.465,32.759,30.087,138.204,44.603,35.493,-129.214,24.034,10.792,21.993,29.472,59.202,41.789,90.771,-131.274
0.3604536999996526,6.559,19.932,-100.178,-58.346,61.925,5.596,19.194,35.907,28.425,51.648,54.85,27.8,35.232,88.707,68.499,34.776,21.86,129.869,44.046,34.433,-124.986,20.424,7.195,16.848,34.053,57.606,44.821,98.365,-139.339
0.3605264999996507,2.454,13.252,-104.176,-62.899,40.346,7.127,-13.101,44.58,32.495,50.572,50.184,26.747,36.734,84.52,56.135,30.13,16.715,128.202,37.854,31.325,-125.373,13.743,5.651,11.708,23.26,49.351,41.702,89.045,-144.835
0.37458139999989726,1.427,1.968,-107.658,-74.619,37.744,-1.077,-15.649,38.388,32.463,42.837,44.498,19.548,31.062,83.923,48.906,23.44,18.748,127.049,35.254,24.121,-128.834,9.119,1.034,5.549,0.183,45.204,29.365,77.685,-151.863
0.37464829999998983,-4.21,-9.305,-112.162,-86.328,45.903,-10.297,0.76,31.689,21.672,35.622,36.257,12.869,20.272,79.741,47.321,17.269,8.995,113.602,27.022,11.289,-131.779,-0.624,-10.75,-11.363,17.089,34.4,21.139,72.485,-148.637
0.3895850999997492,-9.841,-11.344,-118.197,-80.094,34.586,-11.312,33.547,28.584,18.064,29.439,30.585,7.733,15.129,69.415,39.589,12.641,0.789,108.365,17.774,7.692,-128.574,-6.771,-11.251,-16.987,44.737,27.193,21.118,73.949,-132.607
0.4045542999997451,-1.634,1.475,-115.517,-61.058,33.527,-1.566,40.686,36.24,31.366,34.532,38.752,11.311,19.212,68.833,45.184,17.239,6.936,116.454,21.854,16.394,-120.248,-0.104,-2.019,-3.138,28.298,39.461,26.732,81.56,-124.79
0.4046140000000378,4.515,10.182,-106.18,-62.022,50.4,9.194,18.104,52.597,38.507,48.33,45.373,18.984,25.341,73.375,56.922,21.832,6.417,115.825,25.419,16.377,-113.98,3.994,-2.529,-1.085,4.192,45.057,31.316,83.527,-136.448
0.4215329999997266,-5.736,5.049,-101.463,-71.693,46.763,10.209,27.307,56.131,35.907,52.892,42.254,18.965,29.926,70.74,50.205,17.2,3.337,110.586,23.344,12.262,-110.28,2.965,-6.625,-8.257,15.458,38.865,30.26,81.395,-143.484
0.4215973000000304,-8.291,5.556,-101.874,-57.789,40.569,10.711,41.112,55.562,45.092,56.426,47.335,18.947,37.581,76.305,49.131,21.793,12.043,117.136,32.03,21.984,-106.584,9.623,0.554,0.973,33.373,47.023,30.742,90.023,-137.193
0.43467409999993833,1.963,11.698,-103.822,-51.072,56.922,15.824,21.091,64.728,53.244,63.029,54.972,23.538,43.179,85.962,63.938,32.53,15.104,124.703,39.17,27.085,-100.842,15.248,5.677,11.731,33.852,55.685,36.347,96.592,-131.932
0.4347392999998192,2.986,5.539,-109.353,-69.976,61.476,12.222,20.046,61.59,43.457,57.843,48.769,21.466,39.037,80.241,60.801,27.374,9.454,122.017,32.983,18.349,-97.155,11.135,-0.477,5.059,25.109,48.969,36.823,90.348,-129.751
0.44964389999995547,-2.14,-1.126,-108.219,-71.955,47.582,2.988,41.03,45.134,33.68,48.564,46.159,16.321,32.338,75.038,50.494,19.662,13.031,117.796,33.975,19.355,-93.471,12.66,-0.989,1.98,19.449,48.92,34.737,89.746,-124.498
0.4497030999996241,1.96,5.022,-90.692,-54.465,45.485,7.083,28.694,44.577,37.745,50.564,51.236,20.915,34.355,84.184,56.591,26.303,15.579,122.802,40.601,28.045,-86.718,17.771,6.185,7.101,31.212,52.457,39.313,97.34,-113.103
0.465169799999785,8.106,12.19,-63.449,-51.849,49.026,12.712,2.537,50.68,39.756,54.1,51.697,25.505,37.907,85.125,60.633,28.326,13.514,129.851,35.95,25.967,-83.557,13.142,4.642,4.02,51.161,46.77,40.298,99.805,-91.985
0.46522959999992963,7.586,13.202,-42.894,-50.772,48.977,8.6,-6.687,49.092,36.13,53.534,51.133,21.894,35.307,81.453,53.912,22.662,15.038,127.16,32.84,22.355,-86.547,8.518,0.539,4.016,54.184,48.26,36.671,106.877,-67.303
0.4817020999998931,3.48,19.849,-18.772,-35.352,51.49,10.641,-3.094,53.142,39.68,57.066,53.643,19.31,37.321,83.421,51.809,24.689,9.387,119.348,38.442,22.845,-83.387,14.145,8.223,16.307,43.371,56.921,40.733,127.263,-36.497
0.4817708999999013,2.451,32.124,14.034,-17.899,50.926,18.827,29.697,59.749,45.276,62.132,54.102,22.877,41.382,76.165,56.368,25.176,0.669,115.642,35.33,22.31,-78.181,17.205,11.801,22.439,34.106,57.376,43.766,140.455,-3.673
0.49479129999963334,10.646,40.802,46.808,4.661,50.875,22.907,62.455,64.3,46.768,63.095,56.097,24.391,40.829,64.819,60.41,20.028,0.668,110.916,27.098,22.288,-79.639,10.015,3.079,16.781,26.9,54.245,41.673,139.29,29.119
0.49486109999998007,18.832,53.568,71.352,28.735,61.07,32.618,47.023,79.605,56.967,69.692,62.189,24.879,45.399,68.34,61.374,23.594,1.692,109.268,31.682,24.827,-73.412,11.03,2.564,20.35,26.873,59.826,48.804,145.811,27.553
0.509669600000052,19.326,66.835,84.6,31.268,63.571,44.368,25.972,96.944,69.718,82.942,68.786,28.953,54.575,75.956,63.362,31.767,3.227,115.819,40.871,29.413,-60.531,22.29,9.734,32.113,35.555,68.988,56.44,156.424,30.087
0.5097351999997954,17.769,63.182,82.979,17.404,54.798,39.201,58.733,91.211,62.988,80.81,67.693,29.948,53.495,75.368,64.323,29.686,6.81,115.703,38.781,31.433,-61.495,21.755,5.626,26.446,37.569,66.869,50.748,147.046,41.327
0.5247285999998894,15.702,49.286,50.62,6.116,49.62,26.866,69.433,73.189,46.019,63.31,56.355,22.746,43.196,71.706,55.55,22.484,3.217,105.854,29.521,25.254,-67.581,9.438,-3.089,9.513,29.847,53.995,43.525,128.968,9.011
0.524788400000034,13.637,45.651,18.294,-1.063,48.033,25.303,37.088,66.456,42.899,58.636,49.638,17.6,38.03,70.61,49.347,18.876,1.165,106.26,28.979,19.593,-63.415,8.404,-1.037,13.09,26.743,48.306,41.944,125.253,-23.274
0.541186899999957,16.698,47.142,16.739,-5.16,47.985,30.913,29.879,72.537,49.004,67.799,56.761,23.218,43.627,75.15,54.933,21.931,11.41,117.937,36.122,25.209,-56.692,16.08,5.112,31.52,27.741,55.942,42.415,126.152,-9.418
0.5412513999999646,22.829,42.997,7.501,-8.229,54.085,32.419,50.854,76.051,52.029,68.756,61.827,28.318,48.194,85.321,61.025,27.544,21.132,127.04,40.697,30.307,-51.0,18.626,8.693,35.074,26.176,59.984,46.471,125.001,-4.798
0.5551583999999821,21.269,40.904,-18.634,-13.344,56.593,28.288,31.847,74.438,55.05,68.687,63.302,28.29,48.658,93.945,62.501,29.566,26.234,132.549,45.267,31.813,-45.313,22.705,11.758,31.453,25.126,61.461,48.986,127.438,-37.069
0.5552217999997993,17.662,41.888,-33.985,-15.892,54.487,27.235,5.688,78.462,57.557,73.742,66.313,30.823,52.196,93.339,65.0,31.073,29.282,134.978,50.857,36.392,-44.243,29.855,14.308,34.495,28.687,66.523,47.4,123.724,-63.671
0.5697860999998738,15.595,38.772,-46.246,-20.487,55.969,29.257,20.027,78.896,55.45,71.619,63.685,31.817,54.705,86.073,62.886,33.091,22.592,131.257,49.27,35.844,-46.761,28.288,13.269,33.949,32.244,64.919,46.328,112.33,-53.362
0.5698468000000503,11.993,30.024,-63.106,-31.737,52.839,26.666,37.937,69.083,49.247,67.449,56.449,23.588,48.503,79.839,60.262,26.911,14.373,126.515,39.486,26.586,-47.739,20.063,8.133,26.742,28.626,57.682,41.671,109.656,-63.042
0.5848031999998966,6.858,20.26,-72.265,-39.902,44.077,19.979,29.703,65.428,45.099,64.82,52.806,17.929,42.306,81.297,59.689,19.711,16.92,123.827,34.324,19.387,-49.228,11.846,3.514,25.179,19.376,51.989,35.994,107.497,-86.545
0.5848591999997552,2.752,11.019,-74.242,-48.059,41.472,11.762,32.747,66.387,42.493,56.558,47.118,18.423,40.215,84.801,52.969,19.179,18.44,124.727,34.29,16.294,-51.228,6.199,2.486,25.154,17.307,43.228,31.347,94.069,-90.045
0.601364999999987,0.701,1.274,-77.241,-60.819,38.869,2.017,65.502,56.587,37.839,48.304,38.362,14.306,34.027,82.155,44.719,17.623,10.225,122.041,31.181,12.179,-50.152,1.582,-1.103,17.444,28.048,33.963,24.656,83.217,-92.516
0.6148478000000068,0.7,-4.875,-85.361,-64.344,28.071,-3.621,80.805,48.846,35.24,46.207,33.713,9.681,26.821,72.851,41.089,11.458,3.042,113.21,23.978,7.556,-48.052,-7.641,-11.348,4.619,31.606,27.782,18.483,76.986,-114.453
0.6149110999999721,-4.936,-5.383,-98.083,-58.132,22.92,-1.568,48.449,56.481,38.279,45.136,31.118,9.672,25.769,67.655,34.9,6.836,2.014,107.974,16.269,2.426,-48.517,-13.781,-17.485,-4.608,17.23,24.168,18.465,70.761,-134.319
0.6298194999999396,-12.104,-4.865,-101.571,-56.537,31.094,5.606,16.125,67.183,41.826,50.214,34.673,11.711,29.842,72.711,32.303,8.366,6.623,110.427,14.716,1.911,-44.37,-8.132,-13.881,-4.603,12.602,28.242,18.446,77.863,-127.524
0.6298790999999255,-8.505,-2.299,-97.883,-58.53,41.822,9.699,2.277,71.215,45.371,57.336,41.81,14.773,37.497,81.347,43.03,16.554,14.301,116.464,20.337,9.594,-33.055,-1.976,-11.305,3.599,17.2,35.898,20.477,88.031,-107.929
0.6448433999998997,-4.911,-2.809,-97.786,-61.545,42.804,5.591,13.033,62.434,44.813,52.668,39.207,15.271,38.996,82.803,50.159,19.099,16.336,117.372,20.829,11.633,-28.411,-5.56,-14.368,7.181,-1.26,34.325,24.043,76.672,-108.333
0.6448993999997583,-11.566,-10.49,-98.712,-67.119,32.515,-2.099,39.148,44.953,34.01,43.906,33.532,10.645,31.272,77.085,39.863,11.908,13.246,111.62,13.123,3.425,-31.456,-11.703,-19.989,-3.584,-20.214,23.533,18.384,55.079,-127.693
0.6598721999998816,-14.116,-13.554,-101.175,-67.052,24.798,-3.122,40.133,38.248,27.828,46.424,35.036,8.585,29.192,75.471,34.187,8.822,9.647,109.459,11.061,0.348,-25.789,-16.814,-25.092,-13.315,-0.726,16.337,12.217,51.95,-139.86
0.6638472999998157,-9.491,-7.392,-106.709,-58.788,33.483,4.054,10.892,49.993,35.997,55.087,39.099,11.65,37.872,80.006,43.375,12.912,10.661,115.497,15.661,3.933,-13.981,-17.822,-25.067,-9.203,15.156,19.907,20.402,63.681,-140.233
0.6758773999999903,-13.58,-4.311,-110.701,-56.167,37.548,9.685,2.171,58.14,41.084,59.13,37.011,8.565,37.322,80.438,44.356,12.387,10.139,117.431,13.596,1.88,-10.893,-13.706,-20.431,-1.509,0.796,29.108,25.505,70.79,-137.019
0.6759488999996393,-21.763,-7.381,-115.714,-63.284,22.141,1.478,-3.978,51.422,32.334,52.411,27.24,-2.202,23.965,71.136,30.479,5.714,-0.118,110.141,8.971,-7.343,-15.493,-15.229,-19.898,-2.532,-1.254,29.079,18.307,69.694,-134.32
0.6899018999997679,-18.668,-5.836,-114.061,-67.319,12.385,-9.282,-23.442,43.686,23.08,42.112,17.991,-5.786,16.768,62.356,27.887,-0.439,-9.852,102.859,8.962,-10.41,-10.866,-19.312,-21.928,-2.53,14.629,23.415,16.752,70.649,-129.575
0.6899728999997023,-7.89,0.829,-93.455,-63.153,22.619,-4.662,0.66,43.642,24.594,43.095,23.096,3.441,20.85,66.392,38.618,2.123,0.917,108.391,15.613,-3.227,6.563,-11.608,-13.709,6.182,16.151,28.514,22.37,76.214,-118.175
0.7050699999999779,-1.223,5.439,-84.652,-59.504,30.281,5.077,30.373,48.209,33.791,52.786,33.319,11.634,29.026,77.596,41.653,16.465,14.748,122.627,27.893,8.047,20.901,0.187,-1.4,12.836,18.184,39.244,28.496,79.212,-113.958
0.7051366999999118,-3.783,11.582,-100.961,-52.272,31.275,10.195,11.387,56.358,41.442,60.417,37.384,12.647,38.731,78.543,44.685,24.133,10.635,127.116,35.038,14.187,27.54,5.822,-1.911,10.774,34.56,42.791,34.615,87.842,-128.189
0.7200247999999192,-5.828,21.816,-101.885,-39.924,35.342,18.894,24.183,60.912,41.913,68.042,42.982,15.196,43.303,75.391,54.374,21.035,5.501,116.742,33.466,16.222,38.783,9.914,-3.958,13.325,38.112,46.335,37.142,99.537,-131.647
0.723761100000047,-1.212,23.844,-87.951,-43.47,32.233,17.85,53.873,51.63,36.748,67.461,43.964,13.644,37.624,77.877,51.758,19.99,4.983,110.99,30.358,14.669,46.429,8.368,-0.88,20.484,19.63,47.825,35.055,94.826,-107.949
0.7350655999998708,-4.284,9.475,-94.01,-62.895,18.881,1.951,21.544,40.82,28.514,53.049,31.625,2.872,29.39,72.164,37.362,15.359,-3.218,104.219,20.594,3.383,41.26,-5.473,-9.589,11.754,8.34,39.58,30.41,77.313,-102.206
0.7351274999996349,-10.94,1.781,-106.212,-63.344,17.325,0.412,4.104,46.414,30.022,49.41,25.958,0.82,27.311,57.235,33.739,4.585,-10.9,91.82,9.815,-4.305,43.78,-13.664,-19.313,-4.139,16.529,31.344,26.281,70.576,-131.305
0.7500499999996464,-4.269,13.05,-102.519,-41.764,24.992,13.219,36.887,59.176,43.312,61.144,34.641,8.504,32.407,57.69,39.852,7.142,-7.303,92.24,11.855,0.823,58.081,-8.528,-12.121,-1.061,16.512,32.337,29.328,77.678,-139.371
0.765024799999992,0.858,14.062,-97.806,-39.161,22.406,10.132,38.388,59.629,46.855,59.033,31.532,6.446,33.399,68.903,36.739,12.77,-6.271,102.906,14.404,-0.203,61.609,-8.007,-11.597,3.55,2.151,33.329,30.324,76.575,-120.276
0.7650845999996818,-14.0,-5.42,-104.881,-61.663,12.649,-2.685,6.074,48.811,32.976,43.093,16.644,-2.782,24.656,67.297,27.481,4.048,-9.338,100.242,5.681,-10.449,59.498,-19.27,-25.418,-13.872,1.636,23.05,17.486,63.179,-127.328
0.7651272999996763,-21.67,-13.099,-118.608,-70.823,6.489,-2.17,-0.08,49.787,29.869,44.074,17.14,-0.73,24.119,63.131,23.867,-0.054,-4.206,100.654,7.724,-6.852,68.66,-18.738,-23.343,-20.005,8.807,16.367,13.37,60.042,-150.254
0.7800539999998364,-7.304,-2.328,-121.563,-61.018,9.044,8.078,2.994,66.643,44.184,62.473,30.443,8.492,38.952,70.241,30.503,10.704,5.532,116.947,22.061,6.475,83.961,-2.326,-8.975,-1.03,4.7,30.695,27.701,75.863,-144.469
0.7958233999997901,2.95,0.236,-108.122,-61.469,21.843,11.656,23.483,64.527,46.189,67.021,35.023,11.558,45.573,74.269,39.182,15.817,6.551,118.879,24.601,6.98,93.098,3.312,-7.941,6.143,10.843,43.472,32.284,80.91,-127.418
0.7958883999999671,-5.763,-8.473,-101.866,-74.216,23.87,1.398,56.247,37.823,27.7,50.561,26.279,1.812,30.671,70.096,32.483,8.629,-1.652,103.391,13.817,-1.224,95.054,-6.425,-14.593,-4.621,21.59,31.646,24.055,68.022,-123.705
0.8101956999998947,-17.028,-12.051,-109.449,-78.752,8.477,-6.8,34.674,30.612,19.475,39.752,17.031,-6.899,16.295,65.928,21.692,-1.114,-7.286,101.751,6.631,-6.345,95.472,-11.542,-19.19,-9.74,11.835,22.392,20.957,66.929,-122.556
0.8102611999997862,-15.986,-8.965,-111.901,-70.476,7.444,-1.67,6.463,47.488,29.189,46.372,19.063,-0.232,21.915,66.886,28.842,-3.162,-5.23,105.235,7.137,-5.314,103.573,-9.993,-21.22,-11.267,8.749,30.567,21.448,80.182,-127.557
0.8251811000000089,-8.285,-6.395,-110.764,-62.721,23.83,2.43,31.559,48.465,35.308,53.498,27.753,6.428,32.651,69.893,39.06,6.063,-2.151,100.519,14.814,-0.186,117.814,-6.909,-16.075,-9.719,20.011,33.61,26.038,78.565,-137.163
0.8252486999999746,-6.74,-1.265,-111.166,-60.609,28.93,4.989,20.769,44.83,35.273,59.08,32.848,4.885,36.205,73.409,37.996,14.766,2.462,109.128,25.046,5.45,127.43,1.807,-9.912,0.025,14.868,33.577,33.184,68.753,-128.829
0.83919429999969,-4.684,3.859,-102.345,-62.086,24.802,14.718,-11.527,61.692,44.459,68.754,37.939,11.54,41.804,76.922,43.081,16.288,8.608,122.339,31.681,12.616,138.061,12.051,-4.779,6.172,10.755,43.277,34.175,74.832,-118.454
0.839250600000014,1.98,-0.243,-100.194,-64.073,26.827,14.703,11.538,67.265,46.464,66.124,37.901,15.115,41.762,73.771,47.649,14.735,5.525,113.507,30.624,13.628,145.095,12.039,0.349,3.605,20.99,45.795,32.604,82.954,-131.143
0.8549881999997524,-5.194,-8.952,-116.487,-67.083,22.189,-1.705,44.315,45.681,31.048,50.689,23.518,-0.782,24.814,63.452,33.256,8.06,-7.288,98.537,16.249,-0.218,138.29,-0.268,-8.36,-5.62,13.285,33.966,28.473,72.625,-143.308
0.8550618999997823,-23.632,-12.017,-122.519,-70.089,13.458,-6.314,43.246,36.926,25.894,44.49,13.761,-9.49,17.105,56.728,21.952,-2.194,-13.428,93.828,1.376,-14.05,135.078,-12.051,-24.233,-20.984,-2.61,24.198,18.198,56.158,-141.115
0.8692842999998902,-27.194,-7.907,-110.613,-72.069,13.957,2.401,21.173,53.796,37.651,52.643,20.919,-0.772,27.334,55.647,28.078,-2.192,-14.44,90.66,0.35,-13.523,143.652,-16.65,-24.209,-29.16,3.54,21.1,14.082,55.077,-149.171
0.8693516999996973,-22.044,-4.313,-113.576,-73.021,14.455,4.448,9.369,60.402,40.175,57.201,22.435,-0.258,29.356,56.103,28.562,2.421,-16.987,89.032,-2.212,-11.973,147.095,-19.707,-23.16,-28.619,5.074,20.567,17.142,62.195,-158.243
0.884240299999874,-23.559,-7.382,-122.684,-73.973,11.367,-1.192,27.803,44.46,28.864,47.922,14.728,-7.943,20.617,61.17,21.361,-1.68,-14.92,90.993,-7.333,-15.035,146.948,-25.835,-31.334,-29.615,-14.912,20.034,15.588,63.157,-138.617
0.884299800000008,-21.486,-6.862,-108.729,-69.288,16.991,-5.802,48.779,34.169,23.2,41.214,16.763,-6.398,20.596,67.769,24.926,-0.141,-7.733,94.488,3.433,-8.36,157.047,-19.661,-25.155,-22.413,-21.557,24.113,16.597,64.631,-116.449
0.8992729999999938,-13.78,5.952,-96.325,-61.534,24.146,-0.673,16.455,46.943,29.324,49.882,26.48,0.268,25.699,66.165,34.123,10.617,-5.164,102.59,18.287,2.919,169.185,-2.223,-10.785,-11.119,2.031,36.384,25.801,75.325,-128.116
0.8993295999998736,-15.815,7.483,-113.135,-64.546,18.486,6.5,-13.787,55.093,32.369,53.419,23.892,-1.269,23.624,59.438,30.503,7.533,-11.307,100.951,11.608,0.355,167.479,-4.27,-15.898,-19.305,14.324,37.372,26.8,76.274,-146.431
0.9161283999997067,-29.12,-13.529,-131.465,-81.388,3.099,-5.802,9.28,36.082,21.578,39.021,11.06,-9.464,14.379,50.67,16.127,-6.307,-21.029,84.968,-3.773,-14.502,156.553,-24.246,-31.251,-35.167,-12.842,18.892,14.99,58.267,-150.383
0.9161933999998837,-34.214,-21.712,-129.796,-90.528,-2.54,-16.042,7.734,28.874,18.483,36.42,11.562,-9.967,12.315,48.57,12.525,-5.788,-19.471,82.322,-1.72,-17.049,155.884,-25.246,-31.22,-33.595,-25.125,12.725,10.877,51.549,-156.38
0.9297725999999784,-16.249,-2.735,-115.322,-75.581,11.295,3.442,-23.012,53.948,37.932,55.851,25.895,1.313,26.647,60.304,26.345,8.05,-4.595,99.145,11.602,-3.712,172.122,-7.29,-16.844,-21.779,7.688,28.594,22.649,72.502,-151.613
0.9298392999999123,-1.375,4.44,-103.936,-59.624,24.091,15.734,7.749,66.19,50.189,64.505,29.967,4.386,34.818,70.49,32.466,13.165,1.045,106.731,14.664,2.951,180.147,-5.746,-9.142,-19.708,25.611,34.713,27.237,82.675,-125.334
0.9443883999997524,-16.231,-11.958,-109.98,-68.273,13.309,1.886,40.529,44.094,36.307,52.145,18.666,-4.84,24.537,64.784,19.114,6.492,-8.177,96.89,5.941,-5.761,170.233,-17.011,-17.843,-26.348,-4.128,25.457,18.501,60.563,-122.135
0.9593929999996362,-31.584,-23.217,-128.825,-86.136,-2.074,-6.825,19.997,28.681,25.0,42.871,11.988,-7.397,17.34,58.572,11.41,2.387,-12.78,88.597,0.299,-9.853,166.477,-17.507,-25.509,-30.42,-21.03,22.87,15.921,42.06,-148.14
0.9594508999998652,-22.843,-23.194,-132.282,-89.123,-0.535,-6.306,-12.299,35.312,27.024,42.316,14.025,-6.365,18.859,58.001,19.596,3.921,-11.743,90.045,2.348,-7.794,167.847,-14.415,-22.922,-30.39,-12.3,22.335,20.003,46.629,-156.701
0.9744080000000395,-16.673,-20.609,-121.392,-78.276,1.515,-8.861,-7.163,40.4,24.435,40.737,11.962,-10.457,15.254,53.844,22.138,1.356,-15.317,94.053,1.834,-9.323,161.019,-18.499,-22.899,-33.433,-17.411,15.14,16.909,56.316,-148.348
0.9785241999998107,-25.365,-10.855,-116.147,-64.878,-1.56,-7.828,21.021,36.773,21.849,39.671,7.851,-10.446,12.678,50.717,15.455,-1.207,-16.326,90.885,-1.242,-12.388,155.223,-19.505,-25.438,-35.449,-22.516,15.637,15.868,62.919,-144.101
0.9901254999999765,-20.729,-6.233,-114.494,-61.226,6.638,-4.746,15.364,36.224,24.901,44.755,12.454,-3.776,15.739,56.814,18.002,5.454,-11.699,87.208,2.858,-8.789,152.506,-13.338,-21.826,-30.29,-11.223,22.794,20.463,57.733,-137.809
0.9901929999996355,-4.314,-16.985,-114.892,-72.948,17.902,-4.742,-7.705,38.237,24.364,50.345,19.614,0.326,19.309,66.491,29.254,13.646,-7.077,94.806,13.101,0.953,152.354,-5.128,-16.169,-25.137,-6.089,25.845,23.004,40.257,-134.085
1.00461789999963,-3.798,-21.579,-117.851,-81.585,11.737,-2.688,3.573,38.199,26.901,51.32,24.205,3.912,25.438,70.523,29.225,15.169,-5.533,102.396,18.211,5.563,161.935,2.562,-11.03,-23.575,-11.718,30.43,25.542,35.606,-138.562
1.0046853999997438,-17.626,-13.873,-109.536,-69.72,1.479,-4.734,22.013,38.673,33.534,49.219,23.669,3.396,27.974,65.329,22.536,14.129,-6.039,97.682,15.119,-0.078,166.896,2.559,-9.994,-20.99,-7.608,33.473,25.517,48.378,-144.571
1.0195569999996223,-21.707,-11.81,-102.767,-54.793,6.088,-5.242,-6.186,43.245,32.476,47.633,17.497,-3.267,22.31,54.505,22.001,9.504,-12.181,89.388,7.419,-6.738,156.483,-8.202,-17.669,-24.043,2.646,23.706,15.245,51.404,-155.185
1.0196246000000428,-16.05,-14.872,-118.545,-55.763,12.742,-0.626,-16.938,47.3,28.345,47.073,15.431,-5.313,18.19,46.766,22.491,3.347,-20.366,83.151,-0.273,-7.756,151.204,-17.927,-24.824,-34.777,0.082,10.874,11.132,43.668,-157.591
1.0345409999999902,-17.571,-15.369,-127.648,-64.417,13.242,-2.162,15.866,41.105,29.854,45.489,18.489,-1.21,19.708,45.183,20.932,3.856,-21.37,78.969,-2.834,-9.797,154.126,-20.471,-26.336,-41.402,-9.652,6.765,16.243,35.939,-138.991
1.038532199999736,-25.75,-15.354,-110.615,-66.401,14.253,-6.258,33.269,33.38,28.799,41.857,16.934,-3.77,19.689,48.211,20.399,6.926,-18.787,81.452,-2.831,-11.324,160.12,-19.938,-28.359,-40.336,-12.204,5.734,15.203,30.78,-132.704
1.0514550999996573,-25.212,-10.728,-101.795,-59.163,11.165,-2.154,0.96,42.056,28.258,38.742,12.818,-8.377,16.595,56.36,20.378,6.407,-17.231,85.469,-2.829,-9.264,170.718,-18.894,-26.281,-36.71,-15.778,7.265,13.65,37.41,-146.403
1.051521099999718,-14.941,-5.594,-110.402,-52.956,3.981,-2.151,-6.213,51.747,31.304,37.678,13.318,-8.368,14.017,60.914,20.358,5.888,-15.165,82.822,-1.289,-10.791,175.671,-17.338,-22.669,-35.649,-29.595,13.405,18.76,48.643,-146.257
1.0645643999996537,-16.975,-10.199,-110.292,-59.563,5.514,-9.834,1.99,42.474,23.588,32.517,10.231,-9.897,11.954,54.706,18.288,4.345,-16.687,77.103,-0.263,-15.904,169.347,-14.759,-25.72,-34.588,-30.59,14.929,19.253,48.594,-137.914
1.0646311000000424,-27.717,-11.214,-104.034,-68.725,10.632,-9.312,-30.287,34.747,15.88,29.923,7.147,-10.912,10.405,51.577,16.221,1.267,-19.232,80.1,1.274,-13.839,167.641,-11.158,-22.62,-26.357,-12.628,16.963,17.185,51.107,-135.214
1.0795409999996082,-19.492,-0.444,-100.344,-61.996,14.207,-2.642,-23.085,43.421,25.085,39.627,13.287,-5.265,15.518,58.698,21.84,6.901,-13.577,89.754,6.908,-7.165,173.621,-8.073,-11.327,-18.133,0.192,25.143,20.754,60.79,-123.296
1.0796192999996492,-7.177,3.655,-94.608,-53.225,21.366,-0.078,9.726,43.89,32.233,45.223,21.983,-1.162,24.724,65.299,31.04,15.603,-4.854,92.738,12.025,-3.059,176.521,-5.503,-9.778,-21.189,9.413,29.729,25.344,59.705,-118.562
1.094524999999976,-16.392,3.139,-95.026,-55.221,28.004,0.434,9.204,36.162,27.59,40.567,22.986,0.889,24.699,64.209,34.595,18.662,-2.8,91.108,15.599,1.042,176.857,-0.887,-11.306,-21.168,21.187,29.699,29.929,58.108,-130.227
1.0984991999998783,-19.449,10.308,-100.566,-51.58,27.464,5.557,-23.08,46.884,28.587,47.187,25.524,7.035,25.186,64.657,37.122,26.328,0.277,97.677,23.78,9.238,177.193,6.798,-2.073,-12.438,14.506,35.817,36.047,68.296,-125.486
1.1104590999998436,-8.671,9.785,-93.293,-43.843,24.363,12.724,-18.447,58.62,35.73,57.898,31.134,11.127,33.87,70.228,41.695,33.986,3.35,103.215,25.805,9.741,173.429,7.304,-1.558,-12.937,-4.464,36.806,31.4,64.129,-111.015
1.110523099999682,-17.884,-2.52,-81.417,-51.996,20.752,9.125,11.286,47.803,33.133,49.643,28.541,6.505,31.275,68.621,36.531,24.73,-1.776,94.915,13.997,-0.515,163.01,-4.999,-14.877,-24.195,-7.534,24.986,21.635,45.11,-117.052
1.1246256999997968,-31.698,-7.64,-86.458,-60.141,16.121,-1.643,-19.976,39.046,26.952,40.884,18.779,-0.162,19.461,58.306,26.76,14.972,-11.508,81.5,5.273,-6.149,154.65,-12.678,-17.936,-29.294,0.159,18.813,21.613,44.552,-126.669
1.1246868999996877,-23.982,-5.583,-101.229,-59.057,13.031,-3.178,-26.104,42.593,26.925,43.917,16.711,-2.723,19.441,50.051,24.684,18.543,-16.62,75.271,4.756,-6.656,154.495,-10.617,-14.332,-29.777,-2.403,21.356,22.616,53.729,-133.715
1.1546467999996821,-19.86,-10.189,-102.664,-65.658,11.993,-0.101,6.71,41.014,28.948,43.361,18.231,-3.745,20.446,45.39,24.659,16.475,-16.603,75.195,-0.884,-12.797,150.754,-17.266,-22.002,-32.309,-15.721,14.162,18.495,48.04,-144.339
1.154711099999986,-29.061,-11.715,-89.754,-67.641,13.518,-1.638,28.732,41.485,27.894,42.293,16.676,-5.278,17.352,48.931,19.512,11.848,-12.488,78.706,-4.982,-17.395,141.894,-22.884,-27.103,-33.301,-23.39,8.0,20.526,39.795,-131.387
1.154766699999982,-28.008,-4.531,-83.004,-52.204,14.529,1.95,-3.572,51.69,28.378,46.349,20.246,-3.736,21.433,63.227,18.98,20.545,-7.865,82.726,5.269,-8.668,139.703,-9.541,-16.318,-28.657,-11.071,16.189,24.604,41.292,-108.714
1.1705199999996694,-18.758,-1.453,-92.655,-49.591,12.978,6.559,-26.622,53.687,28.862,45.278,23.299,-1.17,20.387,64.188,21.522,25.136,-9.394,80.594,13.973,-3.024,140.588,-0.822,-9.641,-21.969,7.383,20.784,23.043,45.862,-123.463
1.170584399999825,-19.764,-7.599,-101.272,-63.886,10.915,-1.133,-10.714,44.924,21.149,39.597,16.616,-3.731,10.633,45.681,20.476,18.45,-16.557,78.977,7.811,-9.169,132.251,-11.068,-17.316,-23.483,8.913,15.64,22.507,47.353,-146.905
1.185839699999633,-25.38,-9.129,-98.609,-63.309,11.417,-4.205,-15.826,43.855,17.542,38.021,13.525,-5.776,11.647,42.049,21.993,19.457,-20.639,81.972,2.168,-11.209,125.458,-14.643,-23.447,-31.657,0.707,15.112,22.997,44.232,-131.901
1.1859052999998312,-22.28,-0.922,-92.363,-53.0,13.967,5.02,-38.352,47.909,24.184,40.032,20.172,-0.648,18.808,57.376,25.557,25.585,-12.934,84.451,9.338,-4.537,129.431,-6.944,-16.763,-29.064,-0.318,19.708,25.536,43.675,-107.179
1.199730499999987,-13.036,3.689,-83.561,-52.947,17.027,9.114,-22.432,49.398,29.795,48.189,24.762,4.989,21.863,64.491,32.191,29.145,-1.65,90.514,21.624,2.639,133.4,-1.301,-6.5,-15.715,4.293,26.86,34.219,50.804,-103.998
1.199794699999984,-7.9,1.636,-74.768,-54.431,18.034,6.543,10.378,51.911,32.327,55.313,28.836,6.52,27.476,63.402,37.795,35.776,-1.136,97.596,25.189,8.784,127.632,5.36,-3.42,-13.137,8.899,36.055,37.771,55.364,-109.529
1.2147860000000037,-11.991,3.172,-75.718,-54.889,18.016,9.098,-1.415,53.908,35.369,52.184,30.857,4.465,28.473,64.363,30.584,37.277,-4.209,93.4,19.528,8.263,120.844,7.404,-7.003,-17.223,3.767,37.556,33.635,51.21,-114.03
1.2297615999996196,-15.565,6.755,-80.253,-56.371,15.437,11.651,-17.808,52.829,34.309,49.57,26.215,2.923,22.809,64.811,21.845,31.092,-1.131,87.159,15.923,2.107,117.137,-0.288,-9.045,-13.619,-9.044,30.346,31.552,45.523,-118.527
1.2337554999999156,-8.89,3.162,-81.71,-54.265,12.86,8.565,12.948,50.215,32.225,53.619,25.676,3.945,24.324,64.746,29.507,32.086,-2.154,88.609,16.419,0.568,111.384,-2.337,-6.987,-12.581,-5.449,28.266,30.496,41.379,-118.409
1.2598189000000275,-2.221,-3.501,-84.19,-55.236,14.896,9.069,10.374,50.165,33.217,52.029,28.725,4.453,25.836,62.12,33.576,34.615,-7.275,83.909,15.378,1.08,104.613,-0.285,-8.004,-18.204,8.389,27.726,28.416,36.727,-114.704
1.2748592999996617,-9.391,-4.523,-88.716,-60.303,16.93,11.109,-21.912,55.238,29.598,46.341,25.11,2.4,20.175,56.935,22.272,28.945,-7.268,76.653,12.801,-2.507,101.947,-4.896,-13.119,-18.186,3.257,24.624,29.412,35.666,-113.565
1.2749297999998817,-16.554,-0.932,-89.652,-59.218,14.864,3.926,-7.545,55.182,23.933,46.295,23.548,3.422,18.106,58.927,19.688,27.38,-5.211,80.675,12.276,-3.017,97.747,-5.403,-12.594,-13.557,-2.381,25.112,30.408,39.216,-119.599
1.274971999999707,-7.316,1.631,-88.026,-55.573,18.948,0.848,25.25,48.467,26.983,49.835,29.672,8.029,22.698,63.479,29.402,33.5,-4.181,86.23,16.875,1.597,93.038,3.311,-4.897,-9.445,14.015,31.235,31.914,41.226,-125.115
1.275011899999754,-4.747,5.727,-82.814,-52.444,27.638,13.142,-3.977,53.542,33.616,52.346,33.741,10.07,27.286,60.342,33.984,37.053,-1.103,87.68,25.055,8.255,91.92,9.456,0.231,-1.238,19.636,37.863,38.542,41.185,-110.133
1.2898311999997532,-18.574,8.283,-77.096,-51.879,22.487,15.179,-36.248,62.198,30.509,52.806,30.633,7.499,27.771,56.183,30.876,36.503,-2.127,87.08,24.005,8.759,86.705,7.397,-4.38,-0.213,-3.437,35.776,39.528,40.119,-92.092
1.2898998999999094,-18.043,1.103,-78.044,-65.659,13.756,-1.231,-3.424,46.766,19.72,45.581,23.43,0.319,20.059,56.127,25.722,30.319,-8.785,81.358,8.612,-0.983,75.348,-4.393,-14.109,-15.582,-18.291,22.933,31.292,30.858,-103.783
1.306270599999607,1.955,-0.435,-82.577,-72.254,22.964,-1.229,27.83,33.912,18.163,41.437,26.481,-0.194,17.99,58.632,29.795,27.727,-3.653,81.789,6.554,-1.495,73.223,-6.951,-12.046,-19.152,-6.489,19.836,34.847,29.802,-120.585
1.3063393999996151,6.563,18.52,-77.883,-50.152,40.359,20.801,20.117,53.858,32.489,56.253,42.848,13.127,32.829,69.332,45.134,43.581,9.158,94.003,27.552,15.925,80.835,13.549,4.36,-0.69,7.862,37.747,50.181,49.752,-105.095
1.3201467999997476,-6.763,29.773,-69.096,-35.245,41.856,30.002,12.925,68.661,44.24,70.029,49.465,21.31,43.554,75.41,47.651,54.296,10.174,98.007,35.209,22.057,78.192,22.757,9.991,9.557,5.292,47.955,52.692,58.924,-88.084
1.3202102999998715,-9.83,15.398,-75.175,-46.993,32.08,21.775,3.178,57.834,39.073,62.274,39.169,12.068,36.338,64.576,35.82,40.409,1.967,89.2,19.292,9.227,63.77,3.266,-3.339,0.326,-5.471,35.1,40.344,42.471,-98.754
1.3347165999998651,-3.673,7.698,-88.419,-50.02,29.999,19.704,-23.977,56.239,32.374,55.04,35.544,5.395,29.13,56.827,37.321,32.172,-0.597,84.5,10.564,1.534,54.484,-4.934,-10.508,-7.871,-5.978,25.843,36.206,38.843,-111.463
1.3497646999999233,-7.767,18.961,-82.696,-44.334,35.604,22.758,-35.224,63.867,33.878,59.595,40.119,8.976,30.125,62.406,45.481,41.361,0.941,86.977,15.676,5.118,54.942,5.317,-4.862,-2.74,0.175,32.99,42.829,49.05,-104.692
1.349836399999731,-11.346,20.479,-66.219,-56.073,37.618,18.125,-2.401,55.094,32.307,59.023,40.591,13.066,31.12,63.88,43.898,43.881,-0.085,87.402,20.784,9.724,55.399,10.435,1.291,8.021,-7.509,38.08,45.86,36.706,-82.046
1.3648037999996632,-3.65,11.237,-67.178,-69.337,35.018,11.446,30.389,44.281,29.201,54.866,40.551,11.516,30.064,59.718,43.854,41.276,-0.085,84.241,22.812,12.276,47.147,10.424,1.289,4.939,-17.236,34.455,43.765,20.275,-69.156
1.3687415999997938,-6.72,4.566,-89.652,-72.342,27.811,5.287,10.379,43.212,24.561,50.2,30.264,3.307,22.349,54.023,37.15,37.136,-3.158,75.447,11.006,1.505,31.731,-1.369,-12.032,-16.071,-8.509,22.638,36.549,21.792,-97.776
1.3816702999997688,-29.767,-4.148,-108.005,-75.343,13.951,-4.452,-21.907,39.07,11.729,35.805,11.279,-10.528,6.445,39.624,15.084,20.705,-19.549,60.003,-8.473,-18.477,16.842,-23.397,-28.414,-31.424,-15.673,7.246,22.68,18.184,-129.954
1.3817408999998406,-39.984,-8.754,-96.627,-77.317,4.203,-7.009,-17.275,34.933,6.594,29.11,11.267,-14.616,0.804,30.875,11.995,13.0,-30.288,50.209,-9.489,-20.507,8.628,-23.374,-26.336,-25.245,-43.322,7.239,19.584,9.456,-114.454
1.3948888999998417,-18.939,1.501,-76.038,-74.678,14.957,2.732,15.53,35.922,19.395,42.401,27.138,-0.769,13.098,41.603,31.963,27.332,-16.938,58.868,4.353,-5.118,10.669,-6.444,-13.502,-15.486,-33.545,22.088,33.396,13.545,-89.237
1.3949539000000186,0.035,9.696,-81.085,-68.456,31.849,9.902,10.904,41.009,27.06,50.555,31.721,10.502,24.868,44.635,36.03,37.038,-7.187,69.055,11.009,2.572,16.806,-2.851,-9.39,-14.445,-7.384,27.189,41.56,17.118,-93.758
1.409895399999641,-8.674,7.637,-90.737,-63.777,30.792,8.355,-21.382,47.116,22.935,44.357,29.64,5.881,22.282,32.807,23.698,32.39,-15.377,65.4,6.387,-2.041,10.129,-3.873,-11.942,-9.308,-26.844,23.064,35.883,19.15,-90.078
1.409960399999818,-18.399,6.092,-80.401,-67.811,19.491,4.76,-24.435,43.483,19.838,43.288,29.611,2.289,14.062,37.385,22.138,27.235,-15.361,63.798,-0.279,-4.601,-2.689,-2.332,-12.955,-0.589,-43.723,25.09,34.823,24.766,-76.668
1.424851199999921,-13.258,3.012,-79.296,-73.891,17.422,4.243,2.23,34.73,19.818,47.343,28.044,5.873,13.536,51.693,28.775,27.208,-5.1,71.931,1.258,-0.498,-5.248,-5.404,-10.893,-2.126,-13.453,28.139,37.349,19.619,-84.789
1.4287812999996277,-10.683,0.448,-93.049,-71.768,23.552,10.899,-14.166,39.818,22.36,49.345,32.627,5.867,21.719,53.178,32.333,34.353,-3.045,74.933,14.064,4.114,-2.168,-0.275,-4.222,-5.71,2.442,27.598,38.337,16.013,-96.487
1.441759099999672,-14.258,4.546,-94.492,-75.282,26.602,14.474,-22.349,44.902,27.461,50.832,39.766,6.886,28.358,51.075,32.3,41.491,-2.53,73.321,19.686,5.646,-3.703,6.385,-1.656,-0.581,-16.516,29.62,43.421,27.268,-95.366
1.44182550000005,-10.146,1.468,-90.299,-85.453,21.965,5.238,-14.642,33.586,22.823,43.097,31.017,7.903,20.645,50.512,32.268,35.814,-4.577,68.637,11.469,3.592,-9.847,-4.38,-8.314,0.444,-29.307,28.053,43.89,18.019,-91.172
1.4554309000000103,-6.037,-13.903,-97.894,-89.466,13.746,-7.062,-38.706,23.819,11.017,28.709,15.617,-0.814,6.792,38.166,27.625,24.507,-15.843,55.76,-0.326,-5.121,-20.596,-16.159,-17.528,-9.29,-31.327,16.242,32.063,-8.127,-84.421
1.4555138999999144,-13.716,-22.086,-104.456,-95.524,6.048,-13.203,-40.204,20.209,6.907,25.094,13.04,-8.498,1.662,27.882,13.765,18.335,-22.999,44.434,-9.547,-16.899,-30.821,-17.167,-22.633,-17.478,-26.173,5.468,23.322,-10.68,-85.361
1.4699596999998903,-20.874,-16.429,-99.228,-105.163,6.554,-8.067,-7.376,18.652,12.536,33.266,21.224,-4.391,7.808,34.514,10.165,18.829,-17.341,49.0,-8.0,-13.296,-29.766,-15.613,-21.586,-15.411,-20.511,8.024,27.397,-0.424,-98.596
1.4700259999999616,-9.07,-5.654,-90.42,-102.496,17.306,7.823,-31.447,30.928,23.282,45.528,32.986,4.323,18.046,45.238,28.598,28.544,-8.102,63.296,4.815,1.574,-23.588,-5.351,-13.88,-4.637,-33.811,20.311,36.079,2.138,-100.034
1.4849986999997782,7.845,2.549,-89.817,-91.635,27.023,18.061,-63.691,48.828,30.943,57.778,39.613,9.442,24.688,47.242,40.353,35.175,-3.483,69.38,9.934,6.183,-24.077,3.363,-7.206,1.003,-36.338,28.488,41.678,7.772,-82.515
1.489373500000056,4.763,4.595,-89.727,-87.445,26.996,12.92,-30.84,46.73,31.424,56.696,37.012,9.432,24.664,42.072,30.066,32.579,-7.066,62.139,5.825,3.103,-28.152,-1.251,-7.711,-5.658,-16.322,23.848,38.563,4.69,-65.014
1.501970799999981,-5.488,6.128,-81.441,-88.894,28.505,11.882,1.979,33.876,30.368,48.955,35.95,7.886,23.102,41.005,23.888,32.546,-9.62,54.904,5.819,3.1,-32.734,-3.299,-11.289,-9.239,-19.892,17.677,34.938,-8.635,-57.777
1.5020359999998618,-2.408,10.732,-79.31,-88.806,33.6,18.531,-30.299,40.502,33.412,53.004,41.037,9.927,24.616,47.112,34.111,34.051,-2.439,57.923,9.4,5.146,-35.263,2.852,-8.204,-0.008,-38.315,26.881,40.026,-0.429,-62.33
1.515076399999998,-1.381,13.283,-86.915,-82.057,31.517,21.074,-62.544,53.781,34.915,58.586,42.021,11.967,25.616,47.577,41.761,34.016,1.662,61.451,10.927,9.24,-35.228,5.411,0.001,6.652,-28.543,38.125,44.085,15.965,-70.977
1.5299820000000182,-12.138,12.758,-84.779,-82.487,22.264,16.954,-29.694,40.92,25.146,49.306,35.831,8.369,19.443,38.82,34.035,33.982,-6.024,55.754,11.429,8.718,-41.34,2.844,-0.511,4.084,-13.657,31.426,38.405,10.826,-71.418
1.5300413999998455,-12.126,12.745,-74.448,-93.675,19.168,8.74,-13.782,19.362,11.801,40.548,28.623,4.262,9.689,34.683,24.779,27.288,-12.166,48.526,8.343,1.025,-52.57,-2.794,-8.708,-1.043,-20.304,19.612,33.244,2.618,-71.859
1.5451355000000149,1.718,13.757,-74.886,-95.119,28.37,4.121,-46.044,24.466,11.789,40.507,30.643,4.77,7.63,35.673,31.927,24.7,-9.592,51.552,7.31,-1.026,-54.566,-6.378,-7.675,-3.604,-23.357,22.154,35.772,10.813,-69.738
1.5452009000000544,2.229,14.768,-80.447,-87.339,35.514,7.19,-63.416,39.298,18.95,40.979,37.273,6.814,12.746,37.174,40.092,32.872,-2.41,60.722,12.426,5.635,-51.438,0.289,-0.495,1.011,-12.063,28.792,38.298,16.95,-48.152
1.561928899999657,-11.093,14.241,-78.317,-90.838,31.38,5.134,-42.348,33.623,14.32,37.352,33.137,5.783,11.708,42.772,32.367,31.302,4.765,62.198,11.389,5.63,-56.51,4.387,-1.519,7.67,-13.588,28.251,38.259,4.637,-33.759
1.5619973999996546,-16.718,4.492,-79.263,-97.407,23.664,-2.556,-9.518,19.758,8.671,32.191,24.395,0.142,7.598,48.877,28.236,20.512,3.223,54.963,4.205,-1.036,-64.65,-4.839,-7.665,2.027,-39.702,22.075,34.635,-16.884,-57.291
1.5751243999998223,-14.652,-6.27,-94.553,-102.432,21.079,-5.115,23.279,15.639,13.273,31.647,24.37,-0.883,8.103,49.34,35.38,21.004,-1.903,54.396,-2.459,-5.646,-70.733,-15.08,-15.854,-13.857,-51.958,11.806,26.403,-29.163,-80.288
1.5752032000000327,-18.735,-8.826,-106.754,-113.089,20.546,-5.622,-9.02,18.185,17.358,35.714,25.371,1.679,11.169,48.266,30.734,25.082,0.66,57.928,-5.53,-5.64,-80.396,-19.676,-22.498,-22.552,-37.561,3.085,22.791,-28.109,-69.961
1.5901622999999745,-21.278,-11.891,-92.815,-117.074,19.501,-5.616,-41.286,27.389,18.365,37.215,24.833,0.653,11.67,47.706,21.482,23.52,5.27,56.845,-2.451,-3.585,-84.926,-16.583,-17.353,-16.894,-40.085,4.107,24.817,-30.642,-55.547
1.5902289000000565,-12.548,-12.391,-76.328,-105.174,22.555,1.562,-8.457,32.997,22.958,38.715,29.931,0.652,13.195,47.658,31.194,24.521,0.654,54.739,2.675,0.005,-79.718,-8.369,-7.601,-7.144,-52.853,10.25,26.842,-33.686,-58.565
1.6051806000000397,-3.314,-1.108,-85.474,-97.896,27.655,7.195,24.339,28.353,26.521,45.336,36.561,6.287,17.793,48.635,41.409,28.595,-2.42,55.197,4.209,4.103,-80.663,-5.287,-9.643,-8.673,-33.332,15.363,31.426,-22.381,-63.117
1.6052423999999519,-9.458,6.065,-91.023,-99.848,28.652,8.213,-7.961,29.861,26.494,47.852,39.086,9.867,21.873,50.123,37.269,31.64,4.242,53.092,8.303,7.685,-88.267,-6.306,-9.121,-13.788,-14.856,17.909,37.03,-14.162,-57.931
1.6210941999997885,-18.67,6.059,-77.1,-97.699,27.087,13.84,-28.445,34.955,27.492,47.804,40.584,10.369,23.388,51.61,32.621,35.707,7.312,52.527,14.955,9.727,-87.154,-0.152,1.134,-6.602,-33.796,20.453,39.554,-15.685,-49.164
1.6211602999997012,-4.819,14.762,-71.388,-89.916,30.646,20.486,4.371,31.846,30.026,51.855,44.642,13.945,26.951,54.12,40.273,39.257,7.304,59.647,17.502,13.303,-84.506,8.557,6.768,5.7,-51.181,29.142,45.15,-7.984,-41.43
1.635236999999961,14.141,23.457,-75.927,-83.679,40.349,23.027,-8.953,31.814,30.509,56.926,51.77,18.542,31.023,56.115,50.479,43.829,12.42,66.759,20.046,17.901,-90.057,11.622,6.762,8.768,-43.445,35.26,48.691,-2.341,-30.63
1.6353034999997362,3.368,15.749,-75.851,-89.23,39.796,19.93,-41.22,34.856,27.404,53.795,50.693,17.499,26.381,55.547,46.842,43.785,12.92,61.057,19.001,16.346,-94.065,7.0,5.73,-0.462,-28.545,28.053,44.031,-15.146,-29.575
1.649194599999646,-15.078,7.536,-79.874,-103.486,27.974,6.59,-21.198,21.501,16.618,40.934,36.298,10.821,13.547,50.368,35.013,34.007,4.71,50.238,10.273,9.157,-98.069,1.358,-1.448,-13.781,-25.443,21.365,41.426,-22.304,-51.062
1.6492559999996956,-4.304,12.139,-83.892,-107.481,22.823,-2.638,-16.054,8.672,6.868,29.622,29.089,4.15,7.386,42.633,33.953,26.801,-2.467,45.064,6.164,5.05,-105.144,2.381,-5.033,-14.28,-37.713,24.417,40.872,-12.547,-59.72
1.6642468000000008,5.434,17.25,-75.611,-99.176,24.849,4.025,-29.87,14.811,11.472,35.228,35.72,4.659,12.501,38.492,38.017,28.823,-5.026,40.921,8.207,5.044,-108.112,3.916,-0.417,-8.63,-40.236,23.881,39.807,-8.949,-36.607
1.6643137999999453,-9.429,15.184,-68.364,-95.491,22.775,11.705,-12.422,22.993,20.682,45.951,38.758,8.752,16.075,36.404,32.344,30.331,-8.095,32.683,5.637,4.527,-111.59,0.325,-2.978,-16.306,-26.364,18.221,41.816,-19.186,-28.373
1.6811069000000316,-9.932,16.706,-73.418,-100.006,23.777,11.181,-3.7,22.97,21.174,45.905,35.646,7.719,13.497,30.22,31.799,28.764,-9.623,31.626,2.558,6.572,-119.163,-0.699,-8.61,-23.975,-34.534,17.691,41.774,-25.314,-41.665
1.6811742999998387,11.083,23.349,-80.517,-98.882,33.999,15.269,-17.017,25.509,23.202,46.372,41.758,10.273,17.07,27.629,44.063,30.785,-3.466,39.791,9.215,12.201,-114.946,5.961,-0.917,-13.192,-54.48,23.821,42.757,-19.141,-33.426
1.6956562000000304,16.195,28.961,-73.264,-91.098,43.699,26.524,-28.271,28.557,29.838,55.035,52.474,21.021,26.787,32.724,52.728,36.389,3.197,43.337,15.866,17.312,-105.609,10.566,8.305,-5.494,-48.278,31.482,53.473,-13.487,-19.048
1.6957198999998582,5.42,28.42,-61.92,-93.569,44.168,29.059,-43.611,26.991,27.247,56.516,53.959,22.537,23.686,37.302,50.114,38.914,2.169,39.708,13.801,17.807,-111.139,10.555,6.76,-9.075,-48.229,32.987,54.956,-18.596,-26.714
1.7093933999999535,5.927,24.293,-70.568,-105.77,36.951,18.272,-31.785,21.329,16.974,47.751,47.245,14.83,13.929,38.289,46.478,35.289,3.704,39.668,10.201,16.252,-121.274,9.008,1.118,-11.627,-63.038,27.831,44.143,-20.115,-36.933
1.7094563999999082,15.655,23.244,-86.379,-105.152,32.816,13.643,0.01,15.16,16.444,47.191,47.198,18.913,20.575,42.862,48.48,36.279,11.897,45.776,14.801,18.797,-121.153,7.974,1.117,-16.227,-38.384,25.754,45.636,-12.41,-34.335
1.7243555999998534,17.176,26.295,-78.095,-92.752,40.467,24.9,-10.748,16.682,23.6,55.853,56.884,25.555,32.849,52.553,50.481,47.001,14.959,49.829,20.422,23.901,-117.958,10.528,4.702,-18.772,-8.632,27.777,53.275,-10.861,-23.03
1.7393275999997968,6.913,25.244,-66.746,-93.684,47.599,29.486,-30.718,17.177,23.064,55.797,58.877,19.894,26.157,54.549,46.844,45.929,14.944,45.681,15.279,19.267,-124.5,9.493,4.185,-15.167,-36.8,25.7,48.611,-20.584,-14.81
1.7434785999998894,-3.852,9.849,-76.413,-111.521,36.281,11.013,-27.613,5.377,10.746,41.909,39.862,10.14,11.274,39.126,37.576,26.928,8.782,34.364,1.431,5.927,-140.257,-2.812,-4.528,-21.3,-68.014,15.941,38.828,-37.469,-30.164
1.7550831999997172,-3.336,-7.579,-87.608,-125.754,19.338,-6.929,-45.516,-1.8,-0.023,25.985,20.355,0.908,-0.009,21.668,25.755,15.63,-8.133,24.596,-11.378,-4.837,-152.924,-14.592,-14.77,-35.111,-58.212,4.142,28.543,-53.826,-46.528
1.755150699999831,-2.821,-9.109,-91.106,-121.017,19.831,-3.336,-46.495,6.911,4.075,24.422,21.871,-3.191,-5.644,18.573,19.582,18.688,-14.785,18.936,-14.953,-5.857,-154.821,-14.065,-15.78,-37.125,-52.007,0.039,24.928,-51.21,-37.772
1.7694790000000467,-9.99,0.122,-92.04,-107.064,28.521,5.889,-13.661,8.953,10.731,33.107,32.096,3.984,-1.028,20.091,23.149,19.694,-8.623,17.38,-8.79,-1.24,-155.178,-9.441,-10.129,-35.038,-55.028,8.748,33.613,-40.913,-31.587
1.769546199999695,-7.418,1.147,-81.189,-105.42,29.517,4.859,-11.598,1.259,7.646,35.123,31.039,8.079,4.097,18.534,29.273,19.675,-8.102,20.437,-5.195,0.81,-158.097,-8.919,-11.143,-39.102,-47.801,11.301,34.604,-52.655,-33.604
1.784424299999955,-1.776,-5.002,-73.424,-112.999,28.975,2.292,-30.542,2.795,7.639,33.039,28.959,5.509,0.506,22.102,29.756,20.68,-10.655,22.465,-9.801,-2.777,-157.939,-8.398,-15.743,-40.087,-55.95,3.605,26.372,-67.459,-18.202
1.7844845999998142,-10.995,-2.436,-79.498,-109.3,33.045,1.778,-11.556,8.428,14.804,34.543,34.565,7.553,-0.006,27.715,28.702,19.634,-8.083,21.418,-9.791,1.325,-158.293,-4.803,-10.604,-32.875,-72.8,9.237,30.957,-57.146,-12.548
1.7994709999998122,-14.571,4.739,-79.931,-106.629,34.036,1.776,-27.938,4.833,11.203,33.484,36.58,11.131,4.604,28.199,31.747,23.201,-7.562,23.958,-3.634,9.52,-159.672,0.325,-4.446,-23.108,-74.264,21.523,38.098,-44.793,-30.978
1.8034450999998626,-0.211,4.222,-79.851,-116.769,31.953,3.311,-60.186,-0.295,2.482,31.401,36.543,11.633,5.624,31.245,37.863,29.838,-3.969,29.058,0.981,10.535,-159.512,4.423,-7.003,-23.085,-74.19,18.428,37.035,-51.408,-35.046
1.8161724999999933,3.887,5.242,-86.431,-114.603,36.532,10.48,-51.929,2.267,8.627,38.542,43.679,16.232,12.279,36.337,45.51,29.808,2.183,30.053,6.103,12.574,-160.377,6.468,-6.484,-33.308,-60.796,14.311,40.072,-54.431,-30.912
1.816233000000011,-3.801,14.971,-81.734,-104.242,45.717,18.154,-19.089,8.925,18.865,48.237,50.808,23.9,22.0,37.837,50.075,31.315,3.205,33.097,10.708,22.808,-160.217,12.097,1.208,-32.25,-33.071,22.494,45.155,-48.229,-30.882
1.8295989999996891,3.375,21.104,-74.48,-109.773,47.208,19.673,-8.824,4.817,19.358,50.75,52.806,26.438,24.027,39.337,49.0,36.407,4.739,41.773,13.258,25.859,-155.958,20.794,8.891,-13.263,-34.062,29.131,47.671,-46.131,-11.383
1.8296737999999095,14.642,19.033,-83.114,-114.274,40.501,14.53,-41.09,-4.409,14.216,46.601,52.753,24.874,20.93,39.81,50.488,31.759,4.734,42.756,14.782,21.734,-157.339,19.748,8.882,-6.077,-47.86,29.102,50.698,-42.499,-2.15
1.84456659999978,10.017,16.965,-85.593,-108.524,37.386,8.368,-53.345,-4.917,10.616,40.407,50.139,22.8,15.786,34.647,50.95,25.068,-2.443,31.955,12.206,20.688,-163.842,11.532,4.775,-16.829,-40.128,26.511,46.036,-37.846,-26.739
1.8446318999999676,3.347,18.485,-76.798,-105.342,43.497,6.823,-32.799,-3.887,9.068,39.854,48.552,23.802,12.696,32.05,42.702,28.629,-5.514,26.287,7.583,19.643,-165.215,12.032,3.745,-20.399,-45.723,21.874,41.892,-43.443,-31.835
1.8595694000000549,7.442,22.565,-73.647,-96.015,47.552,11.939,-28.156,-3.884,11.108,45.962,54.139,25.315,19.343,35.092,42.147,32.699,-2.435,31.384,11.674,22.185,-165.05,20.217,9.377,-10.644,-60.022,24.926,49.534,-44.937,-9.774
1.8751681999997345,12.045,28.178,-71.012,-85.161,42.893,21.149,-59.89,8.416,15.708,48.478,57.158,25.802,22.398,38.131,53.888,30.617,0.129,35.451,18.322,27.285,-167.958,21.734,12.441,-7.048,-48.179,31.049,51.022,-37.207,-11.813
1.8752270999998473,8.959,28.662,-68.38,-87.125,39.777,25.738,-68.027,19.678,19.278,47.917,52.491,25.776,16.74,38.605,53.322,27.512,2.178,34.391,12.156,22.135,-170.864,16.589,7.818,-13.188,-45.569,27.432,44.311,-40.244,-19.998
1.8896859999999833,2.29,24.023,-73.434,-112.653,44.86,21.614,-35.172,14.535,19.771,48.381,49.364,23.701,18.26,35.493,39.948,22.874,2.176,29.746,5.996,13.404,-173.767,11.45,3.712,-17.786,-62.43,18.183,43.754,-50.962,-8.195
1.8897458999999799,5.874,22.462,-70.287,-144.816,45.84,18.006,-2.349,10.935,19.751,46.796,48.29,21.629,21.316,33.408,37.347,19.777,-0.388,25.618,8.039,16.976,-176.667,8.364,3.196,-19.817,-54.683,14.066,42.173,-51.936,-5.113
1.904652299999725,12.528,22.439,-60.995,-176.946,37.597,16.451,-16.691,14.51,20.244,44.188,44.656,21.607,16.684,33.375,40.383,19.245,-1.924,23.543,4.957,17.984,-179.052,5.282,-0.393,-25.945,-47.968,13.027,36.496,-50.859,-16.891
1.9047272999996494,3.807,15.244,-67.082,-209.045,30.899,10.8,-48.95,9.372,14.076,40.045,38.976,14.925,9.495,23.607,30.097,12.566,-8.07,17.372,-5.294,8.232,-186.045,-0.871,-10.639,-32.579,-73.536,7.891,34.922,-56.444,-18.924
1.9197172999997747,-10.542,4.471,-78.798,-176.048,25.233,0.543,-54.536,-1.908,5.353,30.271,30.228,5.689,1.288,8.215,15.722,3.332,-17.796,9.67,-10.411,1.564,-196.618,-7.53,-17.801,-36.133,-92.417,-3.388,30.277,-66.633,-21.466
1.919775099999697,-8.994,-2.706,-83.842,-158.966,18.035,-4.069,-39.625,-8.566,2.274,23.581,24.562,6.195,-5.373,4.62,16.219,0.767,-19.827,8.123,-13.475,0.538,-199.495,-9.572,-14.709,-38.658,-89.251,-9.532,24.099,-73.227,-32.203
1.9361393999997745,-0.788,0.371,-83.758,-191.082,19.554,-2.015,-45.733,-9.07,2.271,27.656,29.148,9.263,-1.781,10.763,26.449,0.766,-16.733,9.652,-13.461,2.074,-191.099,-5.976,-8.547,-34.009,-76.354,-1.838,27.149,-62.907,-33.708
1.936203100000057,2.799,14.202,-68.818,-160.665,34.392,5.671,-54.909,-2.913,7.392,35.313,40.39,14.377,9.491,23.048,34.107,7.425,-13.131,12.716,-3.714,10.781,-180.149,4.788,-0.854,-18.093,-51.687,11.484,36.855,-45.426,-14.719
1.9497543999996196,10.48,27.508,-47.232,-127.717,52.288,17.961,-30.775,7.848,21.217,47.06,52.132,27.683,22.802,43.005,42.782,21.763,-1.334,21.925,7.048,22.554,-173.309,18.616,8.881,-6.804,-30.118,21.719,47.065,-37.184,14.497
1.9498195999999552,20.204,31.067,-47.697,-146.032,60.945,29.726,-33.306,19.624,30.417,60.846,58.74,34.827,33.537,50.134,53.498,28.401,7.376,27.026,9.603,26.63,-171.086,23.72,10.409,-7.822,-36.236,26.82,49.579,-35.097,21.143
1.9646983999996337,17.11,26.425,-59.432,-156.132,53.199,34.307,-65.548,27.801,28.338,63.346,56.12,29.157,32.479,38.813,54.469,23.249,1.734,23.413,7.031,21.48,-171.94,19.086,4.251,-8.327,-58.229,23.719,41.333,-38.136,-2.957
1.9647580999999263,5.31,17.689,-61.934,-136.508,41.363,29.15,-48.576,22.65,24.723,55.598,51.453,24.005,24.762,34.676,44.168,19.64,-1.342,21.34,6.512,16.848,-174.842,15.993,5.271,-6.269,-67.392,18.06,38.73,-47.319,-17.811
1.9797287999999753,1.206,13.573,-66.483,-141.495,41.834,19.387,-15.74,10.332,20.6,48.37,48.84,20.907,18.59,32.08,40.026,18.596,-1.341,20.807,6.506,17.855,-179.278,14.44,5.266,-11.898,-58.616,16.505,42.277,-48.297,-11.645
1.9947216999999,10.938,17.146,-68.466,-148.526,43.842,14.757,-18.798,6.223,14.432,42.687,43.156,15.763,12.423,15.654,44.084,12.942,-12.098,14.126,2.913,16.813,-180.123,9.815,-4.985,-20.596,-58.557,12.39,37.112,-44.15,-10.609
1.998845799999799,15.538,19.178,-55.59,-136.082,39.187,17.303,-49.006,9.291,12.88,38.546,39.527,15.235,6.263,10.515,43.528,8.83,-18.233,10.013,-3.238,11.673,-179.431,7.244,-6.517,-22.624,-67.208,7.255,31.952,-52.815,-7.012
1.998898299999837,6.301,13.523,-50.924,-137.995,43.246,16.774,-33.075,6.72,9.794,37.995,43.073,17.781,6.769,23.312,36.312,8.821,-10.531,13.589,-4.259,11.149,-183.862,11.335,1.686,-20.552,-53.821,8.272,31.92,-58.91,1.192
2.011676599999646,-1.902,11.461,-61.631,-142.468,44.228,9.072,-53.022,1.59,4.148,35.907,39.444,14.177,8.299,22.777,32.177,6.251,-7.959,13.576,-2.718,11.138,-190.85,11.323,-1.389,-20.532,-41.984,7.752,28.814,-52.703,-12.129
2.0117458999998235,2.198,16.572,-67.717,-129.005,33.937,9.576,-85.244,8.249,8.755,35.359,33.257,13.138,8.291,15.069,35.731,5.22,-13.074,5.878,-6.814,7.541,-193.221,7.214,-5.999,-22.56,-57.311,6.719,26.736,-47.527,-27.999
2.0248435999997128,5.27,25.265,-62.526,-117.093,40.563,24.423,-54.421,20.536,21.554,47.107,44.494,21.834,15.967,25.3,43.892,13.412,-9.474,8.946,-3.733,11.119,-187.905,11.305,1.692,-16.903,-66.987,16.447,34.906,-41.845,-11.065
2.0249171999998907,2.703,31.9,-55.292,-111.341,59.99,31.058,-21.579,20.003,24.606,57.818,56.233,29.497,25.173,35.009,52.558,22.108,-1.268,19.183,4.98,19.817,-182.082,19.49,5.276,-8.689,-63.847,23.09,40.506,-34.118,10.463
2.0398621999997886,4.75,25.72,-61.384,-112.766,55.32,18.22,-46.66,5.126,12.799,47.514,44.906,24.857,19.512,27.802,49.943,16.963,-2.291,14.553,0.877,16.724,-187.023,14.86,-1.389,-14.828,-65.832,14.358,34.831,-44.33,2.256
2.03992530000005,4.233,11.35,-79.253,-128.535,38.358,1.808,-78.889,-7.175,-2.071,29.024,30.516,13.049,3.611,17.015,39.135,3.626,-13.048,2.755,-10.395,5.949,-200.156,1.013,-10.609,-29.67,-59.618,3.073,23.525,-59.143,-21.313
2.055425600000035,-7.555,7.24,-83.785,-133.017,36.271,-0.756,-101.864,-4.606,-4.631,25.921,29.461,7.401,-4.589,10.851,33.46,-2.013,-19.694,5.826,-12.434,1.844,-205.078,-5.648,-17.771,-35.788,-53.411,-1.029,18.378,-56.01,-30.0
2.0554964999996628,-15.232,8.77,-72.43,-122.638,35.21,4.88,-99.713,4.108,5.108,32.043,30.456,9.955,-2.535,7.254,32.402,-0.987,-17.113,8.894,-14.983,-0.207,-203.336,-5.642,-18.265,-33.703,-69.239,-1.54,20.409,-56.466,-21.774
2.0702784999998585,-4.97,5.175,-70.821,-125.077,29.539,3.851,-66.825,0.005,6.64,32.011,31.451,11.482,-1.508,8.783,31.345,-2.01,-15.047,2.225,-17.53,-0.207,-206.207,-4.1,-15.686,-31.108,-75.318,-0.002,21.926,-63.07,-16.116
2.0849104999997508,7.33,7.219,-76.385,-125.976,33.096,-0.764,-33.971,-12.29,-0.539,30.954,35.005,13.52,-1.507,15.434,34.388,-0.472,-14.52,4.272,-11.364,4.404,-205.488,-1.534,-15.158,-28.003,-63.972,1.535,23.953,-53.785,-16.613
2.0849739999998746,4.761,14.384,-74.26,-108.432,39.21,4.36,-66.212,-7.155,5.097,34.509,37.02,18.629,3.618,21.567,35.89,3.627,-9.382,12.977,-9.816,4.912,-202.209,0.004,-14.118,-29.512,-64.42,2.046,27.515,-42.46,-13.522
2.0999220999997306,-4.465,7.709,-73.673,-104.225,39.171,7.942,-98.421,5.148,9.702,34.987,35.958,17.586,8.737,20.008,31.756,1.062,-7.836,11.427,-20.565,-0.216,-208.155,-4.606,-16.665,-38.704,-67.429,-4.104,23.902,-52.664,-20.681
2.0999816999997165,-7.535,-4.594,-80.772,-113.855,32.984,-0.775,-70.658,-2.03,-1.066,29.829,32.336,11.421,3.093,14.353,30.187,-3.55,-15.512,4.756,-24.643,-3.802,-213.582,-11.774,-25.87,-46.349,-64.8,-14.346,15.168,-67.468,-40.64
2.1149176999997508,-2.916,-2.028,-81.716,-105.032,26.804,1.275,-93.641,-1.003,2.009,32.361,32.303,14.995,1.553,15.363,32.206,3.114,-12.935,8.337,-17.446,0.813,-213.368,-9.713,-23.283,-43.229,-65.76,-9.208,18.227,-62.278,-41.112
2.1188380999997207,5.284,13.344,-72.413,-84.947,34.461,20.229,-110.454,23.077,20.963,47.698,45.591,25.739,18.458,26.106,36.273,15.406,2.447,20.624,-4.108,12.595,-209.569,5.154,-7.378,-30.378,-57.498,11.805,31.529,-44.285,-23.14
2.1321539999999004,11.938,18.966,-64.143,-80.251,48.772,22.77,-77.556,19.98,18.38,52.773,53.742,27.762,24.587,28.642,40.847,16.415,4.494,27.264,2.556,17.193,-205.261,14.37,-4.809,-23.688,-50.78,16.404,36.108,-40.142,-24.654
2.1322203999998237,12.439,7.676,-71.251,-89.392,39.501,4.817,-55.449,-8.217,-1.106,36.839,36.783,20.05,6.119,16.318,35.683,7.178,-9.343,16.478,-9.742,3.856,-213.765,2.06,-17.099,-33.398,-76.857,-0.518,25.826,-54.959,-38.974
2.145028999999795,6.791,-1.553,-81.939,-96.475,23.068,-4.41,-87.669,-8.721,-5.716,25.531,23.426,13.37,-2.084,6.567,23.865,-0.002,-14.969,4.166,-23.052,-4.857,-227.896,-10.75,-23.742,-45.148,-105.469,-9.227,16.578,-66.687,-36.886
2.1450935999996545,0.124,4.084,-78.27,-94.842,33.291,3.279,-119.344,6.657,2.999,32.165,32.624,16.43,9.189,16.295,24.865,2.56,-7.782,10.31,-15.857,4.369,-222.545,-1.517,-17.059,-44.078,-88.458,-2.045,22.71,-58.936,-29.164
2.160017599999719,4.222,11.252,-72.044,-84.501,46.578,11.473,-92.073,7.162,9.144,40.33,42.325,23.074,13.791,28.062,37.136,10.242,-0.602,20.033,-3.546,14.099,-212.588,10.267,-8.332,-39.423,-55.582,6.666,31.908,-45.557,-30.159
2.160083499999928,11.903,10.216,-75.559,-76.732,38.846,10.437,-59.193,1.52,7.598,38.753,39.721,21.514,11.728,24.447,39.66,12.281,-2.138,16.427,-4.054,9.474,-223.134,5.134,-9.861,-39.384,-46.304,6.659,27.266,-40.9,-34.74
2.1750514999998813,6.768,6.62,-77.02,-73.581,30.611,5.303,-33.006,-1.556,1.955,37.177,35.583,16.369,13.253,19.812,29.887,7.145,-7.771,14.361,-9.173,2.804,-231.62,-1.019,-16.511,-39.857,-70.849,0.505,20.578,-42.396,-38.291
2.1791596999996727,1.126,9.175,-70.795,-67.872,39.802,6.835,-52.441,-0.017,4.002,40.214,38.621,18.402,13.24,22.354,27.295,7.138,-5.714,22.544,-10.701,5.875,-225.753,5.13,-12.396,-39.305,-82.561,1.529,25.169,-38.768,-33.642
2.1918415999998615,11.371,19.412,-64.064,-57.046,52.57,15.537,-84.664,10.229,11.683,43.248,45.755,23.507,12.714,23.356,41.1,14.816,0.439,27.645,-4.031,16.628,-221.941,13.322,-3.162,-34.142,-63.011,12.286,35.39,-30.532,-22.338
2.191906099999869,14.433,22.466,-63.488,-53.403,51.492,19.108,-84.067,14.83,11.159,45.254,50.32,27.069,18.849,25.382,49.768,17.875,-2.635,24.031,-1.977,19.685,-225.818,11.259,-6.745,-29.497,-57.313,15.348,36.379,-27.94,-21.803
2.205127299999731,1.611,9.636,-76.745,-64.62,40.17,13.454,-95.766,10.204,6.537,42.647,42.073,23.969,17.293,24.844,38.448,9.66,-11.854,14.273,-16.832,6.346,-236.35,-1.048,-19.546,-42.788,-75.186,-0.549,23.022,-37.134,-33.565
2.205194499999834,-4.538,-1.132,-86.402,-71.215,31.933,3.706,-101.818,5.071,2.432,32.358,28.711,13.698,5.493,14.573,26.626,-0.084,-16.453,9.136,-25.525,-4.419,-249.946,-9.243,-22.088,-59.651,-72.549,-15.406,12.241,-47.855,-40.191
2.2201600999997027,0.589,6.041,-74.532,-57.312,31.901,-2.445,-68.928,-6.205,-3.206,24.129,26.633,12.66,-0.148,13.534,28.137,2.478,-17.461,15.274,-11.667,2.758,-249.184,1.524,-12.844,-47.808,-59.157,-3.607,22.475,-42.172,-36.565
2.2202236999996785,7.761,16.281,-62.675,-44.447,37.505,1.143,-43.756,-11.834,-3.203,28.715,35.828,20.844,5.488,23.767,34.769,10.16,-14.37,18.333,-2.434,11.464,-240.738,15.867,-5.659,-28.293,-65.758,17.401,37.309,-24.711,-27.819
2.235204799999792,9.803,15.753,-69.784,-46.452,47.713,9.852,-75.988,0.985,4.485,37.396,40.915,21.848,8.556,16.058,40.369,9.638,-14.868,13.704,-9.091,8.379,-245.108,9.191,-9.752,-36.974,-69.278,11.236,32.661,-24.174,-28.816
2.251983399999972,1.596,10.102,-80.473,-44.356,50.739,11.891,-93.33,8.669,6.018,38.895,38.825,22.339,7.523,5.284,39.816,8.091,-21.513,15.227,-11.644,4.784,-253.572,-4.65,-17.427,-52.306,-61.524,-6.706,22.895,-35.933,-44.156
2.2520472999999583,-5.066,7.53,-81.929,-37.652,39.93,7.781,-60.449,3.025,6.011,36.295,36.224,21.804,9.565,15.012,35.166,11.669,-19.442,20.335,-7.534,6.316,-256.392,-2.084,-17.41,-48.668,-69.659,-5.163,23.897,-31.286,-47.698
2.2520889999996143,0.062,8.547,-67.503,-35.052,34.255,6.748,-53.217,5.583,10.616,36.259,34.651,16.147,13.141,21.145,34.106,10.633,-11.738,21.339,-6.501,6.31,-258.185,6.627,-8.683,-39.397,-73.688,5.601,26.434,-20.497,-24.084
2.2652388999999857,2.624,13.662,-48.48,-24.771,43.954,9.303,-85.439,12.75,8.556,38.272,36.666,18.18,12.616,13.952,37.146,9.598,-13.776,25.928,-5.47,5.791,-256.39,8.67,-4.063,-35.772,-53.635,12.768,29.482,-20.988,-10.74
2.279163199999857,3.646,19.796,-53.555,-11.426,54.669,15.954,-93.038,15.299,7.011,42.844,44.826,25.334,14.652,15.475,41.207,16.248,-15.299,29.489,-2.391,11.933,-253.06,11.735,-7.133,-36.248,-35.65,17.878,38.161,-19.943,-29.685
2.2792216999996526,11.839,19.263,-70.407,-18.075,55.127,23.11,-77.576,17.333,12.639,48.437,50.929,27.358,20.273,20.07,46.801,21.355,-9.648,26.385,-1.876,15.507,-254.856,13.26,-8.151,-39.286,-38.176,14.274,40.685,-18.898,-42.975
2.2942175999996834,8.753,10.535,-66.751,-31.377,46.362,17.452,-44.71,9.631,13.139,44.29,45.243,25.794,16.667,19.025,44.705,17.235,-13.225,27.383,-3.924,11.394,-259.212,6.587,-7.118,-42.833,-50.946,5.551,32.447,-25.539,-35.248
2.29427429999987,-7.137,-0.234,-64.122,-31.858,35.557,1.04,-33.395,-4.723,2.367,29.389,30.341,15.522,2.305,12.858,28.779,8.509,-21.921,23.77,-10.58,3.185,-269.711,-1.104,-13.771,-47.913,-67.288,-0.09,24.218,-30.125,-38.286
2.3100052999998297,-11.228,-7.406,-83.014,-30.801,28.349,-8.182,-65.637,-6.256,-8.906,17.576,17.503,3.211,-8.455,0.038,15.43,-1.234,-28.559,7.352,-24.401,-9.113,-282.762,-7.251,-24.003,-56.574,-77.467,-9.824,17.533,-33.681,-55.154
2.3100688999998056,-3.02,-5.862,-85.492,-28.721,28.833,-5.1,-88.113,-1.126,-12.483,19.608,19.022,7.818,-9.472,-6.622,19.513,-1.233,-34.678,0.685,-27.963,-9.617,-281.966,-11.854,-25.516,-60.104,-76.365,-11.864,17.516,-39.282,-56.124
2.3246776999999383,0.569,3.366,-70.037,-17.422,34.952,3.614,-70.606,-0.101,-5.811,27.273,32.323,17.032,-3.314,1.581,31.789,10.039,-29.008,11.443,-14.103,4.738,-271.438,-3.645,-18.318,-53.384,-70.653,3.005,27.745,-33.095,-45.309
2.3247435999996924,2.105,6.436,-73.553,-9.207,39.528,8.221,-78.22,6.56,2.392,33.393,38.438,16.503,5.91,7.728,35.344,17.202,-15.147,18.091,-5.38,9.856,-270.655,5.068,-11.64,-47.695,-62.386,8.125,32.84,-22.816,-51.411
2.3392893000000186,6.714,2.844,-81.677,-9.711,38.464,7.188,-59.699,14.238,5.464,39.507,35.838,20.585,10.515,8.744,31.722,18.209,-10.521,24.733,-6.911,4.723,-271.921,2.501,-10.604,-50.209,-52.59,-0.592,32.295,-23.818,-64.68
2.339364999999816,9.781,8.476,-71.861,-3.553,38.938,10.767,-26.851,8.588,7.507,42.542,38.364,25.687,12.042,18.469,34.764,22.289,-7.436,37.516,-4.855,8.817,-271.137,0.961,-11.105,-53.745,-52.025,0.946,35.336,-21.745,-56.931
2.354337399999622,8.235,15.64,-69.228,0.037,40.436,13.83,-51.415,1.919,5.963,39.425,40.375,19.001,12.03,21.525,35.754,20.73,-5.892,39.528,-8.949,7.783,-279.575,0.448,-14.168,-51.642,-59.657,2.481,31.715,-13.526,-45.091
2.3543965999997454,5.152,10.501,-80.942,-9.185,34.76,4.083,-83.639,2.43,-3.265,32.726,31.625,13.347,6.382,11.257,22.911,13.025,-16.645,30.267,-16.112,-3.495,-287.492,-5.188,-17.74,-44.418,-57.036,-3.669,25.535,-13.513,-47.607
2.3701790000000074,6.172,4.855,-79.324,-6.614,31.651,-1.557,-78.945,7.55,-3.774,31.669,27.495,17.432,3.814,11.758,18.789,17.623,-17.652,28.7,-8.923,-0.93,-285.155,-1.596,-12.087,-37.714,-42.635,2.995,31.658,-12.987,-44.486
2.3702579999999216,10.264,7.924,-66.437,10.811,37.255,5.617,-46.078,13.178,6.989,35.735,35.152,20.489,9.446,21.48,31.578,24.265,-7.389,31.745,-0.205,6.243,-283.333,5.578,-7.464,-41.262,-40.03,10.164,36.749,-9.9,-38.806
2.384387599999627,7.18,7.916,-64.321,12.849,39.267,4.587,-29.126,5.993,6.982,34.163,36.142,15.857,7.387,18.385,32.059,18.605,-13.017,28.127,-5.84,1.626,-286.124,-1.6,-17.191,-53.004,-48.7,-0.604,31.077,-17.575,-50.55
2.384454999999889,3.074,3.81,-73.478,2.078,36.154,-6.176,-29.097,-3.747,-1.735,26.956,30.47,11.231,-0.817,6.071,23.318,15.0,-22.738,26.05,-9.933,0.088,-290.448,-5.697,-20.247,-55.0,-51.725,-5.214,27.46,-19.606,-54.086
2.3993341999998847,7.682,2.782,-75.966,4.637,34.069,-5.658,-61.343,7.527,-1.22,25.905,33.001,11.219,0.208,4.016,26.368,19.084,-16.567,29.61,-5.312,4.698,-294.769,3.018,-10.493,-41.625,-48.087,4.012,28.969,-7.804,-33.539
2.399392899999839,8.187,5.853,-66.157,19.49,33.522,2.033,-84.336,20.328,3.392,31.002,35.53,11.721,3.282,13.746,30.44,21.114,-10.915,34.703,-2.746,5.718,-291.4,2.502,-9.458,-37.485,-42.916,5.033,28.428,-4.722,-29.407
2.4143733999999313,-2.58,1.748,-63.017,24.081,32.464,1.518,-51.464,8.012,3.388,31.996,30.371,10.684,3.279,21.929,25.799,21.093,-9.88,38.767,-6.329,5.2,-288.547,-5.697,-14.059,-47.694,-42.873,-0.608,24.813,-13.939,-52.432
2.4293932999999015,-9.75,-11.573,-77.298,11.761,30.382,-7.193,-18.625,-5.316,-0.201,25.816,23.681,9.137,1.226,17.809,18.089,14.924,-11.407,35.654,-15.544,-1.977,-297.48,-11.327,-17.119,-54.306,-55.125,-7.267,18.128,-22.122,-72.359
2.43336969999973,-4.104,-15.66,-86.955,6.114,25.229,-13.333,-50.881,0.325,-5.324,19.13,18.022,6.054,-5.947,10.106,12.435,8.762,-18.568,27.934,-21.164,-11.197,-304.355,-14.901,-21.713,-52.715,-63.779,-10.846,15.549,-19.538,-74.336
2.4462257000000136,4.097,-4.886,-78.671,23.527,28.278,-7.172,-83.106,10.57,-6.344,20.648,19.028,9.121,-6.454,10.608,17.546,16.95,-19.061,27.906,-15.507,-5.038,-297.903,-11.3,-18.617,-49.076,-49.883,-3.15,22.193,-2.612,-60.429
2.460023099999944,4.092,0.754,-69.371,37.335,39.52,2.057,-50.235,13.634,-4.8,28.312,27.206,15.772,1.237,13.672,26.237,24.617,-15.456,27.366,-14.467,2.652,-295.044,-7.703,-16.549,-49.027,-44.198,0.439,24.733,1.489,-48.586
2.4600946000000476,-2.572,-7.956,-70.326,27.052,37.944,-3.581,-22.52,2.349,-8.894,26.747,26.667,11.658,0.211,10.584,20.063,18.957,-22.101,21.703,-22.138,-4.523,-303.458,-13.843,-25.754,-56.15,-64.134,-10.832,20.097,-21.054,-53.148
2.4601379999999153,-6.668,-14.608,-77.428,17.291,28.684,-12.799,-31.719,-8.924,-11.959,20.572,19.98,6.011,-6.449,9.037,15.945,19.451,-24.64,22.706,-19.042,-7.08,-306.228,-12.804,-25.216,-54.557,-64.582,-10.821,19.052,-26.156,-64.878
2.4745544999996127,-6.149,-10.495,-87.084,25.471,34.291,-6.126,-60.889,5.43,-5.799,23.625,23.546,10.616,-4.393,11.077,25.663,25.067,-17.443,26.269,-11.338,-0.926,-301.823,-3.058,-12.383,-42.719,-38.39,1.485,21.595,-8.199,-77.109
2.474617699999726,-4.605,-5.874,-89.559,34.667,42.966,0.54,-93.104,23.867,-0.67,26.163,27.109,10.093,-3.876,11.578,27.686,21.968,-17.426,23.169,-15.425,-3.486,-303.059,-8.178,-15.445,-43.701,-37.327,-2.615,21.573,-6.654,-85.228
2.489516199999798,-3.576,-7.917,-76.662,36.681,38.312,-8.17,-60.223,8.987,-4.256,19.477,22.471,6.497,-8.483,13.103,22.536,21.946,-18.945,24.683,-22.07,-9.63,-306.854,-17.904,-28.749,-54.416,-60.856,-13.883,20.015,-16.382,-71.823
2.4935206999998627,-8.183,-14.569,-68.388,34.083,29.564,-19.944,-27.375,-15.101,-9.375,15.872,17.325,7.515,-7.962,12.066,20.464,21.412,-18.414,26.195,-25.121,-12.182,-309.109,-21.472,-29.745,-55.899,-58.233,-16.431,14.872,-17.39,-60.481
2.5064912999996523,-14.323,-14.042,-81.64,33.537,22.363,-19.412,-59.623,-6.377,-9.365,17.393,13.722,3.409,-6.93,6.418,12.759,14.73,-24.031,20.534,-30.219,-17.293,-313.41,-26.573,-28.179,-55.843,-41.781,-18.976,10.246,-17.885,-81.425
2.5196585999997296,-9.698,-4.807,-89.755,42.725,23.365,-8.122,-91.839,17.708,-2.696,20.449,16.782,3.405,-3.337,12.047,11.721,18.302,-18.371,28.71,-26.603,-14.714,-310.023,-21.936,-24.052,-51.176,-43.276,-13.322,13.822,-6.596,-93.639
2.519736699999612,-2.516,0.834,-73.784,53.953,33.075,0.595,-58.959,21.277,4.479,29.138,27.524,15.185,4.863,27.917,24.517,29.042,-0.935,45.588,-11.719,-2.404,-301.516,-4.496,-11.22,-32.682,-49.893,3.598,22.517,8.267,-74.077
2.5345539999998437,-2.513,-0.192,-66.538,51.85,31.505,-4.528,-35.334,12.034,1.401,29.621,28.521,16.707,3.322,29.426,26.542,29.013,-3.495,41.956,-7.097,0.672,-301.727,-0.905,-8.647,-29.063,-45.745,7.693,24.544,0.575,-64.782
2.534613999999692,3.125,2.882,-76.717,50.773,26.351,-9.135,-67.574,8.436,-5.773,20.882,25.418,11.567,-0.78,21.712,23.954,32.058,-11.689,38.328,-8.627,-0.353,-300.401,-0.904,-9.663,-37.743,-33.403,5.636,25.544,2.111,-65.229
2.5497299999997267,11.831,14.15,-72.542,68.141,42.718,-1.441,-35.231,8.427,-2.181,27.521,35.127,21.289,8.442,29.374,35.713,42.784,0.106,53.659,2.14,9.893,-288.829,12.417,1.105,-24.898,-19.025,18.438,33.715,26.187,-53.893
2.5497949999999037,5.159,17.722,-64.272,79.856,51.897,4.708,-2.408,12.517,4.993,36.715,40.215,26.903,15.606,34.468,40.8,42.741,2.155,53.093,5.724,13.469,-290.59,13.429,0.591,-15.651,-23.105,21.493,36.243,23.087,-61.524
2.5664985999997043,-7.654,1.311,-77.528,65.944,29.816,-3.493,-34.681,18.14,0.89,23.871,25.318,10.483,3.807,20.601,25.39,31.94,-17.315,31.01,-15.286,-3.45,-307.205,-7.077,-20.414,-38.177,-48.185,-0.558,22.375,-3.064,-85.029
2.566565999999966,-10.208,-15.085,-90.258,48.971,16.978,-16.81,-19.277,9.925,-9.357,11.552,10.435,-0.799,-10.541,6.748,12.557,20.637,-29.593,22.27,-33.714,-18.304,-315.607,-21.414,-32.177,-54.02,-55.821,-15.414,10.569,-8.696,-83.919
2.5801226999997198,-6.612,-14.045,-87.094,51.996,24.646,-21.404,13.53,-2.38,-13.959,11.028,9.4,1.764,-14.629,7.254,9.471,16.518,-26.489,23.785,-32.655,-17.261,-313.242,-21.905,-29.071,-46.282,-39.884,-14.374,12.096,-5.101,-73.589
2.5801973999996335,-3.019,-9.932,-86.495,58.092,20.523,-19.333,-18.759,-0.841,-15.994,4.869,10.928,1.762,-14.102,10.833,6.9,21.112,-23.389,20.687,-29.037,-14.682,-311.392,-20.859,-30.066,-46.748,-41.893,-15.896,13.62,-8.17,-77.614
2.5947598999996444,-1.479,-14.021,-87.433,53.935,12.306,-17.777,-51.016,3.258,-18.539,2.815,8.356,0.736,-13.063,8.261,5.868,24.165,-24.902,24.253,-31.057,-18.253,-312.106,-23.399,-32.598,-53.873,-59.27,-20.491,6.435,-10.211,-80.098
2.5948263999998744,-4.039,-19.13,-89.395,54.394,15.879,-20.321,-18.177,0.694,-15.959,7.935,6.81,0.735,-12.026,7.74,5.863,21.579,-26.414,29.864,-33.075,-22.334,-313.33,-27.987,-34.102,-54.332,-56.649,-24.569,1.817,-12.25,-89.239
2.6097563999996964,-8.646,-22.185,-99.039,66.123,16.888,-22.35,-8.425,4.791,-9.283,6.903,7.316,-0.803,-10.989,12.855,4.832,22.07,-23.314,29.322,-34.067,-23.848,-312.505,-26.934,-34.58,-54.79,-43.272,-27.619,2.84,-10.701,-108.105
2.6248443999998017,-8.125,-16.015,-94.329,79.376,16.359,-17.716,-40.692,15.545,-6.712,8.945,8.845,0.735,-11.49,14.379,8.413,25.634,-20.729,31.854,-27.885,-17.164,-307.069,-18.198,-25.836,-47.05,-47.328,-19.394,6.936,0.069,-99.8
2.628814499999862,2.642,-4.728,-69.132,85.445,21.978,-13.088,-31.942,13.48,-12.341,12.01,11.398,1.759,-11.991,10.267,13.528,26.121,-22.246,34.896,-21.197,-9.463,-302.664,-13.057,-19.663,-34.196,-54.453,-7.592,12.052,8.265,-73.573
2.628863899999942,11.349,-3.699,-58.304,85.872,27.591,-17.173,0.878,0.147,-17.452,4.826,12.924,-1.829,-10.955,8.719,10.441,26.607,-22.736,30.25,-26.811,-13.552,-302.361,-16.63,-25.791,-37.235,-46.713,-10.146,12.04,8.257,-72.475
2.6416307999998025,5.189,-4.72,-62.345,87.323,33.199,-15.107,6.512,0.659,-11.287,9.431,14.96,2.271,-6.845,14.858,7.356,31.704,-16.565,36.368,-25.247,-14.563,-297.448,-14.564,-22.691,-42.321,-27.711,-12.697,10.491,6.712,-76.501
2.654864699999962,-0.451,4.507,-54.085,94.92,36.752,-1.26,-20.647,20.126,2.557,27.353,24.166,12.003,1.871,22.528,17.595,40.893,-7.839,57.336,-7.291,-0.203,-286.392,-0.717,-7.812,-31.52,-7.191,0.636,18.165,17.976,-64.129
2.654932199999621,3.648,9.113,-52.494,101.485,30.055,-0.234,-13.966,26.254,4.604,27.325,29.265,12.503,5.968,22.506,24.238,43.926,-6.807,60.865,-3.698,5.432,-285.593,5.431,-6.267,-24.829,-8.721,10.369,23.782,33.327,-66.626
2.6698554999998123,0.57,2.444,-69.86,102.92,26.951,-8.943,18.323,11.883,-3.598,20.638,21.551,6.343,0.839,19.409,14.48,39.272,-9.874,49.533,-15.99,-5.844,-289.406,-3.283,-14.457,-32.489,-31.254,0.625,15.049,29.195,-77.318
2.6699155999999675,-2.504,2.441,-68.766,106.404,37.171,-2.274,4.473,13.92,2.041,28.814,22.042,8.386,2.887,28.099,12.416,40.769,-4.229,54.607,-12.387,-5.838,-280.92,-4.305,-14.955,-32.456,-33.784,-4.499,11.448,19.432,-71.093
2.6848975999996583,9.794,8.074,-51.791,112.957,44.306,7.462,-25.758,32.349,14.334,33.909,32.779,16.062,12.106,36.268,24.187,48.413,0.899,63.261,-3.666,3.389,-271.417,2.36,-13.403,-27.301,-18.381,6.264,20.146,27.61,-66.923
2.688945899999908,14.907,9.091,-54.813,118.48,41.7,4.381,-11.388,33.854,10.734,31.313,31.721,16.558,10.044,27.01,25.699,48.877,-6.787,53.464,-10.834,1.849,-275.244,-0.716,-12.878,-32.909,-24.51,7.795,21.663,35.779,-72.492
2.7009539999999106,8.744,13.18,-61.418,124.509,46.269,5.914,11.165,28.185,7.649,34.868,27.591,12.955,7.473,21.348,24.137,47.804,-8.829,50.337,-12.361,0.31,-271.383,-1.74,-11.328,-34.925,-33.708,6.25,19.592,35.743,-67.809
2.7010151999998016,9.76,22.389,-47.012,126.946,55.444,13.08,6.031,31.23,13.277,38.932,36.785,17.553,17.199,31.06,34.359,53.391,-1.136,63.094,-1.59,9.531,-259.841,9.532,-8.755,-25.156,-19.841,17.514,26.744,43.392,-62.618
2.7149796999997307,10.775,24.415,-37.231,123.745,49.241,12.042,-7.807,28.125,8.653,36.331,41.871,21.122,18.719,31.029,35.861,55.899,-4.721,63.031,2.51,13.108,-258.556,11.06,-5.672,-22.57,-14.699,21.083,28.255,47.96,-62.043
2.7299536999998963,6.154,17.731,-45.903,123.621,39.97,8.956,-15.484,25.535,3.009,35.27,33.12,14.953,11.528,24.85,28.141,53.282,-7.278,56.308,-1.078,7.459,-258.298,1.315,-7.716,-29.719,-22.881,9.791,19.005,43.301,-57.37
2.7300139999997555,5.635,10.541,-58.665,126.059,44.029,5.874,-18.03,32.682,10.178,35.747,26.427,11.864,13.053,28.924,27.6,52.716,-0.098,59.838,-5.176,1.304,-255.99,-2.273,-14.881,-35.837,-24.907,4.146,15.912,42.233,-69.096
2.7300532999997813,-0.006,0.284,-72.439,120.298,42.448,-2.841,-35.431,32.137,6.582,31.101,27.425,12.365,12.015,24.797,23.987,48.565,-6.246,61.315,-12.343,-3.308,-261.882,-7.394,-21.526,-42.974,-28.468,0.556,12.822,39.629,-93.617
2.7450266999999258,-5.129,-6.888,-79.026,109.931,32.159,-5.912,-46.666,20.834,-3.159,24.922,27.398,6.717,3.806,15.038,21.401,41.857,-15.461,56.13,-15.404,-4.329,-262.645,-13.534,-22.017,-49.078,-26.391,-4.568,4.612,29.856,-87.376
2.749073799999678,2.049,-1.246,-68.701,113.408,31.615,0.753,-13.832,18.764,4.017,28.996,26.858,8.247,7.389,25.781,29.577,45.913,-6.224,59.661,-9.241,0.286,-252.648,-4.811,-15.847,-42.882,-8.434,3.121,8.706,30.338,-67.309
2.761649600000055,4.608,4.903,-57.362,125.077,35.169,3.827,18.97,25.405,13.747,38.188,29.905,15.924,17.115,37.026,27.498,53.04,-2.119,63.187,-5.134,1.823,-252.908,5.44,-11.732,-33.105,-7.4,12.34,17.919,37.993,-76.975
2.761710799999946,-0.007,-0.737,-55.767,125.977,31.548,2.798,-13.324,30.503,10.659,34.564,29.363,11.809,11.463,29.305,13.126,49.4,-10.314,60.05,-8.715,-2.79,-259.315,0.311,-17.356,-34.096,-26.861,7.204,11.241,37.955,-87.144
2.775082399999974,6.653,-2.786,-52.125,122.777,38.689,3.308,-45.586,36.108,7.575,26.332,27.284,7.187,3.767,26.714,16.186,46.789,-9.279,62.039,-8.706,-3.812,-254.957,-2.763,-18.363,-38.161,-27.859,5.66,7.644,36.892,-68.614
2.775147299999844,12.281,9.0,-44.389,137.511,50.433,9.964,-21.462,43.244,11.666,32.966,33.917,17.938,9.911,35.396,27.953,54.427,-4.659,66.076,-2.549,4.389,-247.018,6.461,-10.148,-33.512,-18.097,13.851,16.345,46.077,-57.787
2.790087699999731,6.121,14.626,-44.857,155.304,43.723,15.077,11.347,43.713,16.265,39.593,37.982,20.994,15.536,32.799,22.802,54.373,-6.191,62.423,-3.059,7.458,-244.209,5.943,-9.626,-27.331,-22.689,13.838,15.817,53.715,-69.512
2.790151899999728,0.48,3.853,-51.472,150.538,27.285,5.841,29.266,31.887,11.638,29.819,26.673,10.214,8.348,28.156,11.509,43.048,-6.185,60.824,-11.253,0.791,-248.063,-7.383,-15.764,-34.476,-22.154,1.528,5.555,45.977,-77.64
2.8050892999999633,-2.082,-2.811,-50.908,141.679,23.672,-6.46,27.7,19.047,1.892,20.056,18.449,6.618,1.68,33.763,9.96,38.394,-5.154,65.374,-16.365,-5.358,-255.5,-13.011,-18.822,-42.638,-7.788,-4.108,1.963,39.783,-73.976
2.8217153000000508,2.018,8.975,-44.197,154.857,31.333,-4.405,-4.603,25.176,2.403,22.085,22.529,9.685,3.215,37.316,13.536,41.942,-6.686,66.333,-14.299,-6.377,-255.757,-7.875,-17.778,-35.423,-1.632,6.654,4.523,55.625,-69.291
2.835560799999712,14.306,31.999,-33.869,183.223,44.582,4.311,-53.743,45.099,8.545,26.65,27.091,13.761,6.793,38.774,19.141,46.465,-8.721,66.2,-8.125,-4.314,-248.073,1.869,-10.059,-16.916,-0.098,27.635,13.22,88.798,-65.059
2.83562559999973,13.779,27.357,-35.372,177.917,43.513,4.307,-20.902,40.956,4.95,25.086,25.015,15.284,6.787,39.248,20.147,47.955,-9.736,68.183,-8.117,-1.236,-244.751,1.355,-6.975,-18.949,-2.147,22.484,15.769,83.586,-67.555
2.850161500000013,13.253,18.62,-35.849,163.907,40.396,-0.82,-14.733,28.619,2.896,27.11,28.063,15.781,9.854,40.745,19.102,50.981,-9.727,68.114,-8.621,-0.21,-245.018,2.378,-10.555,-22.004,-0.608,18.875,10.117,73.769,-62.365
2.850224799999978,19.387,20.138,-35.813,157.595,41.38,-4.918,-28.551,32.177,12.115,31.182,30.597,15.766,14.455,43.266,20.62,55.029,-7.155,68.046,1.121,2.864,-243.749,9.548,-4.396,-11.736,-1.632,27.053,11.644,80.355,-56.155
2.8651921000000584,15.782,27.29,-36.29,166.659,43.9,0.21,-22.374,43.415,19.787,34.224,33.64,22.922,19.051,48.858,25.21,60.609,-5.099,74.126,12.903,10.546,-238.382,19.785,7.391,0.059,-2.655,34.199,20.342,90.521,-64.295
2.8652498999999807,9.618,27.776,-36.253,179.3,42.319,9.431,-54.627,48.495,18.23,36.239,34.119,22.899,19.032,52.396,23.135,61.061,-4.069,79.687,10.329,10.535,-235.07,18.228,3.798,-5.576,6.057,31.091,14.686,87.868,-77.039
2.880158599999959,10.121,16.989,-37.754,176.047,35.617,3.786,-86.848,47.934,12.065,29.031,22.302,8.532,8.254,46.708,14.403,51.266,-9.188,73.972,-1.977,-2.283,-244.568,3.353,-8.502,-24.014,14.76,18.252,-0.698,77.534,-80.036
2.8842319999998836,2.426,10.825,-39.766,169.211,30.458,-11.074,-53.974,39.177,5.392,18.243,13.058,3.4,-0.975,35.903,6.704,44.555,-15.839,65.189,-7.098,-9.453,-252.521,-6.897,-12.591,-30.65,5.523,8.5,-2.746,74.895,-78.419
2.8958794000000125,-0.65,20.548,-35.115,180.825,34.014,-11.063,-21.132,29.404,7.949,21.811,20.729,12.618,5.685,34.842,6.697,51.17,-10.7,70.247,-2.48,-2.783,-243.047,-0.742,-7.968,-17.811,0.395,17.713,5.966,86.604,-74.242
2.89594199999965,8.06,22.576,-30.982,188.329,38.078,-4.392,-53.386,37.572,12.551,29.474,26.344,13.63,11.827,42.492,12.838,55.217,-5.566,79.398,-1.453,0.293,-241.779,3.87,-4.886,-11.646,16.788,25.38,7.497,92.152,-74.167
2.9093152000000373,6.515,12.308,-41.709,178.406,33.942,-5.412,-85.608,52.391,8.44,25.346,19.658,9.518,5.156,44.499,13.338,46.965,-11.196,72.659,-8.624,-4.83,-254.857,-2.794,-10.517,-21.88,19.845,13.571,0.317,85.913,-87.413
2.909381499999654,-2.713,13.32,-58.573,178.228,31.346,-5.407,-81.936,47.215,4.846,21.222,16.564,10.533,1.564,45.479,4.615,42.307,-12.722,64.901,-13.738,-8.411,-256.139,-5.353,-15.629,-21.858,-0.154,11.508,-2.757,86.851,-96.547
2.9242984999996224,-3.223,13.819,-55.441,182.661,31.827,-6.938,-49.067,31.799,4.841,20.176,18.597,10.01,4.124,51.069,-1.025,43.802,-7.074,69.447,-13.212,-7.891,-251.785,-3.298,-12.54,-14.664,-2.716,21.743,0.832,88.301,-85.18
2.9243640999998206,-1.683,0.485,-41.553,171.207,30.771,-18.715,-33.136,25.619,0.738,15.545,13.967,7.439,-0.491,51.53,3.587,40.684,-8.091,74.501,-12.687,-9.42,-257.681,-6.881,-13.04,-23.359,14.705,17.11,-2.243,73.868,-79.972
2.9393708999996306,0.881,0.485,-40.487,162.839,37.913,-19.72,-65.379,29.18,2.274,17.067,15.49,11.53,-0.49,49.942,10.756,44.23,-5.522,79.037,-5.502,-5.312,-252.812,-2.776,-15.076,-25.897,14.691,14.02,-3.266,72.258,-89.626
2.943377099999907,1.392,15.341,-44.545,174.972,48.633,-2.795,-87.342,39.397,12.518,28.833,28.795,19.715,10.781,57.064,16.893,57.506,3.193,89.717,6.799,6.477,-238.215,11.059,-3.79,-8.453,1.868,28.862,8.521,92.165,-87.999
2.955922399999963,-5.269,15.838,-42.451,186.067,44.486,0.794,-62.152,46.53,15.067,31.878,32.865,20.72,13.844,58.544,16.363,57.96,1.653,88.602,6.28,8.519,-240.026,9.511,1.849,-7.932,9.039,28.834,10.562,94.122,-83.813
2.969402700000046,-3.215,6.088,-48.557,186.394,36.245,-8.94,-62.602,40.336,9.929,26.723,24.122,14.039,8.195,49.264,7.126,46.632,-7.57,76.218,-1.923,-0.711,-250.032,-2.794,-10.448,-22.781,24.911,14.972,-1.744,80.708,-99.098
2.9694753999997374,5.498,7.619,-56.705,187.232,39.282,-6.37,-88.667,39.271,8.894,25.671,22.049,11.976,7.675,48.19,5.581,48.122,-9.1,73.068,-1.409,-2.759,-247.733,0.283,-12.999,-16.61,16.689,20.593,-0.206,89.337,-108.221
2.969523499999923,-0.143,15.808,-52.55,193.705,43.854,3.37,-66.549,51.015,11.447,28.72,26.638,16.575,8.691,53.265,9.674,54.222,-7.554,76.069,-1.92,0.83,-243.386,5.918,-2.74,-5.835,-1.258,28.769,7.479,103.592,-99.403
2.9843189999996866,-5.778,16.817,-49.423,203.245,43.81,1.318,-33.695,49.427,14.509,30.228,27.636,15.534,6.634,49.113,5.054,49.044,-10.108,73.431,-8.066,-2.245,-248.266,-2.797,-7.86,-14.026,2.842,21.056,2.861,97.341,-95.205
2.9843901999997797,7.547,13.214,-52.448,206.628,41.717,-2.27,-44.932,41.18,14.495,29.685,25.559,13.981,7.652,45.99,0.438,43.872,-12.147,70.796,-9.082,-5.829,-250.067,-7.917,-19.123,-18.111,11.548,15.912,-1.24,91.608,-99.209
2.9992860999996083,15.737,13.201,-45.735,200.273,40.138,3.88,-77.163,52.922,14.992,29.656,27.07,18.066,10.718,53.116,2.487,47.414,-8.549,75.336,-4.975,-2.749,-244.694,-2.786,-12.956,-8.871,12.049,21.531,3.372,97.152,-97.06
3.0146719999997913,1.889,14.212,-40.567,196.487,40.61,6.95,-76.061,60.554,19.588,32.187,29.605,18.048,13.781,56.137,-1.614,49.416,-3.417,79.36,-2.92,0.327,-242.912,0.29,-7.82,-5.276,18.184,24.583,3.368,98.592,-91.328
3.0147374999996828,-10.921,8.563,-49.235,193.729,37.496,-1.254,-64.714,48.198,17.007,29.081,23.94,10.345,11.206,54.032,-7.76,44.756,-6.487,77.743,-2.918,-2.235,-247.792,-3.809,-13.448,-7.32,15.605,21.485,-0.734,91.321,-90.212
3.0293360999999095,-4.762,2.919,-54.309,190.461,30.286,-8.937,-75.408,44.564,7.256,19.319,12.645,5.724,4.022,53.978,-10.826,37.539,-10.067,75.104,-8.038,-9.917,-251.643,-10.977,-16.508,-9.362,-1.317,13.779,-6.368,86.106,-97.806
3.0293988999997055,3.439,4.453,-51.693,200.517,29.231,-9.953,-52.791,48.105,8.786,16.738,10.071,7.767,1.969,54.436,-17.988,37.502,-5.446,79.127,-11.616,-12.469,-249.342,-14.04,-15.98,-11.402,-2.853,10.691,-8.924,90.631,-103.856
3.0443341999998665,0.874,11.621,-50.105,216.71,34.837,-6.357,-19.95,40.885,13.388,24.406,19.795,12.883,5.553,54.894,-18.482,46.173,-2.879,84.171,-4.432,-2.21,-242.945,-4.804,-12.377,-4.218,4.835,19.902,-1.23,104.373,-94.018
3.044397199999821,5.484,20.318,-42.37,217.518,39.926,-1.227,-52.206,43.405,11.838,29.504,25.41,14.919,9.646,53.814,-8.73,48.689,-9.024,81.013,0.696,5.989,-237.579,3.91,-6.217,8.081,5.342,27.567,6.456,112.465,-87.264
3.05934759999991,12.139,17.224,-36.18,208.079,37.836,0.311,-84.429,55.657,11.313,26.401,19.749,10.293,8.612,52.224,-10.77,41.468,-12.601,74.272,-6.477,-2.214,-239.391,-3.267,-9.285,3.975,13.534,23.441,0.302,107.23,-98.96
3.0594122999996216,2.393,3.887,-48.439,200.186,26.528,-5.837,-51.557,47.917,9.253,21.251,13.582,5.672,0.406,48.585,-24.592,36.303,-14.638,72.149,-14.155,-12.458,-246.324,-13.509,-16.448,-6.275,20.18,16.245,-6.871,100.462,-106.033
3.0747228999998697,-3.757,2.858,-57.1,200.499,21.378,-9.93,-18.718,35.574,8.731,20.206,16.13,8.741,-0.619,48.537,-27.129,36.267,-15.648,73.614,-10.043,-8.347,-246.077,-8.885,-14.382,-1.658,11.963,15.717,-4.815,103.436,-104.39
3.07478859999992,12.128,15.663,-44.235,214.643,33.652,-1.723,-36.117,47.834,18.456,26.845,22.774,21.539,11.165,55.66,-15.831,39.817,-7.435,77.126,-3.373,1.395,-235.585,0.345,-8.733,5.516,17.587,22.873,2.875,113.579,-103.774
3.089751499999693,21.337,20.258,-35.994,229.797,42.328,6.476,-68.357,62.13,21.512,34.503,25.825,30.227,17.301,61.24,-5.569,44.388,-1.28,80.635,-2.345,2.931,-228.69,1.37,-6.675,7.047,30.377,31.047,6.97,120.125,-89.838
3.0898153999996794,7.484,10.504,-48.253,219.834,34.601,-2.752,-35.5,49.261,11.244,27.809,18.627,20.975,8.062,53.494,-13.248,40.245,-9.476,80.042,-9.002,-6.293,-233.584,-5.292,-13.328,8.065,10.879,24.868,-1.234,110.783,-84.625
3.104429099999834,-8.405,-4.875,-63.574,192.974,22.783,-20.168,-2.677,25.645,-0.038,9.85,3.239,6.098,-4.241,43.707,-31.165,27.397,-19.2,72.277,-20.264,-18.583,-243.084,-17.582,-25.098,-3.726,-17.309,7.425,-14.552,89.668,-115.279
3.1193960999999035,-9.934,-13.58,-69.146,186.633,17.637,-23.734,-34.95,26.132,-4.649,6.254,-0.863,9.678,-5.774,48.274,-27.548,23.783,-14.57,70.668,-19.219,-18.052,-241.817,-21.15,-24.56,-13.969,-8.583,3.832,-15.562,87.017,-136.68
3.1194578999998157,-0.19,-1.783,-60.88,206.426,26.841,-10.902,-67.19,47.623,5.602,23.666,15.532,23.5,8.577,61.546,-6.516,35.543,-0.211,83.918,-1.782,-3.177,-226.718,-2.686,-8.142,3.976,20.628,22.783,-2.739,111.008,-120.15
3.1194980999998734,5.446,13.588,-50.061,219.54,38.597,-0.645,-34.336,55.26,22.503,33.376,25.25,25.526,18.302,67.12,-5.485,45.241,2.863,92.543,7.442,3.999,-215.733,11.149,3.649,22.927,29.828,38.642,5.46,124.729,-103.123
3.136438199999702,0.829,8.964,-54.621,218.808,29.337,-2.694,-5.612,45.983,16.845,24.634,16.516,19.353,7.525,58.343,-18.287,42.122,-7.898,84.253,-0.763,-2.153,-219.615,4.478,0.572,18.294,21.089,31.943,1.357,113.334,-101.483
3.136506599999848,0.316,1.782,-59.177,222.176,22.136,-8.327,-37.882,43.375,6.582,21.023,11.376,16.26,1.882,49.576,-14.17,36.444,-10.452,81.095,-4.348,-5.737,-221.957,-1.675,-4.039,14.689,24.142,21.153,-3.256,107.073,-101.382
3.1494447999998556,1.341,5.879,-50.409,222.978,34.409,-8.831,-40.405,45.381,10.674,23.563,12.389,16.243,7.003,51.575,-11.082,32.822,-7.367,83.576,-6.393,-9.317,-221.223,-4.234,-6.597,14.162,32.827,19.595,-5.814,114.138,-108.965
3.1495083999998315,-14.03,1.775,-51.896,209.435,29.764,-12.92,-7.577,37.139,4.515,14.831,5.205,11.616,-0.688,48.45,-23.879,27.666,-20.168,75.808,-18.682,-18.53,-227.149,-15.501,-13.763,4.414,15.376,13.427,-14.005,112.487,-123.201
3.1644545999997717,-22.725,-5.912,-63.627,206.664,14.365,-17.006,-15.254,31.979,-3.686,8.156,0.076,7.506,-6.835,41.741,-30.515,23.54,-26.808,72.146,-20.2,-20.048,-229.484,-20.609,-20.409,2.873,-10.255,7.266,-18.602,107.252,-129.738
3.1794684999999845,-8.87,-0.783,-57.928,217.728,21.523,-12.89,-47.514,39.631,5.539,13.783,5.199,8.011,-0.168,42.724,-24.849,25.053,-14.485,76.684,-12.495,-14.393,-221.57,-15.465,-19.876,11.579,-5.121,12.894,-12.948,109.706,-121.923
3.1795271999999386,-6.3,-0.27,-49.673,216.998,25.6,-13.902,-58.225,45.739,5.021,13.257,7.756,8.515,-3.242,43.706,-23.8,26.053,-12.422,75.071,-18.118,-17.452,-218.787,-18.011,-21.393,5.42,16.913,13.906,-10.373,105.498,-105.92
3.1944925999996485,-16.027,-4.88,-54.746,214.732,15.328,-20.548,-65.852,44.157,-2.156,8.121,6.211,8.507,-5.8,46.736,-26.337,27.051,-15.483,79.094,-19.637,-18.459,-219.08,-18.505,-21.884,-1.758,25.605,9.794,-12.924,99.757,-100.178
3.198462099999688,-5.253,1.272,-53.155,227.325,18.386,-13.868,-50.929,43.088,7.58,14.26,8.254,13.109,3.939,59.497,-20.676,31.123,-4.709,88.749,-7.834,-8.195,-211.176,-8.241,-13.665,6.441,21.993,16.956,-9.325,111.952,-112.886
3.2113806999996086,4.486,5.37,-44.905,234.27,25.54,-7.706,-18.09,43.557,9.109,17.32,11.32,14.633,3.423,62.512,-13.995,33.653,-2.143,85.586,-7.827,-6.649,-206.355,-6.695,-11.09,12.07,17.873,24.112,-5.218,123.111,-119.433
3.2114465999998174,-7.814,6.389,-46.909,230.962,25.515,-10.772,-5.777,43.001,3.977,18.839,15.407,16.155,2.907,56.814,-8.346,35.669,-7.264,83.451,-8.331,-8.692,-203.587,-6.176,-13.641,15.132,16.318,25.624,-1.626,124.013,-105.481
3.224566599999889,-5.757,16.629,-48.399,236.366,34.198,-0.003,-25.239,50.131,18.83,32.141,21.539,23.311,17.761,62.392,-2.702,41.781,-1.109,91.565,4.485,1.563,-195.698,3.564,-7.479,24.85,17.839,32.259,5.548,133.11,-96.154
3.2246320999997806,13.205,16.612,-42.715,243.814,38.263,10.243,-30.849,57.253,25.984,35.182,20.493,22.776,17.744,63.355,-5.261,40.714,-4.694,87.887,-0.13,2.586,-196.527,-2.075,-5.935,22.776,26.53,31.202,0.931,140.662,-105.28
3.239583599999605,11.142,7.374,-40.111,242.546,29.003,-1.55,-8.277,51.048,14.175,22.339,15.349,15.581,4.406,55.094,-12.428,31.964,-11.349,80.627,-13.962,-11.249,-201.454,-14.881,-14.126,14.044,37.262,21.437,-8.291,134.373,-115.421
3.239647899999909,-2.189,11.977,-40.583,243.328,29.999,-4.11,-1.096,50.484,16.21,25.391,16.871,19.151,9.525,60.675,-10.878,34.494,1.47,90.28,-4.727,-9.701,-193.056,-6.669,-8.989,22.739,29.54,26.539,-1.11,131.165,-110.182
3.2545749999999316,-1.674,15.039,-41.567,242.06,32.53,4.603,-33.37,64.266,24.903,35.099,19.416,23.23,17.712,67.786,-8.306,41.119,6.591,96.338,1.938,0.555,-189.789,-0.515,-3.344,29.889,10.043,33.684,2.989,134.108,-104.949
3.2588928000000124,-0.136,4.778,-40.501,235.67,24.301,-2.574,-51.268,65.227,18.73,25.33,13.761,13.986,9.497,59.009,-14.958,32.881,-6.223,88.557,-8.31,-7.13,-199.333,-11.273,-15.636,16.027,11.058,24.429,-6.235,129.875,-113.041
3.271440199999688,-4.747,1.187,-38.923,237.484,20.69,-12.305,-18.429,49.792,12.564,14.547,7.087,7.824,0.779,54.852,-20.066,26.701,-5.192,86.931,-8.814,-13.783,-201.183,-12.798,-19.207,11.4,19.243,19.794,-8.278,126.159,-125.223
3.2715071999996326,-4.742,5.797,-49.131,243.906,22.206,-7.682,5.668,51.279,14.6,19.143,8.617,11.402,0.778,61.457,-19.021,32.822,0.448,90.43,-3.17,-7.109,-194.834,-10.224,-10.991,17.536,18.712,22.848,-4.172,132.181,-130.733
3.2847121999998308,1.923,11.426,-55.229,243.15,24.746,-1.526,-26.613,67.622,21.246,28.345,15.781,14.465,9.486,62.932,-16.441,34.838,-1.601,90.34,-3.679,-4.541,-190.028,-12.775,-10.98,12.908,32.525,21.288,-3.655,143.832,-124.455
3.2847798999996485,13.192,19.099,-35.706,245.469,34.967,4.11,-37.857,72.165,29.934,37.026,24.474,19.573,20.748,62.869,-6.178,35.828,4.036,93.323,4.521,-2.487,-181.129,-4.566,-7.895,14.944,44.276,28.439,2.496,145.225,-101.789
3.299722599999768,14.716,19.593,-25.424,252.395,39.031,8.205,-5.032,68.507,32.465,40.575,30.597,26.726,23.801,67.417,2.537,46.038,10.179,98.866,14.763,6.737,-172.238,8.247,2.871,32.348,28.863,43.268,10.691,135.858,-84.269
3.2997904999997445,1.893,14.45,-37.694,255.217,30.282,4.61,-1.953,69.463,30.896,38.485,28.517,25.675,22.24,67.862,-0.539,47.529,8.12,101.84,15.773,10.317,-172.579,8.751,5.942,39.488,29.858,45.786,9.655,136.234,-99.041
3.3147009999997863,-0.158,15.972,-35.608,258.036,27.691,1.02,-22.955,69.393,31.89,36.91,21.317,20.526,22.73,65.233,-2.588,36.723,8.624,103.788,14.732,4.671,-174.455,4.131,2.35,37.399,43.661,41.642,6.059,146.344,-119.435
3.3187063000000308,15.724,15.444,-23.789,259.314,34.835,2.043,-6.539,67.275,31.345,35.849,21.295,22.042,22.195,67.217,2.538,37.711,8.616,104.196,14.205,3.642,-173.256,2.59,-1.238,42.485,26.711,41.6,6.053,144.661,-108.044
3.331561999999849,15.708,14.404,-29.4,257.006,40.948,6.14,20.108,70.794,31.826,36.837,28.959,26.119,22.685,75.346,4.585,46.383,8.607,106.141,13.679,7.736,-168.472,4.124,-1.749,43.979,25.66,42.071,9.121,142.98,-98.202
3.3316299999996772,-1.214,17.976,-38.08,256.237,39.37,7.158,-5.015,73.284,31.795,36.288,28.417,24.043,22.15,76.808,3.556,41.725,12.185,107.06,12.128,5.68,-167.279,3.096,-1.235,31.127,56.885,34.344,8.6,145.91,-120.646
3.344847200000004,-4.287,8.224,-41.628,251.882,29.085,-3.607,-37.286,66.039,21.517,24.981,14.557,14.798,12.906,66.485,0.99,29.901,3.975,95.682,2.382,-5.597,-175.309,-10.227,-11.992,18.289,46.582,20.99,-2.167,130.908,-131.796
3.344917799999621,0.841,-8.69,-51.321,242.921,21.883,-17.436,-27.002,56.751,14.835,15.222,6.345,9.66,6.746,58.734,-5.158,28.334,-6.275,85.34,-6.329,-15.325,-181.281,-19.439,-21.202,16.733,15.797,14.821,-10.362,115.407,-118.344
3.359796599999754,-6.332,-6.633,-55.368,239.092,22.886,-17.419,5.813,51.571,15.845,17.769,8.9,10.675,8.276,59.188,-10.788,31.892,-2.682,90.378,-0.688,-11.724,-173.415,-9.685,-13.496,21.84,22.441,19.929,-8.302,124.001,-121.3
3.3747857999996995,-10.424,-0.991,-46.603,236.803,23.375,-13.815,11.954,46.909,12.755,16.726,8.891,9.64,5.706,59.128,-12.315,31.347,-4.217,94.386,3.412,-8.126,-167.094,-3.528,-7.335,24.892,24.98,25.032,-5.733,129.0,-134.498
3.3748444999996536,0.344,-3.551,-38.872,235.542,26.426,-15.851,-20.333,51.985,15.816,15.685,7.858,8.093,5.188,58.557,-6.667,29.267,-9.848,89.169,1.871,-10.679,-167.952,-6.598,-9.889,27.428,11.635,28.081,-2.141,123.748,-128.728
3.3906404999997903,3.418,2.6,-41.907,242.991,33.059,-10.712,-46.953,67.302,26.559,24.378,12.461,12.696,12.868,60.548,2.561,32.824,-2.666,95.739,8.017,-6.57,-162.148,-3.006,-2.195,34.061,32.116,34.713,2.984,131.309,-118.866
3.3907061999998405,-10.418,8.233,-43.914,250.433,31.489,-9.164,-21.29,67.747,23.971,20.768,12.961,13.195,14.392,65.098,-0.003,36.377,2.46,108.451,11.595,-0.928,-157.375,-0.441,2.931,38.125,60.773,36.215,0.42,136.301,-113.624
3.4049049999998715,-13.993,2.077,-36.698,250.182,24.798,-16.839,11.519,54.36,17.287,11.013,7.312,7.547,9.254,69.644,-8.712,33.779,0.921,105.781,6.461,-5.538,-160.804,-7.613,-4.757,34.501,55.077,31.056,-2.142,130.529,-110.436
3.4049707999997736,-2.196,6.173,-31.538,256.08,30.409,-9.138,24.315,58.404,27.516,22.785,11.916,10.101,15.905,71.111,-1.531,32.208,6.555,100.553,5.942,-7.582,-158.594,-7.605,-7.826,31.393,38.628,31.537,3.496,135.522,-116.474
3.4198121999997966,1.392,20.0,-35.093,266.07,42.161,10.339,-2.349,73.715,37.222,36.595,22.15,19.312,26.647,74.626,8.717,37.299,10.135,106.6,6.96,-1.939,-151.263,-1.45,-5.257,34.435,39.101,34.067,7.078,145.12,-119.431
3.4198707999998987,-5.782,19.98,-27.885,265.291,40.582,7.255,-24.376,71.592,29.5,29.898,21.103,17.244,20.985,77.113,2.56,38.287,7.051,109.055,4.904,-3.986,-148.038,-4.522,-6.788,37.987,44.698,34.033,5.022,149.073,-109.578
3.4348956999997426,-4.751,11.763,-15.05,255.805,25.685,-8.634,-16.667,58.2,17.688,19.11,13.91,7.493,8.157,69.863,-5.639,30.051,7.044,104.847,6.436,-8.08,-145.841,-5.543,-6.269,39.486,36.968,37.073,4.505,150.461,-107.931
3.434951700000056,1.913,8.677,-27.842,248.889,18.487,-10.675,-4.355,55.068,20.231,17.554,12.871,10.047,9.686,64.67,-2.047,29.509,6.524,109.353,7.454,-6.023,-142.109,-1.439,-4.214,41.496,31.808,40.622,5.525,146.725,-111.41
3.451698999999735,-0.138,10.205,-45.745,254.275,31.276,-3.492,-9.474,66.796,31.994,25.221,17.469,18.746,18.897,70.753,4.615,38.189,6.518,116.928,3.861,-8.066,-139.917,-3.486,-8.308,41.454,49.707,40.582,9.618,145.041,-107.712
3.45176309999988,-1.675,17.367,-32.38,271.439,44.052,3.684,-14.588,79.537,34.524,34.417,22.575,17.703,22.465,73.244,5.122,38.663,10.61,116.811,6.418,-8.058,-134.654,-1.434,-6.25,41.413,62.465,43.103,16.78,156.679,-108.117
3.465901699999904,4.987,22.473,-14.929,276.291,39.397,8.291,0.284,75.871,29.366,33.871,23.065,13.586,22.442,71.122,4.605,35.038,9.575,116.695,12.56,-1.39,-128.372,7.277,1.953,42.908,49.595,47.67,18.3,162.158,-105.447
3.47995949999995,7.544,16.815,-23.111,260.646,31.673,0.598,14.116,63.5,29.337,25.127,16.894,13.573,16.272,70.538,5.625,33.466,3.93,115.041,6.912,-3.95,-128.756,0.097,-4.197,38.767,38.787,43.012,11.622,151.237,-102.268
3.480018100000052,-3.735,5.015,-33.846,251.676,29.08,-11.698,-15.612,59.85,22.648,16.905,7.143,8.948,4.473,64.32,-0.016,24.723,3.413,104.68,-6.415,-15.73,-131.701,-17.321,-19.562,25.92,33.625,30.161,3.414,140.327,-115.998
3.4800608000000466,-11.928,2.449,-26.64,257.572,25.465,-12.198,-47.872,64.401,12.891,12.79,2.013,3.304,2.931,61.182,-9.75,19.063,3.41,100.989,-8.458,-17.251,-127.983,-17.304,-18.518,21.284,28.468,25.008,0.849,140.187,-122.542
3.4949973999996473,-4.231,9.619,-17.392,261.413,21.853,-6.551,-45.775,66.386,19.538,15.851,6.622,5.35,11.125,68.293,-8.203,26.217,2.382,108.573,0.772,-10.573,-119.658,-7.04,-7.741,30.484,38.174,30.618,3.922,147.219,-109.611
3.4950582999999824,3.97,12.683,-25.571,260.127,18.758,-10.13,-12.941,56.073,24.129,17.884,11.226,8.419,10.09,67.712,-1.535,28.24,5.454,111.025,2.308,-9.026,-115.44,-7.033,-10.807,33.015,45.308,35.198,4.43,150.146,-110.014
3.511864599999626,-2.694,7.035,-35.792,259.866,17.714,-14.731,19.859,47.308,15.908,15.817,8.653,7.898,8.543,66.108,-5.12,24.113,8.522,107.328,-3.842,-11.578,-113.276,-10.1,-14.382,28.883,34.504,36.188,3.913,142.823,-119.126
3.511932500000057,-3.716,11.126,-28.072,264.73,27.43,-3.958,-12.436,61.093,25.114,23.998,12.743,10.964,20.317,77.825,-4.09,30.749,12.612,113.369,4.359,-6.444,-102.404,-3.43,-4.122,35.002,38.056,42.299,9.032,143.705,-111.322
3.5250475999996524,10.632,22.386,-21.896,277.273,35.088,6.805,-44.699,74.352,37.384,32.684,21.439,15.051,24.395,81.845,6.673,36.353,16.698,118.891,19.212,2.272,-91.543,3.746,2.542,41.627,54.412,47.892,14.659,156.369,-105.575
3.525110599999607,13.183,19.29,-31.095,281.094,29.417,-1.399,-21.088,64.544,26.076,23.942,16.295,12.475,13.612,73.567,7.178,32.731,12.583,116.21,16.119,1.245,-90.427,0.668,-3.608,40.049,47.185,44.771,13.62,154.164,-113.154
3.5400574000000233,1.387,14.66,-20.306,273.64,27.851,-7.033,-11.845,63.455,23.488,19.307,14.742,11.438,14.623,74.518,1.536,34.235,13.595,122.242,9.442,-1.318,-85.213,-1.894,-4.629,43.595,31.256,42.164,13.094,149.911,-114.066
3.555139799999779,3.435,23.354,2.768,276.953,34.995,5.269,-31.813,81.834,39.347,32.095,27.022,17.574,26.904,81.615,8.706,39.836,25.364,131.341,17.118,5.856,-72.32,0.669,0.499,48.162,34.299,47.757,15.642,161.544,-106.779
3.555219500000021,10.604,20.257,-11.067,279.237,29.325,5.776,-13.851,75.093,36.233,31.039,21.872,16.019,23.291,79.485,11.259,36.21,23.289,122.5,14.539,4.313,-73.273,-0.868,-2.575,39.917,41.437,47.197,11.528,158.309,-106.673
3.570161999999982,-4.264,2.306,-39.745,261.027,18.025,-15.746,7.168,49.914,22.365,13.077,1.87,3.196,9.435,73.77,-1.047,25.928,9.946,106.496,-3.406,-10.548,-79.347,-10.089,-12.819,28.094,43.957,35.367,-0.267,137.146,-114.763
3.5742701999997735,-19.629,0.254,-33.557,253.594,20.056,-20.341,-13.844,53.451,25.416,11.527,2.381,1.143,9.938,72.159,-3.608,23.34,13.01,108.439,-5.452,-10.538,-68.509,-12.64,-15.88,24.48,50.573,27.647,-0.266,135.472,-117.21
3.586992900000041,-5.265,10.5,-20.204,268.197,28.233,-4.952,-31.249,71.328,32.051,23.811,13.137,10.364,18.638,74.648,5.105,28.44,19.657,117.552,6.336,-0.281,-55.633,-6.48,-9.716,28.041,52.572,32.743,9.468,146.607,-114.531
3.5870617000000493,9.598,10.49,-29.918,271.003,28.205,-2.898,-41.464,70.744,28.945,23.787,11.074,9.329,16.057,74.574,2.026,26.362,13.49,112.824,4.281,-4.379,-55.065,-7.498,-8.682,31.599,43.81,36.296,7.921,146.46,-123.638
3.6001847999996244,-0.146,9.455,-36.035,265.609,24.59,-8.018,-54.23,67.087,25.33,19.665,9.014,2.659,10.918,69.888,-4.124,20.188,9.378,104.514,-2.384,-8.473,-50.399,-11.589,-12.772,31.056,38.131,34.21,2.79,147.851,-131.711
3.60025399999995,-6.293,20.204,-24.216,280.2,28.664,1.212,-25.999,70.606,29.915,28.354,15.665,5.218,18.08,72.892,2.54,26.828,13.467,110.045,4.791,-0.268,-41.127,-4.917,-6.611,36.66,43.216,41.861,10.472,159.486,-112.112
3.6152758999996877,2.934,25.307,-16.507,293.24,34.783,5.821,6.815,68.999,36.545,34.986,18.723,9.824,24.209,75.381,11.247,34.486,15.503,118.132,10.934,1.782,-36.475,0.723,2.617,46.357,48.808,52.065,17.122,165.987,-92.02
3.615343099999791,3.956,16.572,-22.639,279.115,32.699,-1.869,-23.93,65.856,33.947,28.803,17.168,9.302,19.062,65.572,15.847,28.816,13.95,115.965,8.362,-1.294,-32.853,-2.352,0.565,42.725,54.907,47.402,12.494,157.111,-102.686
3.630149099999926,-3.22,15.019,-28.251,265.515,31.642,1.207,-56.182,77.061,34.938,30.824,21.249,13.391,21.092,67.043,18.392,30.324,17.01,116.873,13.476,4.855,-24.623,2.261,0.564,37.046,64.585,46.33,11.969,153.368,-119.49
3.6343189999997776,-2.192,23.2,-25.149,278.058,39.807,14.013,-39.219,89.792,46.686,41.039,26.863,19.013,32.342,85.419,19.399,38.491,23.653,123.416,20.123,9.973,-17.938,8.919,3.638,45.719,61.447,54.481,18.105,163.461,-122.956
3.660167999999885,1.396,19.591,-24.612,291.612,37.206,12.974,-6.393,81.505,44.59,34.85,20.176,15.408,28.723,84.309,17.33,31.792,21.58,120.731,11.906,1.766,-18.945,-0.824,-4.051,42.087,42.43,47.766,13.476,158.174,-114.124
3.660233299999618,-2.192,10.35,-26.636,284.66,25.898,0.666,-18.681,72.714,31.738,22.008,8.885,6.683,17.424,70.393,11.165,23.564,13.362,113.951,4.722,-7.457,-21.488,-7.483,-9.682,26.675,32.654,36.96,2.192,140.085,-93.005
3.6602854999996453,-11.923,17.512,-19.437,277.203,28.433,0.153,-23.274,80.838,35.292,26.084,10.926,5.652,20.993,78.519,8.592,30.2,19.496,116.398,11.889,-2.839,-14.294,1.746,0.574,33.821,43.892,44.608,4.751,150.704,-90.863
3.660327999999936,-16.522,21.081,-12.758,275.902,31.479,2.714,9.537,74.61,41.405,30.669,15.525,7.183,26.095,87.662,11.145,30.17,25.112,116.282,12.39,1.263,-5.57,2.769,3.647,46.083,57.168,49.686,11.918,169.508,-114.851
3.6752150999996047,-7.796,6.203,-26.065,268.453,17.103,-7.022,15.163,58.141,33.166,21.417,7.825,3.59,17.359,72.205,10.109,19.381,11.767,104.895,-1.967,-11.034,-8.126,-12.603,-11.213,29.643,56.086,37.854,4.734,154.482,-123.445
3.675279899999623,-0.104,1.586,-42.945,268.185,12.987,-9.577,-17.127,69.354,29.035,17.297,2.694,2.049,10.17,62.911,1.39,15.263,3.046,100.179,-11.699,-22.294,-9.143,-22.837,-20.936,14.244,44.247,29.106,-1.93,139.983,-122.297
3.6902036999999837,-9.325,11.318,-42.39,273.552,22.196,-2.907,-19.159,75.432,28.493,21.89,5.766,4.096,13.233,71.558,-3.734,17.297,11.752,106.227,-7.589,-16.636,0.6,-19.228,-14.255,23.451,35.494,32.664,3.195,154.188,-137.032
3.707321399999728,-17.513,9.257,-30.052,264.057,16.538,-11.101,13.647,50.254,19.756,18.282,3.198,0.506,13.732,73.535,-3.731,18.305,13.789,109.707,-3.483,-10.472,5.21,-12.036,-9.63,33.674,28.798,38.266,5.241,157.62,-132.284
3.7073876999997992,-11.86,4.125,-25.411,256.108,7.812,-18.262,-9.932,49.691,19.736,13.653,-0.903,-2.568,10.133,69.876,-1.678,18.799,9.677,112.158,-5.017,-14.56,5.205,-12.024,-15.256,31.591,23.134,37.716,3.698,142.093,-109.61
3.707430199999635,-6.725,10.781,-35.12,271.221,17.026,-5.436,-42.198,80.38,32.524,18.763,4.221,2.557,9.61,72.88,3.447,20.829,13.766,118.194,-2.962,-12.496,12.372,-15.598,-14.728,26.436,36.431,34.092,5.744,144.512,-114.111
3.7202296000000388,-6.718,16.918,-40.72,285.295,27.768,4.303,-9.368,87.984,39.664,24.892,10.364,6.653,14.211,79.979,9.591,27.981,21.949,121.15,6.774,-3.774,23.631,-9.435,-2.418,28.971,60.985,40.718,9.837,163.323,-127.829
3.7342624999996588,-1.076,18.438,-30.433,280.399,25.691,-2.361,23.429,76.113,36.038,22.305,8.817,5.11,15.734,82.973,11.631,31.539,22.952,120.516,11.378,-2.746,28.73,-2.253,-0.879,37.652,62.461,50.411,14.95,166.746,-120.529
3.7343221999999514,5.073,13.809,-24.768,268.848,17.468,-9.019,-3.234,71.426,31.391,19.209,5.734,2.543,12.644,80.329,7.009,24.847,17.806,116.809,1.121,-8.891,26.652,-11.472,-13.686,32.491,52.153,42.676,12.886,152.747,-117.847
3.7343636999999035,-0.568,7.135,-29.354,267.554,13.864,-4.399,-17.063,71.355,34.946,23.288,4.704,1.003,15.193,78.711,3.415,22.773,15.739,112.082,-5.54,-12.98,26.625,-20.682,-17.77,19.651,53.637,30.85,4.164,145.422,-125.414
3.7642258999999285,-4.666,15.837,-25.226,280.094,22.047,6.364,-21.145,78.968,42.595,30.437,8.797,5.613,21.838,84.78,7.51,30.435,23.408,118.63,3.687,-7.844,35.82,-8.366,-8.019,27.316,53.584,39.528,7.746,160.646,-121.702
3.780949999999848,3.536,28.116,-17.004,290.573,27.661,9.943,-39.567,88.111,42.041,33.481,14.936,11.755,23.353,90.843,13.138,32.454,28.507,127.733,11.368,0.873,44.494,5.987,-0.326,45.731,52.506,55.37,17.984,174.83,-110.31
3.781015000000025,9.168,19.891,-13.913,284.134,14.825,1.737,-6.739,74.19,33.289,27.812,10.823,8.67,19.744,84.605,11.076,28.835,21.819,121.97,7.77,-0.153,43.937,2.395,-1.351,45.173,54.502,52.754,13.355,167.482,-102.003
3.7810583000000406,3.011,10.65,-14.411,270.53,8.663,-7.999,26.055,54.136,28.645,18.562,1.591,-0.048,13.576,75.298,2.868,24.196,13.6,111.089,3.664,-6.813,42.356,-7.342,-7.497,35.394,45.739,41.942,6.682,157.069,-102.413
3.79438140000002,-1.091,18.836,-19.52,271.797,21.462,-7.479,-6.246,61.767,29.641,16.495,4.663,-1.585,8.952,73.174,1.84,20.585,12.562,111.49,3.66,-6.293,45.9,-9.384,-7.489,35.871,46.717,44.974,12.311,161.01,-110.507
3.794450599999891,3.521,23.428,-23.086,286.382,24.514,3.287,-38.516,81.173,34.222,24.675,12.855,3.54,16.115,77.199,11.06,26.712,17.672,117.014,6.218,-3.726,50.465,-3.739,2.252,43.008,64.089,55.688,15.884,168.534,-114.495
3.809359200000017,-1.605,16.745,-15.379,287.632,13.219,6.358,-20.034,80.579,35.725,28.749,9.256,5.585,21.735,81.733,14.123,32.833,21.753,117.922,4.675,-6.283,52.976,-2.71,1.225,45.526,64.537,53.071,12.282,168.365,-111.307
3.8094234000000142,-18.51,9.043,-15.363,267.877,10.644,-6.456,12.774,66.154,30.054,20.523,0.025,-1.08,13.004,82.676,2.326,24.604,17.633,111.656,-5.063,-13.449,50.361,-17.565,-14.658,33.185,52.69,41.234,5.61,161.537,-112.22
3.8243961999996827,-20.028,4.424,-31.229,259.924,15.244,-13.11,-5.17,63.014,24.901,14.355,-3.561,-6.715,8.38,81.056,-4.849,16.894,13.517,106.934,-11.206,-20.608,46.212,-31.379,-21.815,16.758,51.1,34.021,0.481,153.178,-118.256
3.8283347999999933,-5.664,4.419,-38.883,270.423,14.717,-8.998,-37.44,68.074,23.339,13.828,-5.607,-2.097,10.933,81.487,-0.746,19.951,18.114,111.95,-7.609,-17.514,50.265,-25.713,-16.67,19.303,46.438,33.474,2.53,152.001,-122.236
3.8400956000000406,-7.195,0.316,-33.721,268.103,11.628,-16.161,-34.329,65.444,22.291,9.204,-8.162,-2.095,6.824,85.504,0.28,20.956,21.682,118.498,-2.99,-8.275,55.85,-16.465,-11.531,29.018,45.367,34.466,0.991,150.312,-121.601
3.8401562999997623,-20.508,-10.955,-37.786,257.589,10.592,-23.83,-1.507,59.743,22.781,5.608,-6.105,-6.704,6.817,90.03,0.28,21.447,22.173,121.966,2.136,-7.242,56.306,-19.523,-9.47,24.378,56.593,34.943,-3.621,141.452,-123.017
3.8544629999996687,-15.877,-8.382,-45.945,261.43,15.192,-13.048,18.987,61.221,26.857,11.75,1.073,-0.037,16.544,92.501,7.452,30.135,29.835,129.016,12.892,-3.649,58.299,-16.429,-7.924,20.255,58.073,36.445,4.58,140.798,-131.603
3.8545311999996557,-2.028,8.532,-39.751,265.779,19.275,-0.739,-10.233,67.307,29.391,19.936,7.732,5.598,18.576,92.921,14.616,37.277,33.392,130.424,18.002,5.064,61.827,-2.581,-1.256,32.018,53.404,46.655,15.846,153.465,-128.398
3.869451399999889,-3.051,13.134,-25.879,265.514,18.744,0.798,-41.986,75.949,34.485,22.989,8.237,0.47,17.021,90.779,17.163,36.215,27.723,123.634,16.447,2.498,61.765,0.496,6.943,43.257,57.449,56.855,15.318,163.046,-108.801
3.869522799999686,-8.683,6.461,-26.366,270.883,23.848,1.31,-40.92,81.508,40.086,26.553,7.204,2.006,22.127,86.077,17.146,36.691,26.67,121.461,15.919,-2.116,63.24,-6.677,1.813,35.016,59.441,50.65,12.228,161.346,-111.767
3.884429999999611,-6.113,2.869,-35.561,268.563,32.534,0.796,-13.214,75.279,39.534,29.088,9.246,6.615,24.666,82.917,19.178,37.167,24.594,120.315,13.341,3.01,66.251,-10.257,-9.46,16.026,62.455,38.816,13.241,150.938,-136.246
3.888379900000018,-1.496,4.915,-28.353,262.147,27.378,2.332,5.754,70.081,38.982,31.108,12.823,5.071,25.154,84.884,25.819,36.105,19.447,118.657,14.352,6.08,66.185,-4.611,-4.84,17.035,63.93,44.925,16.814,148.226,-133.548
3.9001650000000154,-0.982,17.718,-11.418,277.766,21.715,12.576,8.31,80.257,48.164,40.811,19.982,11.726,33.326,90.946,32.453,44.266,24.55,125.711,22.023,8.636,70.217,5.64,5.411,37.51,55.669,59.737,23.969,165.496,-109.848
3.914533499999834,-5.08,25.897,-12.944,295.419,31.427,13.588,16.499,87.861,54.776,44.356,24.573,15.301,36.366,92.905,27.298,47.296,25.551,125.585,17.902,7.603,70.659,3.073,-0.742,34.911,53.564,60.19,25.482,174.552,-106.664
3.91461339999978,-6.612,12.551,-30.862,283.341,28.834,0.767,8.285,80.089,47.037,30.991,13.278,2.478,24.547,83.59,13.438,33.416,12.205,111.627,0.466,-6.237,59.318,-15.886,-15.086,10.285,50.949,46.297,13.674,156.959,-121.415
3.9296102999996947,1.592,6.391,-36.978,272.299,15.998,0.766,-23.998,79.496,39.305,28.911,5.58,2.475,18.375,76.334,13.425,28.772,11.168,108.954,-1.072,-9.305,56.185,-19.456,-16.608,7.713,37.066,39.591,9.049,146.556,-128.978
3.929677499999798,2.615,19.192,-24.646,281.248,24.179,12.036,-26.023,90.175,42.852,39.129,18.894,14.256,28.09,84.455,24.682,44.112,21.915,118.579,14.811,6.074,70.473,0.031,-3.783,25.636,42.664,50.822,19.799,159.729,-124.75
3.944541399999707,-10.708,20.198,-16.937,275.844,29.278,5.364,6.79,81.888,40.76,33.454,19.9,7.582,29.599,88.469,19.534,44.581,21.381,118.461,15.309,3.506,70.915,2.08,-0.706,27.148,56.966,56.407,21.828,169.816,-118.478
3.9446007999999892,-12.746,10.956,-25.117,262.248,13.879,-6.937,13.956,67.974,34.571,23.687,1.949,-1.647,18.299,77.622,6.707,30.704,13.163,110.145,1.461,-11.354,56.499,-16.365,-12.488,12.776,45.126,41.493,12.072,162.986,-115.798
3.9619331999997485,0.074,18.629,-27.141,275.818,13.353,4.853,-18.334,79.689,42.734,31.86,5.534,3.477,18.793,75.495,11.311,32.21,11.101,107.473,-0.077,-5.195,58.492,-17.373,-15.037,11.226,38.421,36.329,12.06,156.675,-109.022
3.96199469999965,1.099,24.246,-16.868,291.936,25.635,15.095,-13.704,87.806,49.351,34.902,18.848,3.986,26.458,84.129,18.984,40.887,14.676,109.928,7.607,2.495,68.68,-6.085,-4.776,20.949,51.702,51.149,21.27,159.592,-101.228
3.9746111999997993,-3.001,13.976,-17.363,279.349,25.609,4.321,1.678,71.325,39.568,25.133,11.145,0.396,21.309,83.02,16.916,39.309,20.809,113.404,9.137,-2.631,66.562,-5.567,-3.747,22.465,51.651,53.66,20.736,162.507,-111.886
3.974674299999606,6.224,11.913,-28.617,269.848,28.145,2.268,-25.476,68.692,37.479,27.67,10.621,5.006,20.263,81.913,22.022,41.831,23.349,116.877,9.127,3.007,67.52,-7.098,-8.866,15.782,54.161,42.848,17.642,159.783,-130.729
3.9895793999999114,9.291,15.487,-32.174,277.775,27.605,9.438,-50.553,86.042,46.151,34.814,18.807,6.026,26.903,88.491,23.025,46.913,24.863,118.809,9.118,8.639,72.575,-8.115,-8.345,12.693,59.742,41.268,17.624,154.5,-132.648
3.9896389000000454,-5.575,5.225,-31.63,269.3,9.646,1.231,-35.646,82.37,39.445,26.07,6.493,-3.202,19.704,86.353,7.12,38.156,24.838,114.592,1.425,-4.689,65.843,-17.841,-11.41,10.118,40.727,39.177,13.508,147.173,-123.293
4.004631399999653,-12.229,-0.928,-31.598,253.662,4.514,-10.041,-11.532,65.381,28.647,16.31,-3.247,-6.272,11.487,80.631,4.552,31.971,20.202,108.842,-3.188,-9.808,60.654,-20.385,-14.473,8.571,30.952,35.552,9.908,143.952,-118.047
4.0046925999999985,-2.996,7.782,-27.468,264.167,15.78,-6.444,-4.86,67.365,32.717,23.466,7.002,0.394,18.135,83.112,16.843,40.135,20.182,109.245,3.988,-0.064,65.716,-11.143,-8.823,12.661,49.364,43.201,14.509,152.005,-117.417
4.020272899999782,1.106,13.41,-26.928,279.272,16.789,-0.803,-15.614,78.056,42.93,32.152,10.582,1.931,23.24,86.615,15.801,43.169,28.871,113.234,8.595,1.985,68.212,-7.033,-3.691,18.284,57.512,47.256,16.544,159.537,-113.201
4.020335299999715,-0.944,14.421,-28.95,277.968,23.944,4.321,-18.672,84.126,51.084,33.657,12.108,1.416,26.291,90.627,15.273,44.663,32.429,116.195,12.172,3.008,71.73,-2.416,-0.101,26.463,61.553,47.722,19.089,160.403,-106.94
4.034717600000022,1.106,22.604,-24.823,279.739,37.753,8.928,10.548,84.554,52.57,38.746,21.83,12.173,34.974,95.659,29.602,55.889,28.81,118.64,21.894,12.739,81.904,8.858,10.658,37.707,73.787,59.457,27.779,167.414,-109.395
4.03478049999967,3.154,23.093,-24.798,283.046,28.493,2.259,32.055,73.711,43.808,38.195,20.271,16.26,31.353,89.416,32.647,56.858,25.707,114.935,21.36,10.164,80.286,6.287,10.135,35.108,61.417,61.959,25.19,168.784,-111.334
4.049740199999633,-1.972,10.775,-27.335,270.467,14.633,-4.403,-0.253,66.977,39.153,27.911,12.054,3.436,20.563,80.617,17.245,46.042,23.12,106.111,9.043,-2.141,69.959,-7.551,-4.732,20.728,41.376,46.528,13.381,153.246,-102.002
4.049805299999662,-5.557,12.301,-17.061,267.635,24.352,4.822,-32.528,82.792,47.824,31.981,14.603,1.383,27.202,85.66,13.641,48.046,24.122,108.054,6.985,-1.627,71.426,-10.105,-8.314,19.683,52.093,41.358,14.393,145.408,-100.875
4.064690299999711,-1.453,26.121,-8.847,290.421,37.135,15.064,-1.245,93.98,54.436,44.757,18.687,14.189,36.397,96.333,26.948,55.17,29.733,116.656,15.687,7.084,79.039,-3.435,1.428,30.421,66.386,50.538,22.575,158.583,-103.848
4.064749099999972,1.11,26.607,-14.986,301.914,34.024,11.975,31.544,80.053,48.746,37.54,18.156,13.151,30.725,98.798,33.581,53.066,33.802,115.514,18.745,7.077,81.522,-2.407,3.476,34.49,60.684,54.074,21.016,164.572,-90.936
4.081277199999931,-2.477,19.921,-19.07,284.194,28.867,5.303,9.484,72.289,45.111,26.232,16.601,3.916,26.596,96.138,27.399,51.988,32.231,112.837,17.189,4.509,82.977,-1.38,0.911,31.893,56.012,52.995,16.896,156.723,-92.895
4.095156599999882,-5.036,19.901,-24.686,271.102,30.375,6.322,-22.801,81.95,49.677,33.378,14.535,8.01,29.643,94.504,27.372,56.547,32.199,118.36,19.221,9.115,86.993,3.744,1.422,30.837,58.006,52.43,20.465,153.492,-115.343
4.095216199999868,-3.494,18.344,-35.42,279.54,31.882,10.927,-4.335,83.405,55.262,38.98,17.082,13.638,32.687,98.508,34.517,59.564,37.289,124.901,24.325,14.229,87.418,5.79,2.446,33.88,58.46,52.89,24.031,153.851,-110.617
4.095255199999883,-2.978,14.227,-33.335,282.334,24.165,10.916,23.334,77.174,55.719,35.867,21.163,9.526,36.241,103.533,32.946,60.017,40.838,124.264,23.789,10.116,85.794,1.686,2.443,34.871,56.865,52.837,20.421,149.599,-93.088
4.109788499999922,-4.0,12.164,-30.228,269.756,20.043,8.856,12.552,79.146,53.614,35.831,18.068,6.955,34.667,99.843,24.716,57.395,37.724,119.017,15.568,4.983,83.659,-4.464,-1.658,25.102,54.758,45.612,14.253,144.838,-109.901
4.124807400000009,-5.533,10.615,-39.932,268.974,29.244,7.822,-3.855,80.092,49.462,35.283,14.977,9.509,29.51,92.059,27.252,57.338,34.1,116.336,12.991,5.49,84.087,-8.046,-8.316,15.855,55.216,38.394,12.189,142.644,-131.308
4.124865799999952,-6.552,9.579,-34.256,276.39,31.264,5.765,-15.634,76.938,46.339,33.198,18.035,11.549,33.579,90.942,34.91,61.891,35.09,119.806,19.126,8.559,87.077,-5.988,-7.283,20.963,53.624,43.479,15.251,136.354,-120.931
4.139819399999851,-7.57,6.496,-16.804,267.917,18.937,2.173,-20.741,78.91,44.756,31.628,16.48,8.463,32.521,91.876,28.215,61.317,37.104,119.174,18.082,7.013,86.99,-3.933,-2.665,23.503,46.91,45.484,13.699,130.07,-104.416
4.143775699999878,-8.587,1.879,-27.033,255.353,15.845,-3.977,12.067,71.146,41.637,23.912,7.242,2.82,21.217,89.222,12.305,55.108,36.555,114.956,12.428,1.371,83.829,-9.564,-6.761,10.16,47.888,36.73,6.513,131.477,-109.947
4.155818899999758,-8.578,2.389,-49.035,258.684,18.903,-8.583,38.695,56.218,38.009,18.765,3.649,1.792,22.221,88.621,11.268,53.516,36.006,116.891,12.928,0.345,84.258,-14.678,-7.779,6.051,53.475,36.693,5.482,133.394,-126.743
4.155885399999988,-8.057,4.436,-38.74,266.11,16.322,-1.915,6.381,66.408,43.607,27.456,11.33,4.352,32.445,95.192,23.552,56.536,40.069,121.385,18.038,4.955,90.321,-8.003,-1.111,20.902,53.422,44.853,14.185,131.724,-118.932
4.169956999999613,-8.562,2.895,-17.697,263.795,16.818,8.333,-16.679,83.76,50.223,35.625,15.417,3.323,30.875,98.171,26.09,58.529,42.59,117.165,18.02,4.438,92.792,-5.434,-2.647,23.443,57.979,44.808,16.733,130.568,-92.685
4.17002309999998,-9.065,3.916,-24.851,258.92,20.387,5.251,3.83,76.504,46.074,30.466,9.766,2.295,24.184,91.925,17.355,57.446,37.937,110.9,11.342,-0.177,92.187,-13.113,-9.304,8.05,64.069,38.103,12.105,133.511,-98.228
4.1848580999999285,-5.47,10.06,-35.073,264.297,20.879,2.172,-1.297,73.354,44.491,26.337,9.757,5.879,24.672,89.272,16.825,55.851,35.337,108.74,7.745,1.36,96.706,-12.588,-6.733,7.017,58.37,39.602,14.655,140.55,-116.573
4.184916599999724,-1.366,13.636,-21.205,278.889,18.297,6.268,-3.345,83.527,47.009,30.41,14.87,5.873,25.16,93.281,21.932,57.332,36.839,110.68,12.86,3.92,99.683,-4.89,-3.14,20.843,51.651,47.76,21.3,144.508,-96.476
4.1998980999997,-4.439,13.11,-14.524,280.66,12.643,4.725,20.737,74.222,42.351,29.354,10.244,2.793,25.647,90.114,19.86,57.275,34.753,110.057,12.847,1.354,97.534,-7.959,-4.162,20.822,48.013,46.687,18.717,138.728,-86.646
4.203999399999702,-5.971,14.122,-24.243,268.084,16.217,4.208,4.834,69.024,40.771,28.301,7.16,4.327,30.232,87.974,17.791,56.706,34.718,107.898,9.248,1.865,101.535,-11.025,-1.596,15.165,39.256,41.005,13.575,138.589,-111.15
4.216028099999676,2.744,21.28,-18.071,269.352,29.521,14.45,5.854,87.911,52.514,38.006,20.473,8.422,36.862,96.596,24.946,65.87,40.319,114.45,19.998,10.06,112.192,-1.28,4.041,24.884,46.389,48.136,18.685,153.307,-103.866
4.216091499999948,8.889,30.993,-4.221,285.477,31.028,16.997,38.636,90.384,55.535,41.554,27.113,13.536,39.899,99.573,32.606,74.514,42.84,124.069,28.687,16.71,116.69,6.406,6.086,33.568,72.983,59.359,27.888,160.326,-74.561
4.230014099999607,9.392,33.523,-5.754,288.265,25.362,13.906,22.204,80.56,47.283,35.365,19.401,15.06,35.761,94.35,32.573,69.316,42.797,119.847,20.461,15.669,117.086,3.325,6.592,26.363,83.156,56.738,28.372,154.018,-80.122
4.230077499999879,9.383,28.879,-11.383,278.243,29.947,12.868,-10.094,86.627,48.26,35.842,15.795,6.848,30.09,92.207,26.393,61.05,43.267,109.481,17.367,8.481,115.432,-1.801,6.073,18.139,71.802,52.071,21.171,149.254,-92.849
