Timestamp,Cz,Fz,Fp1,F3,C1,C3,T7,C5,CP5,CP3,CP1,P1,P3,O1,CPz,Pz,Oz,O2,P4,P2,CP2,CP4,CP6,C6,T8,C4,C2,F4,Fp2
0.0,-35.065,-3.403,-115.343,-28.519,-1.296,-6.625,90.722,0.787,-5.044,-16.247,-11.423,-16.212,-15.744,32.847,-0.796,4.581,-0.4,11.822,-5.176,-12.179,-6.636,21.671,-10.61,-7.762,176.235,16.335,-10.865,25.682,-74.973
6.369999982780428e-05,-43.739,-19.281,-137.257,-33.613,-17.689,-23.012,123.419,-13.046,-13.235,-31.6,-25.244,-29.003,-24.437,11.81,-16.677,-6.182,-11.67,12.322,-22.077,-27.536,-18.925,1.157,-28.53,-30.809,177.596,-5.198,-23.149,-2.008,-92.317
0.017087099999571365,-45.744,-15.676,-128.411,-19.235,-12.036,-6.595,91.02,19.755,4.196,-15.174,-20.608,-22.827,-17.24,3.089,-15.636,-3.615,-10.122,13.334,-18.981,-23.41,-16.344,4.23,-25.428,-31.29,148.729,-4.168,-21.589,-4.567,-100.421
0.01715539999986504,-50.822,-18.221,-120.085,-35.61,-10.999,-7.101,74.023,15.124,-3.493,-16.184,-19.051,-20.754,-25.42,0.524,-14.083,-3.099,-13.185,0.001,-16.912,-22.362,-13.766,6.275,-20.792,-25.623,132.186,-3.652,-20.031,-2.514,-97.247
0.030001499999798398,-34.377,-6.932,-111.256,-31.476,-5.865,-5.557,106.737,1.789,2.659,-12.581,-9.81,-15.098,-12.587,13.331,-0.749,8.688,1.173,18.956,-4.088,-9.02,-5.043,18.052,-10.013,-13.815,143.837,6.086,-10.789,9.272,-72.047
0.03007049999996525,-16.412,12.03,-104.485,-1.73,8.485,10.33,137.369,15.107,22.124,1.776,-0.067,-5.862,5.869,22.54,11.035,18.413,13.467,34.307,9.749,2.772,4.183,33.915,1.268,1.568,118.078,22.986,-1.044,26.681,-68.901
0.045014399999672605,-35.351,-5.913,-131.533,-24.27,-1.769,-4.537,104.956,4.846,-1.465,-17.181,-16.973,-21.737,-21.802,3.562,-9.981,0.976,-10.113,1.997,-6.655,-20.285,-10.166,15.951,-14.615,-12.778,101.054,4.52,-13.851,15.384,-101.107
0.045078799999828334,-49.66,-20.764,-146.258,-48.324,-14.063,-12.217,72.576,8.94,-14.783,-28.435,-23.616,-31.449,-36.124,4.583,-18.68,-6.197,-12.664,-2.104,-14.845,-26.924,-17.328,3.127,-24.846,-32.745,133.74,-10.854,-21.522,4.61,-105.105
0.06009699999958684,-28.093,6.921,-113.324,-15.488,7.468,20.583,82.749,41.719,18.019,4.381,1.511,-6.315,-3.301,36.341,8.491,16.863,20.136,30.686,7.711,3.329,2.157,29.252,-2.792,-20.417,166.394,16.309,-1.008,22.024,-73.237
0.06016039999985878,-23.967,8.451,-97.841,-0.104,10.534,13.902,115.454,14.012,18.514,6.426,2.022,-2.21,1.826,34.768,6.433,17.358,18.067,33.729,3.093,-1.285,0.618,27.685,-5.351,-14.761,133.952,16.805,0.53,17.903,-73.163
0.07718209999984538,-45.972,-23.832,-130.019,-32.379,-21.751,-18.387,148.126,-18.277,-13.78,-25.856,-28.719,-30.897,-30.452,6.556,-24.312,-8.787,-14.227,1.42,-26.624,-33.047,-23.461,-4.618,-37.109,-36.776,101.543,-14.974,-23.549,-5.681,-105.366
0.07725109999955748,-42.852,-23.809,-148.332,-46.179,-22.242,-10.172,115.703,14.529,-5.057,-21.731,-28.69,-26.768,-26.835,6.55,-18.652,-7.241,-9.602,-3.192,-19.938,-25.329,-20.364,2.047,-31.948,-39.813,134.229,-9.324,-22.501,3.034,-108.846
0.09045479999986128,-24.366,1.318,-124.618,-15.907,2.883,22.626,83.312,47.302,24.662,11.078,-3.558,-4.712,0.344,18.838,0.322,12.234,6.802,12.181,1.087,-4.812,-5.486,27.148,-6.301,-22.867,148.44,11.178,-6.597,17.376,-85.171
0.09052959999962695,-30.49,-7.392,-116.296,-22.551,-5.316,3.136,116.016,14.979,8.755,-1.741,-8.678,-15.978,-10.927,13.184,-9.925,8.123,-4.476,8.07,-7.623,-15.565,-12.653,17.387,-12.955,-25.918,120.627,1.432,-14.787,-1.085,-84.574
0.10504029999992781,-45.316,-23.779,-128.987,-44.045,-23.754,-22.483,143.052,-17.311,-13.283,-28.891,-31.211,-32.868,-34.994,2.413,-22.722,-8.279,-17.279,-9.869,-20.936,-29.382,-23.399,3.025,-28.823,-40.236,142.023,-8.815,-26.043,-15.941,-100.883
0.10510889999977735,-43.222,-17.607,-131.932,-29.656,-18.095,-6.066,110.634,15.494,-5.072,-18.616,-28.618,-25.663,-29.324,2.922,-17.577,-9.295,-12.651,-7.81,-18.353,-25.767,-21.839,6.608,-27.258,-43.782,151.102,-6.757,-21.406,-7.728,-98.733
0.12002369999981966,-29.858,-3.245,-119.505,-6.061,-3.22,16.481,78.248,48.266,10.814,4.456,-7.585,-12.317,-8.802,20.85,-5.264,3.522,4.78,18.838,-7.576,-11.909,-10.546,17.36,-14.935,-29.394,118.676,2.984,-9.602,10.723,-82.753
0.12009809999972276,-14.972,11.103,-102.479,0.605,10.615,26.711,110.957,43.607,25.148,14.186,6.255,0.503,5.039,43.371,10.111,17.863,24.243,33.676,11.386,7.571,5.346,35.273,3.011,-3.749,128.291,24.497,4.752,33.254,-74.985
0.1366701999995712,-18.03,4.944,-108.012,-7.592,10.605,22.074,86.256,44.588,22.561,6.487,-0.411,-1.547,0.423,34.618,6.002,14.771,17.046,18.273,10.863,2.953,-0.807,32.677,0.959,-8.356,160.95,21.399,1.674,26.561,-84.644
0.13673219999964203,-47.214,-27.336,-140.18,-37.298,-20.144,-10.224,107.174,12.268,-9.737,-25.795,-29.1,-28.698,-28.267,4.87,-22.693,-9.835,-12.684,-5.824,-21.423,-29.326,-31.032,0.369,-31.318,-40.623,143.883,-10.898,-29.066,-5.741,-110.175
0.1650152999995953,-64.585,-46.264,-161.556,-59.803,-45.227,-38.391,139.855,-20.02,-33.293,-48.823,-49.051,-44.551,-49.243,0.254,-36.503,-24.169,-22.406,-14.015,-39.845,-45.178,-42.272,-18.075,-53.316,-65.173,111.464,-30.354,-45.431,-29.302,-125.946
0.1650790999997298,-48.127,-23.164,-143.976,-39.763,-27.763,-16.323,107.439,2.03,-10.718,-27.77,-31.583,-28.112,-30.751,18.697,-22.634,-9.801,-4.452,0.344,-15.215,-23.616,-23.787,6.022,-30.209,-36.419,103.156,-6.758,-27.455,1.978,-111.988
0.16511829999990368,-28.099,4.524,-111.557,-6.935,0.954,16.481,75.057,34.815,18.494,3.509,-5.936,-9.641,-6.129,28.925,-6.217,7.628,8.36,23.397,5.805,-3.612,-8.394,26.508,-8.149,-11.279,135.84,15.79,-7.96,34.252,-88.31
0.16515819999995074,-27.558,8.105,-100.687,-2.83,3.002,18.002,61.149,42.465,20.525,4.53,-5.93,-7.582,-7.66,25.822,-0.576,9.157,5.79,25.423,1.701,-4.633,-8.898,23.92,-14.801,-16.391,157.734,17.312,-7.44,28.07,-81.562
0.18005859999993845,-35.215,-3.174,-116.468,-19.733,-7.247,9.787,93.876,22.443,10.258,-5.721,-15.658,-16.284,-14.825,14.013,-7.747,2.488,-4.974,6.442,-8.035,-15.387,-14.524,12.625,-25.032,-24.059,125.813,9.097,-16.654,8.574,-90.189
0.19509199999993143,-35.692,-9.318,-129.671,-29.96,-5.191,8.752,126.57,9.1,6.662,-5.203,-14.618,-21.903,-13.273,0.679,-15.937,-2.125,-14.703,-8.421,-11.613,-19.982,-15.534,8.002,-22.446,-21.474,119.539,2.428,-22.272,8.565,-97.271
0.19919069999968997,-36.169,-5.723,-125.956,-31.979,-1.6,5.67,121.32,8.067,8.192,-3.148,-15.628,-17.782,-15.309,-1.371,-11.822,-3.148,-18.275,-9.949,-12.113,-19.45,-16.031,13.117,-20.374,-22.989,146.06,4.987,-18.664,18.803,-97.174
0.21217619999970339,-42.281,-6.742,-129.928,-35.533,-10.819,1.053,88.923,10.108,4.598,-10.317,-22.272,-19.814,-20.417,5.803,-7.712,-2.632,-16.207,-8.915,-16.712,-21.992,-22.163,12.079,-26.501,-30.651,143.352,6.519,-19.67,19.296,-101.688
0.21224419999998645,-39.164,-5.71,-134.409,-25.764,-9.784,6.175,109.839,15.733,5.105,-9.282,-16.102,-22.868,-17.322,18.092,-8.729,4.542,-9.531,-2.246,-14.134,-18.896,-20.091,11.555,-25.45,-26.01,120.155,6.0,-20.163,20.814,-104.148
0.22606699999960256,-28.879,5.054,-115.831,-3.709,7.644,18.977,104.606,35.185,18.42,3.535,-5.328,-12.599,-8.084,26.271,1.014,15.809,-2.349,6.978,0.225,-7.607,-8.8,26.4,-16.203,-10.102,107.739,15.728,-8.359,26.429,-87.65
0.22613259999980073,-40.633,-6.734,-113.666,-18.562,-3.634,11.273,72.226,31.051,11.23,-6.715,-18.13,-15.66,-16.272,8.826,-3.598,7.596,-11.056,-5.837,-8.997,-16.821,-18.525,18.689,-24.896,-20.85,88.676,9.565,-14.499,6.422,-90.636
0.2401017999995929,-59.548,-36.441,-145.828,-50.819,-35.906,-21.014,104.941,-1.255,-21.057,-36.422,-42.19,-36.137,-40.847,-11.675,-29.21,-12.904,-28.976,-25.299,-35.115,-38.833,-38.999,-11.556,-44.851,-51.056,74.243,-18.109,-38.05,-17.663,-122.821
0.26903239999955986,-46.681,-23.085,-149.781,-40.522,-24.087,-18.431,137.624,-10.988,-14.376,-25.115,-31.902,-27.391,-30.56,5.243,-22.521,-2.645,-19.213,-7.855,-23.297,-27.523,-25.128,-1.81,-34.56,-40.246,106.956,-10.919,-29.303,4.897,-124.235
0.28411859999960143,-19.994,9.726,-116.843,-7.694,8.725,14.375,105.211,21.811,18.426,7.698,0.918,3.887,2.258,31.878,10.29,28.096,10.52,24.941,9.514,3.755,4.611,30.979,-1.738,-7.418,139.637,21.88,0.44,37.679,-91.323
0.288069099999575,-22.536,10.741,-104.943,-3.075,9.741,31.267,72.831,54.577,28.142,14.862,9.114,4.395,3.793,29.797,12.329,28.58,12.046,21.33,7.455,5.8,3.582,29.924,1.85,-5.874,138.473,24.932,-2.122,32.519,-81.498
0.2881188999999722,-40.444,-21.033,-134.552,-35.347,-18.446,-1.04,105.545,22.247,-4.162,-17.428,-21.634,-19.688,-28.486,16.447,-15.348,4.986,-11.532,-4.307,-17.656,-17.259,-18.963,3.766,-26.329,-23.799,106.059,-3.27,-24.661,4.309,-112.154
0.2881555999997545,-40.403,-27.16,-143.127,-44.021,-24.575,-19.482,138.228,-9.026,-19.015,-28.681,-34.42,-22.742,-32.044,10.795,-18.919,0.37,-13.569,-4.815,-21.736,-23.39,-22.53,-0.336,-32.963,-17.627,82.899,-5.828,-24.637,-0.306,-107.432
0.30119479999984833,-27.043,-3.054,-115.831,-12.214,-4.571,7.69,122.208,19.672,9.181,-3.037,-8.258,-3.251,-3.835,20.006,-0.969,18.813,6.936,19.268,-1.222,-4.411,-2.528,19.644,-8.851,-1.216,115.604,15.694,-6.681,19.674,-82.221
0.3012613999999303,-21.381,10.269,-101.371,7.266,10.291,28.687,148.726,41.682,31.714,16.946,7.632,7.51,8.977,39.453,7.741,30.065,17.176,32.057,15.173,8.913,9.77,34.994,1.916,0.322,148.276,23.363,-0.527,36.561,-85.213
0.31417469999996683,-24.945,3.086,-111.003,-7.598,2.084,23.535,150.114,38.054,19.899,10.269,-4.159,-2.231,1.795,42.488,3.635,21.838,11.011,21.266,10.035,0.195,0.539,28.811,-9.357,-6.85,152.226,15.143,-6.674,36.524,-97.423
0.31425099999978556,-24.408,0.522,-112.429,-13.226,-4.578,13.265,154.062,27.257,5.534,0.013,-6.204,-9.401,-2.817,27.076,2.606,14.643,3.827,9.974,4.901,-3.903,-3.56,24.684,-7.298,-1.208,123.385,19.226,-6.155,35.975,-98.862
0.3292457999996259,-18.748,7.181,-105.657,0.107,6.697,18.375,186.696,21.595,13.213,3.599,2.511,-4.269,-1.79,18.852,6.19,21.289,1.774,9.964,12.581,7.371,3.103,35.417,5.005,17.236,100.208,30.99,-0.513,41.575,-99.788
0.3335433999995985,-16.68,3.076,-109.137,-2.455,9.252,27.578,154.234,33.356,19.348,7.181,-0.053,-1.703,0.261,26.518,6.184,24.854,5.359,13.028,12.056,6.852,2.588,33.333,-0.123,21.83,103.181,26.348,-2.05,37.947,-93.028
0.34622639999997773,-17.176,-3.075,-109.028,-10.137,1.558,23.452,123.341,42.032,14.205,4.613,-2.102,-2.726,0.773,44.934,5.665,19.193,16.624,25.31,5.384,0.697,2.073,24.078,-6.783,12.074,123.058,18.125,-4.609,31.249,-77.566
0.34629269999959433,-18.183,-1.023,-106.87,-11.151,4.63,14.72,156.005,28.67,14.703,1.022,0.974,-0.162,1.285,54.111,8.221,21.736,23.268,35.531,8.453,4.795,7.194,29.689,-0.117,8.476,140.866,21.693,-2.043,30.706,-80.562
0.35921509999980117,-23.288,-4.608,-117.522,-23.436,5.138,14.705,135.869,24.031,15.713,-1.541,-3.125,-2.211,-0.253,38.688,4.627,24.788,17.097,21.663,10.493,4.278,2.576,32.221,1.421,7.443,147.897,20.134,-4.09,31.187,-99.949
0.3742285999996966,-24.802,-6.653,-114.843,-19.314,0.522,21.863,103.458,42.45,18.259,5.121,-2.098,-3.745,3.333,32.501,1.548,19.128,14.006,14.469,9.971,1.2,0.012,26.554,-1.142,10.509,130.331,18.065,-7.672,36.791,-99.85
0.37429259999998976,-20.166,0.526,-102.945,4.272,5.132,29.013,126.921,47.53,24.901,13.313,3.028,-0.668,9.477,45.277,5.645,17.572,17.066,24.189,9.961,3.248,4.623,28.576,-2.678,13.06,107.147,22.658,-5.616,38.804,-88.479
0.38929339999958756,-25.782,-9.208,-121.797,-12.639,1.029,18.738,159.582,24.429,14.118,1.004,-7.222,-6.302,2.808,31.911,-0.508,16.53,5.778,11.357,1.241,-4.952,-0.505,22.912,-11.385,-4.884,104.99,13.926,-8.684,16.736,-101.71
0.3893596999996589,-34.977,-23.031,-142.168,-39.266,-10.756,3.35,153.787,8.523,0.271,-9.243,-16.436,-11.419,-5.904,11.387,-7.68,10.878,-1.913,-0.95,-2.858,-8.021,-4.091,14.18,-15.472,-18.711,99.25,1.617,-14.31,1.862,-116.466
0.4054912999999942,-25.209,-9.176,-124.095,-17.71,-6.134,14.105,149.534,21.834,14.103,5.111,-4.124,-2.699,0.762,31.868,0.012,13.428,13.971,18.006,4.829,5.307,4.623,23.387,-10.333,-2.298,89.417,13.91,-8.148,20.303,-98.418
0.4055586999998013,-16.986,3.129,-110.138,-3.347,1.557,25.874,138.626,33.083,21.261,8.692,2.028,-0.134,3.323,48.742,4.111,19.563,16.518,21.062,6.874,7.351,6.667,30.024,-9.298,3.852,108.795,23.118,-1.993,35.652,-85.512
0.41929609999988315,-24.654,-3.022,-116.688,-21.275,-1.006,15.602,106.212,23.316,3.822,-5.149,-5.147,-4.745,-6.415,30.763,1.545,19.543,3.694,7.721,10.965,4.269,7.173,28.457,-4.678,-3.325,129.691,16.947,-4.04,39.715,-96.698
0.4193622999996478,-18.994,7.227,-104.276,-10.495,6.679,23.783,84.589,35.588,12.527,6.639,4.08,2.944,-0.26,29.707,11.277,24.134,15.473,22.57,26.836,18.097,17.412,41.236,10.696,11.536,130.586,29.738,2.112,57.094,-89.429
0.434303799999725,-6.167,21.052,-89.315,13.082,19.48,44.764,102.948,62.193,37.618,26.1,17.396,9.601,14.597,43.51,19.975,29.745,24.68,31.257,26.297,21.665,19.956,44.269,10.685,14.598,137.115,40.467,7.745,60.623,-73.458
0.43436469999960536,-18.457,7.199,-108.693,-1.788,11.264,27.813,135.632,35.491,23.235,12.241,5.083,-0.142,8.434,32.196,9.709,19.982,4.675,12.783,8.34,6.275,8.153,22.708,-8.793,-16.155,130.318,14.298,-2.509,31.361,-90.803
0.4492807999999968,-31.758,-6.641,-126.003,-19.717,-1.043,3.707,168.285,3.18,-0.866,-3.652,-7.729,-7.314,-3.869,18.844,-0.547,12.79,0.572,14.307,6.794,3.194,5.071,18.587,-13.395,-25.361,107.134,1.476,-10.703,19.546,-110.179
0.4493405999996867,-17.894,4.637,-110.508,-6.378,8.18,24.196,135.841,35.964,17.578,15.307,7.135,3.964,9.454,30.095,11.749,27.121,21.063,32.736,25.231,17.024,17.361,40.597,3.524,-0.744,110.101,28.627,0.578,41.556,-96.749
0.46559179999985645,-11.216,12.317,-100.663,5.924,18.93,44.664,103.43,68.716,40.102,29.124,17.374,13.694,22.765,45.435,24.545,36.316,24.116,31.166,31.353,22.13,24.004,44.143,7.619,3.355,124.847,36.796,9.799,54.835,-88.968
0.46565689999988535,-25.55,-2.04,-113.37,-12.013,6.103,19.516,136.114,36.372,18.545,6.553,-1.086,-0.152,4.811,45.389,10.176,18.861,11.797,21.401,13.903,7.763,12.197,23.094,-13.393,-19.702,123.186,13.193,-3.018,41.46,-104.248
0.4798011999996561,-31.159,-13.821,-113.257,-29.419,-7.735,-4.582,168.765,4.06,-8.114,-10.872,-11.844,-15.009,-13.124,31.511,-7.253,4.498,5.125,16.256,-0.455,-3.003,3.988,15.386,-19.015,-25.318,110.767,8.056,-15.311,29.123,-102.607
0.47986649999984365,-24.981,-3.049,-103.922,-14.02,1.494,10.792,136.321,36.844,7.776,2.971,0.464,-6.285,-2.353,20.721,4.025,12.69,4.608,11.629,7.23,5.709,13.717,27.666,-3.115,-9.411,95.287,22.905,-4.025,36.778,-89.697
0.49439719999963927,-18.808,8.225,-112.015,3.412,11.739,33.322,103.91,69.595,29.797,16.801,7.123,4.48,8.408,27.361,16.829,20.362,9.726,16.229,16.444,12.875,20.364,33.786,-1.575,-10.939,116.196,25.444,5.201,45.451,-98.829
0.49447239999972226,-16.228,4.631,-113.44,-6.325,9.166,32.777,136.593,51.594,22.595,13.71,6.091,2.939,6.351,37.58,11.177,19.317,14.839,26.971,18.989,11.838,18.294,32.728,-6.184,-23.223,148.868,23.369,-1.976,41.819,-102.316
0.5093930999996701,-18.773,5.651,-93.347,-14.516,10.693,28.133,155.924,36.686,13.863,12.672,10.696,3.448,9.93,35.493,10.141,21.859,12.775,21.308,25.118,14.9,21.862,37.306,0.995,-17.565,117.468,30.006,-1.974,39.728,-88.381
0.5094572999996672,-25.926,4.108,-104.524,-10.915,8.634,22.982,123.493,41.772,14.362,10.61,4.025,-1.679,6.847,26.236,10.643,16.714,3.541,3.869,18.433,7.713,16.205,31.121,-6.691,-19.596,85.075,24.853,-0.436,36.102,-102.125
0.525721799999701,-28.974,-12.29,-136.695,-11.417,-3.158,14.762,93.656,42.755,11.786,2.402,-7.249,-10.386,-2.894,20.062,1.923,5.939,4.05,5.914,3.045,-3.053,6.455,16.233,-21.029,-41.094,106.507,8.946,-11.194,23.771,-127.126
0.5394992999999886,-23.31,-10.228,-128.361,-8.331,0.431,18.846,126.35,41.175,18.434,8.035,3.516,-1.154,6.33,27.214,6.532,14.642,22.489,32.036,16.362,9.757,19.768,24.414,-8.712,-38.491,134.578,13.036,-8.109,26.309,-110.093
0.5395663999997851,-17.651,5.151,-95.445,-7.298,11.189,25.487,159.011,33.45,25.588,18.786,13.759,4.482,14.521,40.507,13.698,22.825,30.151,39.176,27.616,16.408,30.507,35.66,-2.044,-23.595,102.168,25.831,3.17,40.115,-86.929
0.5544570999995813,-20.195,-2.026,-103.547,-22.148,0.42,13.166,129.138,18.559,7.631,8.008,2.474,-8.842,0.162,39.442,2.926,8.457,10.141,15.058,6.584,-1.027,16.132,20.767,-20.485,-33.306,95.918,15.559,-5.03,35.976,-101.699
0.554521399999885,-24.273,-9.709,-121.886,-24.687,-8.802,5.981,111.078,18.028,-1.598,-2.758,-4.188,-11.395,-4.449,30.693,-1.176,4.35,-0.628,3.773,2.479,-1.026,13.042,16.136,-19.44,-41.982,128.61,9.395,-11.172,31.841,-117.479
0.5694620999997824,-23.737,-1.502,-110.494,-13.392,-1.109,16.221,136.07,31.843,14.285,4.417,-0.598,-4.723,4.265,26.564,2.924,13.567,6.545,11.453,18.358,8.709,23.275,25.854,-5.588,-38.866,150.51,18.095,-5.526,42.056,-109.164
0.5695199999995566,-26.787,-7.649,-111.92,-15.428,-3.669,15.18,103.659,37.958,12.734,3.388,-7.257,-13.428,-2.4,19.365,-5.788,5.357,-1.658,6.319,4.508,-5.132,15.567,13.532,-19.415,-51.635,136.015,7.319,-13.205,31.255,-100.858
0.5845165999999153,-27.785,-14.813,-126.153,-12.338,-8.277,13.628,71.28,47.654,3.5,-1.226,-9.299,-14.439,-9.057,15.759,-6.295,-0.284,-8.829,3.751,-8.305,-9.738,10.941,7.371,-29.129,-57.218,115.387,-3.447,-16.266,17.392,-101.27
0.5884412999998858,-15.462,0.571,-109.121,3.043,7.101,32.057,93.238,65.025,21.94,14.144,4.03,0.945,5.296,27.527,10.106,15.086,8.086,17.067,11.171,9.227,28.348,29.393,-8.608,-31.034,93.242,19.098,0.145,40.428,-99.632
0.6015918999996757,-13.397,2.107,-89.544,-8.231,9.655,28.439,125.932,41.394,24.991,16.692,5.051,-1.618,8.877,32.11,8.559,15.583,10.639,12.439,13.722,8.193,29.857,30.901,-6.037,-23.318,78.804,28.3,0.144,51.659,-103.118
0.6016578999997364,-30.29,-17.363,-105.848,-30.252,-13.408,-3.352,158.594,9.077,-3.723,-9.965,-13.397,-19.547,-10.599,14.147,-10.918,-6.462,-10.376,-4.991,-6.272,-11.283,8.822,5.254,-29.085,-55.57,89.996,2.144,-19.836,22.918,-119.921
0.6146072999999888,-35.895,-19.395,-123.673,-20.488,-18.518,-1.3,126.16,27.511,-4.744,-13.541,-19.019,-21.577,-16.224,10.035,-13.981,-11.066,-8.829,0.649,-4.729,-14.857,7.277,1.151,-29.568,-71.396,122.694,-10.153,-24.427,17.259,-124.924
0.6146755999998277,-26.125,-3.494,-117.402,2.074,1.481,31.489,93.759,60.271,26.512,14.137,-1.582,-8.747,1.211,32.054,1.403,5.339,9.623,18.579,11.67,-1.523,24.688,21.129,-9.559,-49.808,145.625,5.738,-12.619,41.321,-100.721
0.6296367999998438,-22.0,1.633,-112.161,0.023,8.652,35.044,126.453,51.502,33.145,21.295,8.154,-1.566,12.48,37.657,9.598,15.067,10.126,17.536,17.806,8.213,30.299,28.793,-4.939,-36.438,114.229,18.54,-4.922,44.865,-86.788
0.6297029999996084,-23.515,-10.664,-119.221,-17.395,-2.116,13.492,159.114,19.175,15.694,4.88,-0.052,-4.639,4.271,22.25,2.416,10.954,1.919,10.346,16.251,5.131,26.17,22.616,-12.106,-44.086,81.839,16.473,-8.503,35.599,-112.829
0.6446579999997084,-25.541,-20.9,-119.614,-23.013,-6.212,11.942,126.679,29.402,11.067,0.264,-5.175,-10.269,-2.906,20.179,-3.734,4.795,1.917,12.385,8.038,-2.559,21.021,17.471,-16.705,-49.165,92.516,8.259,-16.179,30.44,-128.085
0.6607387999997627,-29.102,-15.243,-108.224,-16.33,-0.058,20.126,94.277,54.988,18.229,7.949,-1.583,-8.21,2.22,27.331,-0.656,6.327,4.989,12.373,1.37,-4.093,19.975,15.404,-18.737,-53.214,108.817,3.64,-16.675,24.774,-105.928
0.6608015999995587,-23.949,-3.957,-97.357,-8.117,8.139,25.229,126.971,49.81,26.92,19.724,5.078,-0.005,11.44,29.865,5.492,14.518,6.521,12.872,9.053,3.083,29.689,17.95,-13.083,-53.161,118.442,10.809,-7.95,32.947,-85.842
0.6608445999995638,-16.753,1.682,-95.723,-3.498,13.766,32.889,159.631,48.223,31.503,24.827,8.659,1.02,13.477,34.958,10.61,16.552,7.027,17.983,14.167,9.228,33.758,25.104,-5.898,-42.349,130.107,21.556,-2.306,43.672,-82.682
0.6896893999996792,-26.47,-2.93,-109.972,-8.105,5.043,19.536,140.516,37.929,17.127,7.384,-3.645,-9.227,0.144,27.751,3.939,4.753,-1.177,8.231,3.907,1.534,19.891,21.493,-13.064,-45.381,102.312,12.313,-11.013,31.333,-93.87
0.6897579999999834,-36.69,-13.686,-126.256,-19.368,-9.819,-5.074,173.163,8.177,-1.845,-11.067,-18.498,-18.44,-14.201,8.256,-9.897,-7.547,-8.861,-8.684,-2.245,-10.763,10.138,10.201,-23.809,-60.192,69.934,-2.044,-19.199,25.154,-117.343
0.6898011999996925,-23.846,-7.012,-110.248,-9.103,-0.587,9.275,140.715,24.563,10.452,2.264,-7.209,-11.249,-5.99,19.006,-0.666,0.145,1.394,2.596,6.979,-0.506,21.911,18.9,-11.49,-49.374,93.943,13.328,-7.909,47.158,-112.102
0.6898425999997926,-12.551,9.901,-81.961,8.837,17.344,38.468,108.299,57.326,28.885,19.168,8.68,-2.528,6.824,38.967,16.241,10.391,11.127,17.45,15.169,11.79,28.036,34.25,0.304,-36.517,126.637,31.245,2.857,55.308,-88.424
0.704740899999706,-27.908,-2.404,-98.785,-10.127,3.494,18.961,112.801,40.362,12.462,0.194,-5.673,-15.334,-10.089,13.825,3.929,-0.89,-3.229,-2.547,2.858,-4.616,14.688,18.335,-16.09,-59.534,121.899,11.234,-12.002,30.15,-104.729
0.708763899999667,-39.151,-20.845,-128.4,-33.171,-16.489,-7.698,145.476,8.047,-2.92,-17.225,-19.5,-26.589,-24.424,-9.243,-8.37,-10.623,-11.935,-16.377,-6.878,-14.345,9.038,3.972,-24.271,-70.233,90.527,-4.147,-21.212,15.775,-121.531
0.7218059999995603,-25.791,-6.48,-116.489,-12.133,-5.714,10.753,178.118,19.822,13.989,-0.302,-6.16,-12.73,-5.444,17.406,7.008,2.195,4.983,3.107,8.498,4.112,20.3,23.435,-6.316,-45.06,85.313,16.862,-5.822,29.591,-95.282
0.7358609999996588,-17.569,-0.325,-106.126,2.224,5.05,24.062,145.665,30.56,20.635,8.92,0.506,-6.57,4.295,33.27,11.611,7.828,9.077,9.252,14.125,6.157,27.452,32.121,-5.797,-45.015,88.302,19.407,-4.279,32.636,-93.137
0.735926599999857,-25.236,-16.207,-118.315,-18.783,-0.078,13.28,113.244,28.993,9.344,0.202,-8.204,-14.76,-6.467,17.356,1.354,-1.913,-2.716,2.07,0.791,-4.607,29.986,16.207,-18.087,-65.462,90.775,1.969,-16.57,17.746,-113.024
0.7498377999995682,-21.624,-2.87,-102.315,-16.715,7.094,24.537,83.929,53.042,20.605,9.423,1.026,-6.036,1.736,20.412,10.574,4.749,5.996,13.339,9.499,7.693,39.178,24.388,-4.748,-52.589,100.418,15.287,-6.307,22.339,-86.271
0.7499082999997881,-20.066,10.965,-87.356,-1.841,10.161,31.685,116.633,53.501,26.22,14.025,6.148,-2.444,7.882,27.052,14.662,8.842,7.015,11.276,17.686,9.734,38.626,32.561,-2.182,-44.339,89.047,25.518,-1.178,31.538,-71.84
0.7648888999997325,-37.976,-16.198,-119.032,-23.356,-10.854,0.403,149.304,21.173,-5.057,-13.654,-17.937,-24.983,-17.229,8.069,-8.407,-13.708,-18.095,-14.863,-9.996,-13.842,21.681,7.425,-30.869,-71.96,62.318,-3.197,-20.644,10.502,-104.044
0.7649521999996978,-37.426,-23.355,-131.72,-36.141,-15.454,-9.844,151.204,2.196,-14.786,-20.813,-22.53,-27.007,-23.359,5.5,-11.985,-17.281,-17.052,-13.823,-12.547,-9.729,24.734,6.905,-29.301,-73.424,85.309,-8.829,-20.624,-0.267,-110.087
0.7948683999998138,-15.872,3.821,-98.801,-13.051,7.103,17.831,147.466,34.982,13.918,5.336,5.67,-3.926,3.816,24.962,10.057,8.864,7.043,9.757,20.253,14.359,48.787,36.1,0.954,-46.711,118.012,19.869,-0.623,22.275,-77.189
0.8099802999995518,-13.807,5.354,-86.919,-3.816,9.658,23.448,150.905,48.779,21.589,10.454,10.787,-2.386,8.936,24.425,11.584,9.88,3.45,12.309,17.671,11.783,49.763,33.502,-2.121,-50.25,102.012,22.411,1.939,30.45,-78.649
0.8100479999998242,-17.891,-3.873,-98.103,-6.886,0.939,16.765,118.479,38.996,13.37,0.197,-1.007,-8.019,-3.369,22.351,2.863,-0.888,-1.164,11.272,1.772,5.623,37.93,21.686,-14.926,-55.836,69.635,12.654,-0.624,26.321,-106.235
0.8100913999996919,-3.529,12.525,-89.296,10.539,12.721,33.654,86.085,60.986,23.603,14.542,10.265,1.723,6.368,39.235,15.668,12.945,18.305,26.63,22.775,18.938,48.139,41.644,-0.055,-36.312,75.2,29.548,9.622,39.102,-83.587
0.8249284999997144,-2.501,22.246,-78.96,20.262,23.467,41.305,93.684,77.319,30.752,24.773,18.964,5.308,16.096,42.782,25.386,22.154,22.897,27.115,35.047,24.554,54.75,51.336,9.167,-35.763,102.79,40.277,13.199,43.674,-55.327
0.824988299999859,-17.355,11.978,-90.664,4.873,11.66,25.382,126.378,53.676,22.012,8.355,6.138,-2.382,4.809,27.37,12.04,8.299,4.943,8.133,17.081,12.747,41.888,35.403,-3.137,-53.658,101.662,23.33,2.94,31.335,-80.375
0.8399427999997897,-17.85,0.695,-111.066,-5.89,-0.647,12.549,128.3,34.154,12.256,-4.974,-5.652,-10.064,-10.053,17.096,-0.267,-5.029,-6.332,-0.585,3.232,-0.586,34.161,21.023,-15.942,-60.777,95.413,7.938,-10.383,25.668,-112.57
0.8399998999998388,-13.734,-5.966,-116.59,-0.249,1.403,14.074,95.897,46.928,9.682,-1.895,-7.183,-14.665,-11.067,14.005,2.807,-8.098,-3.252,5.564,-1.382,-4.172,36.177,16.392,-19.0,-64.303,85.071,6.905,-11.91,24.618,-112.457
0.8569958999996743,-15.769,0.7,-96.494,9.485,14.722,28.916,63.525,70.447,22.993,10.402,3.07,-5.429,2.264,20.651,13.05,1.644,8.534,15.292,6.304,7.103,41.776,25.597,-5.661,-60.652,84.986,13.558,0.91,30.228,-91.852
0.8570605999998406,-15.754,1.212,-85.126,-4.357,15.219,28.375,96.25,57.057,27.068,12.441,8.703,1.237,8.409,26.778,13.55,10.352,12.624,16.301,16.032,11.707,46.345,32.743,1.517,-57.005,117.689,16.106,0.396,30.198,-79.465
0.8704448999997112,-22.398,-19.794,-107.071,-34.579,-8.362,-3.929,128.941,24.724,-5.234,-12.162,-12.823,-17.208,-11.067,13.944,-1.321,-6.565,-3.27,3.99,-1.915,-7.26,34.003,14.268,-20.001,-75.904,130.379,-0.816,-18.047,3.016,-87.07
0.8705212999998366,-25.962,-16.7,-112.599,-19.175,-10.403,-6.998,96.537,19.577,-13.938,-18.298,-18.445,-21.289,-17.716,10.856,-7.467,-16.292,-6.853,1.936,-11.135,-10.327,28.334,10.155,-26.641,-79.926,97.973,-4.913,-14.443,-1.598,-90.569
0.8849947999997312,-7.493,16.104,-80.211,13.632,22.395,25.796,64.165,52.345,18.863,14.508,14.361,7.421,15.09,34.924,15.082,8.827,17.745,24.476,20.127,17.348,54.945,42.932,4.124,-47.059,89.678,27.879,11.699,31.191,-72.036
0.885056899999654,6.347,30.945,-64.761,17.205,37.23,49.337,72.298,85.08,43.435,36.523,31.765,17.66,33.518,42.061,35.047,21.626,28.998,36.235,33.939,29.114,69.235,55.185,15.903,-37.278,109.056,45.27,17.835,51.652,-59.668
0.9000612999998339,-8.004,8.885,-87.238,-15.088,15.675,17.012,105.013,52.72,12.653,8.822,6.63,-0.288,10.943,24.088,21.692,3.674,10.526,17.243,8.802,10.129,48.161,31.051,-7.167,-66.954,105.361,19.097,3.473,21.374,-75.49
0.914961299999959,-23.365,-4.444,-106.619,-18.659,5.414,-7.084,133.085,20.391,-14.512,-10.142,-8.746,-11.559,-8.024,19.453,2.202,-9.138,-3.317,-2.754,-5.551,-3.201,36.842,16.163,-22.017,-82.769,97.571,1.147,-5.24,4.959,-89.759
0.9188077999997404,-22.829,-4.952,-103.951,-17.104,6.433,-4.515,100.676,31.642,-13.473,-7.058,-4.639,-13.084,-8.016,19.946,2.2,-8.104,-1.265,-1.215,-0.935,0.389,43.978,21.782,-16.359,-78.075,84.666,9.343,-4.722,7.003,-86.596
0.9188543999998728,-19.22,-6.996,-96.674,-42.189,0.279,-3.486,119.019,38.27,-3.213,-8.588,-2.073,-10.509,-5.446,14.291,9.882,-2.973,3.347,10.057,7.775,9.61,46.495,31.494,-4.56,-65.702,73.311,19.579,0.406,5.972,-83.435
0.930987599999753,-12.541,-0.841,-97.602,-40.098,6.938,2.153,105.58,54.626,6.012,-1.407,5.102,-0.253,0.195,21.449,14.996,6.764,11.029,16.707,23.649,20.359,53.109,43.246,9.277,-51.291,106.025,30.318,8.09,20.823,-83.352
0.9450297999997019,-6.893,9.918,-95.968,-9.319,21.788,17.008,73.199,80.187,11.129,11.402,12.269,1.797,3.781,30.137,18.567,8.806,15.116,18.228,27.724,21.875,60.74,46.789,11.829,-53.802,138.707,35.411,9.106,36.171,-81.731
0.9450934999999845,-15.083,4.785,-99.458,-8.798,14.082,9.818,105.913,58.077,3.945,-1.417,0.986,-8.451,-5.957,16.786,9.839,-4.522,2.806,14.623,5.155,4.435,49.409,29.324,-6.114,-70.142,106.292,20.006,-1.661,20.766,-89.334
0.9600575999998,-28.388,-12.638,-122.412,-34.404,-8.474,-20.418,138.595,25.744,-16.038,-24.982,-19.507,-17.664,-20.296,-0.649,-8.102,-19.887,-10.517,1.289,-15.855,-12.476,34.502,9.314,-24.55,-79.805,73.911,-1.53,-14.98,-0.772,-103.077
0.9601320999995551,-28.872,-13.65,-124.339,-39.493,-10.514,-19.372,106.181,45.186,-19.096,-20.859,-18.975,-17.647,-17.202,4.987,-8.093,-18.33,-1.797,-3.324,-7.642,-5.291,38.566,13.404,-17.866,-79.726,106.625,-0.504,-11.379,1.79,-99.9
0.9750959999996667,-18.597,2.245,-91.427,-19.986,10.501,10.361,78.41,77.928,5.001,2.216,1.536,-6.358,0.234,22.401,6.772,-5.504,10.5,11.024,10.808,10.596,47.237,29.272,-2.991,-72.986,139.306,14.865,0.928,18.695,-80.333
0.978859399999692,-14.48,-1.344,-90.311,-15.355,12.539,6.764,111.12,53.259,10.119,-0.348,0.51,-5.327,-0.791,16.743,4.203,-10.11,1.78,13.063,5.162,5.462,40.017,25.656,-8.624,-69.839,106.891,12.801,-3.171,20.213,-81.277
0.9910809999996673,-19.588,-20.298,-122.496,-36.857,-6.941,-20.395,120.742,20.931,-12.432,-22.376,-19.471,-21.204,-19.745,0.332,-8.096,-22.907,-12.566,-3.857,-9.7,-5.814,29.731,15.384,-17.836,-76.942,78.095,3.055,-12.902,2.262,-102.713
0.9911568999996234,-20.593,-17.716,-118.275,-42.455,-3.348,-10.641,88.346,48.062,-13.957,-16.719,-12.279,-16.572,-16.139,14.164,-0.404,-9.564,-4.869,-2.316,1.581,3.413,35.337,27.152,-7.572,-72.254,95.947,12.785,-5.204,0.723,-99.536
1.0041098999995484,-14.938,-7.452,-97.665,-27.044,15.099,9.862,79.549,70.043,-1.647,3.278,5.664,1.888,-0.242,29.007,12.917,10.425,9.48,12.543,16.436,15.705,42.474,37.371,1.144,-62.448,101.999,21.482,4.022,13.53,-82.53
1.0041754999997465,-16.46,-14.617,-113.961,-33.677,5.862,-3.468,112.257,37.698,-8.818,-4.41,-3.563,-5.286,-3.315,9.51,5.732,4.267,2.811,9.457,7.71,10.054,34.747,26.063,-6.541,-73.144,89.602,7.628,-3.666,3.782,-91.157
1.019119299999602,-20.029,-14.602,-112.31,-46.451,-3.365,-13.198,144.932,21.779,-9.322,-13.627,-8.17,-11.941,-6.386,3.353,-0.422,-1.372,-4.877,3.3,6.166,7.483,32.151,23.475,-6.023,-76.657,98.734,6.084,-7.249,-0.832,-99.775
1.0191824999997152,-12.325,3.856,-79.41,-25.912,11.495,4.234,112.512,54.545,9.643,3.805,7.719,3.44,6.428,29.99,11.362,12.461,8.448,11.493,22.041,19.258,43.389,38.821,7.816,-60.186,114.004,26.057,3.005,25.809,-88.405
1.0341220999998768,-7.189,6.926,-83.941,-4.881,14.557,12.939,80.124,73.445,12.707,9.437,6.175,4.462,4.373,28.423,15.449,13.473,9.977,12.507,17.408,18.214,44.883,39.295,6.271,-65.762,119.526,26.544,7.612,25.783,-87.292
1.0381992999996328,-13.33,-6.914,-113.571,-15.123,5.834,6.778,47.768,64.663,1.936,-2.868,-6.127,-8.863,-11.513,-0.807,2.626,-1.397,-10.013,2.248,-4.638,4.364,35.104,21.837,-11.154,-86.188,123.505,7.049,-2.641,-6.006,-88.741
1.0513367999997172,-15.366,-7.931,-104.236,-28.427,11.975,10.357,15.445,76.893,5.008,-0.304,-3.047,-7.317,-9.453,1.243,1.086,-3.445,-8.466,3.783,-6.171,2.823,36.093,15.667,-14.729,-80.979,106.475,3.969,-6.737,-3.438,-76.869
1.05141599999979,-13.301,-1.776,-82.103,-33.01,11.451,10.347,48.218,72.718,8.077,3.795,0.542,-4.236,1.315,21.222,8.257,2.706,6.399,8.39,4.594,6.406,41.18,20.262,-8.054,-73.725,83.827,11.649,-0.583,18.082,-81.403
1.0642372999996041,-14.825,-3.823,-88.168,-33.489,2.218,-2.983,80.957,40.37,-1.665,-4.406,-2.532,-6.281,1.314,17.102,1.589,-1.395,-0.78,3.77,5.102,3.838,38.065,20.755,-8.046,-80.824,98.6,12.662,0.443,14.478,-91.568
1.0643032999996649,-6.101,7.451,-90.641,-15.013,19.634,9.315,48.601,60.31,4.997,9.943,11.815,6.021,7.46,10.937,7.735,6.291,0.758,10.427,16.367,16.129,46.224,35.078,3.745,-66.911,113.871,25.97,6.59,21.636,-75.595
1.0792625999997654,4.664,22.813,-81.329,0.884,36.009,34.921,16.277,93.037,21.898,29.913,27.172,17.798,20.773,23.222,30.781,24.216,18.688,26.298,36.331,32.507,60.01,57.585,19.623,-43.278,106.072,47.461,21.44,43.131,-68.859
1.079325699999572,-13.784,-1.288,-106.351,-31.392,8.308,2.611,49.048,60.669,-6.301,-2.392,4.604,-1.688,1.797,15.002,16.406,8.31,1.763,10.902,16.315,14.032,42.532,37.035,-1.914,-65.264,108.015,30.507,8.099,22.083,-91.844
1.0942386999995506,-35.287,-32.538,-138.52,-63.636,-18.34,-29.667,81.787,28.333,-38.57,-34.665,-27.164,-26.277,-30.48,-12.166,-15.886,-23.461,-26.928,-18.822,-15.977,-13.647,17.386,4.723,-31.113,-97.474,94.587,-1.799,-21.111,-10.214,-101.999
1.0981682999999975,-15.272,-14.062,-113.791,-42.568,6.269,3.15,49.43,61.092,-8.305,-6.966,-8.694,-11.906,-16.105,-3.444,-0.501,-10.63,-11.532,-9.582,1.457,2.76,35.812,23.673,-10.077,-84.056,71.439,7.937,-8.794,-0.983,-82.941
1.1103463999997985,10.359,18.227,-80.889,-9.738,35.976,35.935,17.105,93.818,24.491,25.829,24.103,15.771,16.698,25.761,31.263,20.119,13.583,20.141,34.244,30.935,59.855,56.437,18.622,-51.185,103.131,40.716,19.904,31.806,-66.465
1.1243188999997074,-5.02,13.598,-91.055,-13.314,24.157,14.894,49.875,61.449,9.097,14.532,12.808,6.021,13.096,21.636,18.424,9.853,6.397,18.584,17.303,17.584,41.864,36.401,2.722,-60.867,129.667,29.917,7.588,33.311,-73.57
1.1243844999999055,-30.119,-11.006,-121.19,-45.576,0.567,-17.396,60.584,29.112,-23.188,-16.733,-16.407,-18.063,-16.631,-6.562,-7.722,-17.31,-10.515,-3.976,-13.453,-9.586,17.744,4.601,-25.458,-91.033,97.262,-1.363,-19.059,8.687,-98.6
1.1393178999996962,-32.65,-30.975,-134.901,-56.289,-10.704,-24.551,28.248,35.743,-33.923,-32.598,-26.636,-22.656,-29.422,-20.388,-16.936,-26.514,-21.263,-14.73,-21.636,-17.261,11.578,-1.039,-37.216,-105.286,76.16,-10.071,-24.163,-9.252,-119.506
1.1393818999999894,-31.08,-34.53,-138.864,-52.134,-11.206,-32.211,61.007,33.146,-36.45,-33.59,-27.122,-23.146,-30.418,-11.146,-15.895,-24.438,-21.754,-13.691,-18.028,-14.682,13.104,0.499,-35.129,-108.767,97.089,-7.5,-21.065,-8.218,-111.189
1.154309099999864,-29.0,-18.614,-115.672,-45.934,0.588,-19.371,92.71,50.019,-21.045,-16.138,-15.824,-16.975,-19.116,9.357,-2.046,-13.143,-6.876,-5.993,-3.153,-2.372,22.312,13.306,-16.651,-93.289,92.893,3.266,-12.847,2.548,-85.463
1.1543658999999025,-23.336,-12.448,-90.453,-42.815,7.248,-2.958,60.341,77.634,-6.679,-4.851,-5.05,-6.712,-9.363,12.934,5.64,-6.47,0.816,0.161,5.047,8.901,25.364,26.101,-6.388,-75.265,87.677,14.021,-7.199,4.083,-82.304
1.1703695999999582,-25.874,-24.218,-108.293,-52.506,-7.104,-20.886,82.823,49.891,-24.091,-22.264,-17.852,-16.951,-22.674,-0.911,-9.222,-18.246,-10.968,-7.524,-7.766,-2.891,12.531,15.316,-19.702,-84.411,101.422,7.347,-14.877,3.054,-98.103
1.1704354999997122,-29.946,-18.559,-120.993,-52.453,-6.585,-29.574,115.527,22.689,-33.801,-29.414,-21.933,-23.594,-29.311,-3.984,-12.287,-19.765,-15.056,-10.59,-6.734,-10.061,12.518,10.69,-19.17,-88.938,111.054,7.34,-14.349,14.834,-87.759
1.1844053999998323,-22.744,1.44,-94.744,-34.982,13.914,-6.491,104.653,50.843,-15.324,-7.868,-2.956,-5.128,-10.839,0.631,4.119,-3.864,-4.282,0.691,10.692,6.856,25.313,26.049,-0.707,-69.381,132.46,22.702,-0.503,23.528,-64.105
1.184484099999736,-13.5,4.512,-87.989,-25.213,16.974,7.348,72.273,80.506,-4.55,3.923,2.683,1.025,-2.119,0.118,11.8,-0.786,1.358,5.301,9.144,11.972,25.8,31.146,0.83,-63.676,134.377,25.753,1.547,20.431,-76.336
1.1994205999999394,-6.314,3.483,-101.221,-19.553,13.371,7.341,39.926,84.012,-4.033,2.382,-1.419,-6.661,-6.728,9.852,12.3,-3.859,2.893,5.296,4.524,5.812,23.725,28.041,-6.855,-68.736,101.967,24.19,0.009,27.071,-93.166
1.1994839999997566,-7.332,5.529,-93.435,-20.046,17.456,-0.351,72.674,63.436,-10.177,-0.182,2.169,-4.092,-6.209,18.551,8.702,-0.781,4.427,11.438,6.056,9.393,21.14,25.451,-9.41,-66.105,91.107,25.191,1.545,30.117,-72.068
1.2144882999996298,-24.231,-8.821,-93.342,-48.715,4.631,-25.454,105.389,31.097,-32.708,-18.112,-9.616,-12.797,-15.424,5.212,-5.139,-9.49,-4.287,2.205,-5.22,1.699,6.262,12.618,-17.085,-76.798,119.193,8.772,-9.727,6.521,-66.36
1.2145535999998174,-32.404,-19.059,-110.155,-67.622,-10.743,-34.138,73.008,22.869,-39.848,-30.902,-23.439,-20.469,-24.118,-2.99,-8.72,-18.19,-7.356,-9.068,-8.289,-9.062,-0.917,10.044,-17.58,-80.819,107.803,-0.458,-16.377,-4.756,-92.934
1.2315158999999767,-15.465,-2.133,-104.921,-39.377,6.686,-6.951,40.659,55.634,-13.68,-6.28,-2.411,-1.493,-3.601,17.506,8.195,-3.314,11.094,9.897,13.749,9.903,11.38,30.526,-1.169,-53.586,111.281,21.571,-0.479,24.45,-86.181
1.2315828999999212,-4.179,11.701,-93.033,-18.333,24.61,10.987,43.18,77.607,1.703,13.706,18.084,7.73,11.772,32.345,17.408,7.96,21.842,23.719,22.956,24.75,18.028,42.279,5.492,-41.237,143.958,34.357,8.231,38.77,-62.529
1.2455371999999443,-14.421,-3.68,-103.187,-43.418,9.729,-9.004,75.925,45.254,-18.791,-6.8,-1.402,-8.16,-7.196,6.185,6.12,-6.905,0.303,-3.969,6.027,7.307,6.739,26.867,-8.858,-61.688,130.494,17.417,-4.073,8.505,-86.032
1.245602499999677,-23.116,-22.119,-113.842,-68.99,-9.749,-33.074,105.563,17.544,-37.728,-28.31,-23.43,-16.861,-25.631,-22.51,-8.231,-22.268,-17.628,-21.896,-9.86,-8.582,-7.612,7.373,-24.218,-71.873,98.088,-0.019,-15.852,-16.094,-105.414
1.259534999999687,-18.994,-16.462,-110.142,-53.551,-5.64,-25.356,73.182,46.216,-22.833,-17.523,-14.697,-13.77,-17.921,-4.045,-8.223,-17.635,-3.778,-0.869,-11.387,-7.037,-10.678,3.779,-25.731,-62.579,108.236,-0.019,-14.812,-3.783,-76.107
1.2595994999996947,-15.389,-1.076,-98.761,-25.321,6.148,-0.228,40.833,78.958,-0.781,0.425,-0.338,-10.17,-5.096,24.648,0.495,-7.883,8.521,9.89,-3.691,0.143,-5.032,15.046,-14.434,-47.148,100.955,11.764,-6.088,17.226,-66.297
1.274575499999628,-18.96,-1.075,-94.051,-29.394,3.581,1.822,62.822,73.756,-8.977,-3.674,-3.924,-10.672,-10.726,5.668,-0.018,-11.461,-5.32,-11.637,-2.663,3.216,-6.564,17.08,-9.297,-33.781,68.579,18.412,-0.958,18.233,-91.334
1.2895356999997603,-24.576,-16.955,-107.277,-53.956,-8.206,-18.16,59.173,46.017,-29.973,-23.138,-18.777,-20.908,-27.109,-24.563,-11.801,-24.258,-20.171,-24.433,-14.444,-7.033,-17.828,3.743,-21.583,-42.456,98.736,3.537,-5.056,0.797,-95.341
1.2935340999997607,-27.626,-25.648,-121.002,-58.512,-13.833,-28.9,91.901,28.04,-31.48,-30.287,-25.93,-24.985,-30.668,-18.391,-17.425,-28.332,-15.028,-14.162,-18.528,-14.711,-22.421,-0.871,-29.246,-60.857,131.425,-9.787,-5.563,-11.5,-86.024
1.3057003999997505,-24.524,-18.45,-111.148,-49.745,-7.672,-25.285,124.597,27.5,-24.276,-20.011,-16.683,-14.714,-18.854,-4.028,-11.772,-20.619,-3.742,-7.488,-7.238,-0.864,-16.763,12.962,-16.409,-50.55,120.023,2.006,6.225,-3.804,-92.086
1.3057778999996117,-19.889,-9.21,-102.327,-52.769,-0.492,-21.162,101.931,31.059,-23.74,-13.331,-6.932,-10.601,-14.225,-6.073,-4.076,-12.914,0.872,-5.944,3.015,7.846,-13.161,22.683,-5.634,-26.933,87.628,16.349,18.515,6.959,-94.043
1.3196616999998696,-24.48,-16.885,-117.082,-62.45,-5.614,-23.19,69.553,32.052,-28.839,-21.514,-17.171,-18.275,-20.87,-5.555,-4.071,-17.511,2.92,6.358,1.475,-2.408,-20.32,14.975,-14.85,-29.467,89.589,9.16,17.984,-0.733,-92.924
1.3197278999996342,-36.751,-34.287,-127.211,-72.121,-16.879,-31.363,37.209,34.582,-35.47,-29.69,-29.45,-23.38,-26.485,5.209,-14.314,-27.228,7.528,13.011,-8.26,-9.065,-31.57,2.153,-27.643,-42.758,120.751,-3.657,9.257,-14.564,-101.028
1.334652399999868,-32.103,-32.716,-111.202,-68.463,-11.739,-28.771,48.442,41.207,-28.262,-21.463,-18.149,-16.184,-19.286,15.45,-11.738,-20.541,12.132,6.851,-6.203,-0.347,-26.415,8.811,-19.418,-33.494,120.63,1.982,13.346,-9.427,-93.755
1.3347169999997277,-8.505,-11.678,-88.549,-44.828,6.715,-12.348,81.181,38.092,-13.377,-5.56,1.849,-1.823,-4.41,17.996,10.816,-3.102,15.193,10.43,14.296,13.998,-9.483,31.856,0.581,-12.456,119.997,22.473,30.751,9.538,-68.558
1.3496574999999211,-3.886,-5.007,-86.412,-37.099,9.782,-9.774,93.396,28.833,-21.561,-6.579,-0.715,-2.334,-7.992,7.732,12.854,-6.685,11.08,19.129,17.355,13.472,-11.01,29.775,-0.957,-11.931,123.463,27.573,32.257,12.09,-62.854
1.353408599999966,-20.788,-13.199,-99.645,-50.382,2.088,-16.937,61.027,45.71,-32.298,-17.331,-12.497,-16.164,-23.865,-3.034,-4.577,-20.51,1.847,9.888,-1.105,1.163,-25.344,12.839,-13.763,-20.628,105.921,15.763,20.442,3.881,-81.235
1.365073299999949,-18.718,-3.451,-101.082,-39.061,9.258,-4.112,28.69,74.866,-10.236,-7.068,-4.288,-10.0,-14.108,-3.031,3.112,-12.805,0.308,-1.905,5.044,7.822,-20.708,26.658,-2.479,-6.775,102.741,22.407,27.081,13.611,-86.789
1.3651393999998618,-8.453,3.212,-95.346,-24.165,14.884,0.503,61.449,50.712,-1.517,1.649,2.889,1.793,-0.261,-6.102,13.867,-6.132,3.382,-0.366,21.945,19.597,-13.002,42.001,8.282,0.404,130.303,33.143,35.251,19.233,-72.87
1.3797348999996757,-25.863,-20.87,-109.595,-53.854,-5.11,-31.773,94.176,18.386,-33.79,-26.53,-19.143,-15.115,-25.364,-20.441,-8.688,-25.594,-9.429,-5.489,-2.156,-1.939,-32.969,12.757,-15.805,-30.335,131.198,8.519,15.236,-5.89,-80.481
1.379801099999895,-41.719,-33.144,-120.244,-72.756,-19.45,-46.598,61.806,24.516,-49.126,-44.946,-33.469,-30.981,-46.343,-31.179,-24.561,-37.864,-23.765,-17.266,-29.306,-22.43,-48.818,-9.285,-34.744,-48.235,98.791,-11.469,2.413,-19.716,-108.578
1.394734999999855,-23.746,-9.545,-99.119,-40.92,-4.061,-16.325,29.469,57.279,-16.289,-16.212,-13.455,-14.044,-24.78,-20.389,-5.069,-23.481,-11.445,-10.589,-10.321,-6.526,-32.375,12.241,-17.291,-26.158,75.638,8.522,20.341,-0.229,-101.809
1.3947997999998734,-12.452,0.711,-85.188,-26.534,7.214,-2.989,62.227,66.955,-0.904,-2.364,-4.732,-3.784,-12.46,-2.438,4.67,-15.773,3.935,0.18,7.108,6.288,-20.56,22.475,-7.027,-16.398,94.006,17.223,24.419,8.993,-72.506
1.4097506999996767,-28.321,-11.585,-101.497,-50.586,-8.163,-21.429,94.953,34.613,-18.833,-24.391,-21.634,-18.637,-29.866,-5.509,-11.216,-25.491,-5.29,-6.993,-6.219,-5.501,-31.81,5.034,-20.34,-29.702,113.379,0.812,10.05,-2.287,-76.019
1.4318013999995856,-32.903,-7.475,-102.42,-54.634,-14.302,-23.457,113.301,27.918,-22.913,-24.879,-19.051,-19.643,-28.299,-20.361,-13.254,-26.49,-16.043,-12.621,-7.75,-5.496,-32.803,8.615,-17.759,-25.573,114.291,7.983,17.213,0.79,-83.628
1.4318663999997625,-14.94,5.34,-86.948,-39.21,3.13,-8.064,92.695,43.772,-12.644,-6.923,-2.638,-5.279,-13.414,-16.754,3.153,-19.291,-8.855,-4.411,6.602,6.805,-23.036,27.562,-2.372,-14.277,118.787,27.443,31.028,11.035,-68.175
1.4319103999996514,-9.289,-0.813,-93.009,-37.122,6.201,-9.593,60.327,47.314,-15.705,-13.576,-9.807,-9.884,-22.622,-13.664,2.125,-22.346,-4.748,-3.382,1.985,1.163,-27.624,19.338,-9.029,-25.021,135.062,16.145,20.238,2.315,-75.792
1.4398415999999088,-21.063,-11.058,-102.65,-35.548,-9.687,-22.391,77.685,40.607,-23.886,-26.882,-24.142,-20.12,-34.382,-24.921,-11.709,-30.521,-10.891,-4.916,-7.239,-8.572,-34.769,4.462,-20.291,-34.218,132.366,1.784,10.996,-9.983,-85.962
1.4399113999998008,-23.604,-5.412,-93.325,-32.438,-6.603,-22.881,110.395,31.857,-22.838,-19.683,-14.384,-10.367,-26.151,-19.773,-5.55,-25.879,-5.244,6.36,5.064,3.732,-27.562,17.777,-7.463,-16.253,103.544,13.565,21.744,-2.288,-59.748
1.454816099999789,-16.92,3.815,-94.769,-44.701,7.748,-12.1,78.009,36.436,-17.18,-9.93,-0.538,-3.696,-17.416,-10.531,7.263,-18.169,0.396,5.329,13.256,13.462,-20.874,31.079,2.278,-6.503,89.096,26.359,30.431,8.985,-60.201
1.4548824999997123,-19.465,-5.41,-113.63,-60.026,-1.481,-11.575,45.656,43.572,-19.724,-16.58,-8.734,-14.963,-26.107,-30.501,-0.941,-25.835,-13.949,-14.144,1.46,1.666,-28.538,17.728,-13.605,-31.087,110.524,21.21,25.278,-1.783,-92.416
1.4699243999998544,-28.154,-22.311,-119.664,-63.04,-19.411,-29.495,78.398,14.327,-31.487,-31.42,-22.557,-23.145,-40.426,-45.84,-12.723,-37.593,-22.644,-21.302,-7.251,-7.557,-39.268,7.464,-22.813,-44.888,120.659,12.992,15.519,-19.199,-96.934
1.4860368999998173,-26.589,-22.289,-111.347,-62.464,-17.854,-40.736,111.107,-6.692,-39.141,-34.463,-23.56,-19.024,-43.972,-32.986,-11.173,-34.993,-13.4,-17.183,-5.195,-2.939,-40.253,14.117,-12.544,-26.4,93.899,10.93,12.942,-19.693,-73.784
1.4861016999998355,-14.78,-10.483,-109.186,-61.89,-7.078,-21.227,78.721,26.102,-24.244,-17.522,-15.339,-13.881,-32.145,-24.756,-3.477,-27.274,-7.751,-15.629,-1.603,1.675,-33.041,16.152,-8.433,-23.812,79.46,12.456,18.564,-10.964,-69.611
1.4998945999996067,-8.617,-5.862,-111.639,-59.779,-0.923,2.872,46.367,58.864,0.883,-2.135,-8.151,-8.745,-18.28,-27.293,3.698,-24.685,-3.133,-7.928,-0.577,1.161,-29.421,12.55,-13.548,-38.645,101.922,10.394,19.058,-7.879,-68.005
1.4999609999999848,-18.855,-13.029,-111.015,-66.891,-3.996,-4.303,79.108,26.53,0.37,-6.231,-8.656,-8.223,-18.262,-28.29,0.109,-25.173,-0.056,-3.31,-3.138,-1.914,-34.003,13.562,-14.559,-33.996,115.653,4.236,14.94,-15.556,-71.523
1.5148991999999453,-26.52,-20.7,-106.805,-73.484,-8.603,-21.205,111.817,-5.772,-11.414,-12.373,-10.696,-10.264,-20.805,-28.262,-6.552,-23.611,-3.129,-8.942,0.451,0.137,-32.944,19.184,-9.422,-17.568,108.365,10.379,16.975,-23.225,-78.624
1.5149659999997311,-10.612,-9.921,-96.965,-53.943,4.214,-5.302,79.429,23.435,2.942,0.959,3.147,1.529,-7.464,-15.938,10.361,-12.316,6.608,4.387,16.845,16.53,-18.567,33.509,1.859,-9.866,107.232,32.398,27.204,-9.881,-62.664
1.529881199999636,1.694,9.557,-94.819,-31.348,19.579,21.343,47.075,56.199,17.796,15.303,15.951,11.261,0.74,-6.701,26.745,-5.132,16.335,20.777,20.926,24.198,-11.888,42.185,5.955,-10.881,99.44,36.464,35.886,6.522,-55.429
1.5299393999998756,-11.116,2.887,-103.433,-44.636,9.825,12.1,62.397,44.872,3.946,5.554,4.152,-4.119,-15.655,-24.113,9.299,-17.934,0.949,1.288,4.512,9.317,-21.61,30.359,-4.809,-17.53,82.434,21.571,28.678,-6.292,-70.23
1.5470883999996659,-15.203,-6.85,-91.546,-58.936,2.643,-5.33,95.122,12.552,-0.156,-5.722,-3.024,-9.238,-20.762,-26.65,1.605,-20.99,-0.076,-12.033,8.093,8.796,-22.101,28.792,-0.194,-9.828,104.893,25.648,21.477,-19.606,-54.791
1.5471577999996953,3.255,14.674,-66.352,-36.848,18.522,9.532,127.815,22.786,16.238,11.19,15.934,12.288,1.8,-1.008,26.707,-2.014,21.441,11.033,30.627,29.792,-8.759,46.182,18.762,11.187,137.576,41.504,36.312,-4.217,-27.584
1.559979999999996,6.838,28.492,-68.335,-21.954,27.725,27.453,95.411,55.551,19.295,26.035,24.115,16.374,7.434,-3.568,32.316,1.062,18.858,19.219,31.108,31.811,-6.701,47.16,15.669,12.2,138.463,38.9,43.96,5.521,-31.655
1.5600451999998768,-6.489,14.119,-81.586,-39.863,19.5,20.254,63.041,52.421,11.591,10.64,10.771,-0.036,-8.455,-24.569,15.377,-13.283,8.08,5.88,20.319,18.459,-12.842,38.404,4.895,3.479,108.099,34.763,30.084,-5.243,-36.746
1.5749799999998686,-8.531,6.932,-77.919,-56.729,9.747,1.79,95.765,20.093,4.92,-4.74,4.613,-0.548,-12.545,-19.422,12.8,-15.832,15.245,6.898,22.348,16.391,-13.341,40.927,10.526,5.525,97.744,36.265,27.493,-10.361,-31.586
1.5750443999995696,0.186,11.024,-77.841,-51.55,9.737,-4.359,128.457,4.704,1.329,2.437,10.756,7.137,-5.36,-10.693,18.935,-11.717,15.742,12.014,23.862,21.498,-10.766,39.861,14.614,6.544,103.794,34.692,35.662,-11.375,-34.116
1.5899699999999939,7.358,20.746,-78.788,-28.956,26.121,18.187,96.053,37.487,14.135,19.341,23.04,13.277,4.891,-11.195,28.65,-4.021,16.751,15.589,32.035,32.235,-2.046,47.506,20.747,16.271,107.277,43.879,41.262,-5.216,-27.934
1.5900281999997787,7.351,29.947,-69.999,-16.632,36.854,34.05,63.682,54.356,20.269,22.395,28.14,17.362,8.472,-11.696,36.306,3.155,20.832,17.622,39.688,36.301,0.005,58.217,27.386,32.649,97.435,52.032,45.319,4.011,-26.882
1.6071445999996286,-3.927,16.085,-80.176,-37.62,16.324,5.327,96.406,22.026,-5.367,0.856,11.206,4.025,-11.004,-25.517,22.95,-11.705,4.93,-1.863,22.742,19.871,-16.389,41.765,11.477,22.37,80.432,34.049,32.978,-14.436,-42.736
1.607211599999573,-4.948,9.409,-85.219,-42.706,10.16,-2.363,91.699,7.659,-7.923,-6.317,6.072,-0.077,-15.603,-30.614,19.341,-17.328,4.413,-6.984,20.67,20.876,-16.885,37.625,8.904,20.298,88.548,28.892,24.236,-24.155,-32.96
1.620417599999655,11.451,34.503,-55.419,-12.437,36.278,30.427,59.332,40.439,24.872,25.965,31.169,22.464,13.614,-6.505,42.887,7.28,34.634,25.81,48.826,43.909,5.162,67.301,37.072,51.016,116.637,52.429,47.266,7.632,-14.996
1.6204937999996218,8.366,36.005,-54.339,-20.109,38.803,32.958,50.563,54.744,27.409,33.111,33.187,23.979,15.137,-2.4,42.845,8.297,35.624,34.494,43.142,38.23,1.058,64.16,34.986,49.941,121.643,51.865,51.317,14.796,-34.449
1.6350297999997565,-3.938,15.989,-84.511,-50.315,19.809,0.65,83.3,22.413,3.816,5.926,14.711,6.024,-9.469,-19.816,26.408,-11.691,14.584,3.721,21.582,21.285,-13.8,43.091,12.409,29.398,114.349,35.931,30.261,-10.834,-41.587
1.6350918999996793,8.361,30.83,-75.718,-26.698,28.498,16.531,80.143,32.637,16.107,17.703,27.504,18.313,1.811,-10.062,40.214,-0.921,24.303,4.229,40.004,38.17,1.583,63.028,28.278,54.472,116.284,51.777,43.038,-0.064,-9.27
1.649939699999777,13.988,43.607,-59.248,-7.204,38.204,31.371,112.851,39.777,25.825,36.128,39.772,30.59,18.203,0.194,47.858,9.838,34.525,20.619,52.259,48.89,11.315,74.236,41.058,76.959,105.409,65.045,58.877,14.793,1.498
1.6649744999999712,-1.395,24.095,-77.632,-39.472,22.284,-0.424,137.841,7.462,1.721,8.427,20.776,12.117,-3.844,-19.274,27.83,-9.127,21.171,7.278,33.251,31.423,-6.115,51.62,21.037,57.927,91.984,46.025,36.789,-8.276,-17.971
1.6688289999997323,1.68,18.948,-74.48,-47.63,17.651,-2.985,105.428,12.065,-1.355,-1.827,14.608,5.957,-14.086,-24.89,27.802,-14.753,16.539,0.099,35.267,31.392,-9.695,51.568,22.04,58.381,101.114,39.319,31.117,-15.44,-21.027
1.6809952999997222,14.999,31.225,-51.864,-20.942,31.978,29.806,73.047,44.841,23.237,27.376,31.5,23.369,8.469,-6.935,44.681,-1.419,28.305,22.128,52.65,49.291,4.66,68.935,39.949,79.327,122.529,54.136,49.016,3.531,-6.661
1.681061999999656,10.373,37.341,-60.522,-18.872,38.094,34.387,105.761,54.53,30.899,34.009,37.103,28.469,16.145,-3.854,46.685,-0.905,38.523,38.5,55.159,52.316,10.803,71.428,39.909,79.248,144.948,59.717,48.967,7.113,-6.142
1.695079799999803,4.727,33.718,-79.929,-36.271,28.834,15.91,138.443,22.2,17.035,15.532,23.234,14.608,-0.777,-18.195,38.954,-11.15,30.8,22.067,44.346,38.431,2.595,66.233,34.746,73.021,131.483,52.485,40.721,-1.603,-26.629
1.6951443999996627,-0.913,10.118,-96.243,-55.703,8.825,-9.722,171.093,-10.098,-11.159,-7.025,1.694,-2.825,-21.781,-32.009,21.497,-28.557,5.154,-10.23,24.321,21.486,-14.314,49.773,22.416,68.85,99.077,39.113,27.873,-20.044,-40.434
1.7101248999997551,-10.134,-6.798,-111.516,-68.455,-1.942,-22.007,138.646,-23.408,-27.029,-19.826,-5.992,-5.383,-28.931,-32.489,8.667,-39.287,0.538,-12.781,16.612,18.391,-21.472,37.428,10.098,62.633,88.219,30.365,17.087,-37.955,-32.709
1.710188599999583,-6.537,11.139,-98.597,-56.091,12.917,3.118,106.232,9.403,-3.948,-0.851,9.383,9.479,-14.558,-23.235,24.028,-24.391,22.567,12.334,31.965,30.156,-8.13,51.735,20.334,67.181,120.918,38.019,30.389,-25.11,-30.627
1.7240838999996413,2.178,18.813,-84.153,-48.863,22.638,18.996,138.914,23.739,15.011,17.081,17.058,14.592,-4.809,-28.847,33.226,-14.633,20.495,6.687,33.47,30.638,-4.024,57.831,26.462,70.188,115.674,40.542,37.531,-12.277,-40.33
1.7281762999996317,-0.898,-0.162,-101.488,-64.695,12.881,0.534,171.562,-8.561,0.139,2.207,6.282,6.893,-14.538,-42.138,22.946,-22.303,4.081,-17.911,22.678,24.46,-13.753,44.453,13.627,66.019,83.283,32.305,22.637,-30.708,-34.655
1.741204899999957,3.202,3.937,-103.948,-61.557,14.918,-0.491,139.115,-7.527,-6.009,-1.382,9.862,9.96,-14.524,-33.387,28.559,-13.571,16.372,-5.597,34.438,36.218,-7.08,51.581,22.323,75.687,113.939,39.445,30.299,-34.263,-23.349
1.7412685999997848,12.932,24.425,-82.327,-43.564,28.223,13.854,146.149,7.337,5.781,11.94,23.685,17.635,-4.263,-19.009,39.801,1.299,31.212,17.462,45.675,47.453,1.637,65.362,37.158,88.931,146.612,51.701,47.687,-6.052,-21.277
1.7541762999999264,8.821,26.45,-82.757,-43.009,27.17,11.791,174.692,1.694,6.799,8.342,22.124,15.056,-8.357,-25.65,35.15,-2.801,22.984,10.272,37.432,39.721,-11.173,60.174,27.387,93.966,114.19,48.575,38.93,3.688,-13.571
1.754243399999723,0.103,18.739,-93.432,-53.724,18.433,10.242,142.242,10.402,2.694,4.235,10.831,7.868,-16.034,-33.309,29.992,-5.359,13.227,-7.157,29.71,29.435,-21.408,50.38,16.601,92.335,81.801,39.817,27.108,-17.32,-17.656
1.769134699999995,-3.996,11.548,-91.29,-69.552,14.317,6.646,133.39,8.855,1.667,8.329,7.234,5.299,-14.993,-28.152,26.376,-0.743,14.239,-9.199,28.656,26.844,-16.263,46.231,16.584,77.385,114.507,35.167,26.056,-35.746,-37.106
1.7841617999997652,-3.992,12.049,-87.1,-73.581,17.888,3.565,166.044,-6.011,6.276,7.808,15.936,11.954,-8.83,-24.026,28.911,3.868,21.397,2.594,35.799,34.502,-9.587,52.845,20.666,74.234,147.18,37.693,29.104,-30.587,-27.847
1.7842181999999411,2.672,19.209,-91.624,-61.724,21.457,10.222,165.878,-1.394,5.757,3.702,17.457,13.479,-10.358,-36.297,37.079,8.988,21.375,5.153,41.399,36.516,-10.09,60.989,26.793,89.017,138.836,43.803,33.174,-21.335,-18.598
1.7881541999995534,-1.941,2.796,-110.487,-76.007,6.578,-10.793,188.766,-27.521,-19.864,-16.282,-5.102,-6.003,-32.89,-59.315,21.16,-1.268,2.399,-12.271,24.452,17.012,-18.789,44.021,18.057,77.145,145.869,28.39,20.333,-39.757,-50.855
1.8012606999996024,-10.648,-8.477,-117.037,-86.177,-0.601,-26.152,188.578,-48.498,-29.066,-26.511,-9.707,-10.095,-43.615,-60.792,8.332,-8.439,-0.678,-12.259,17.255,12.384,-19.282,34.756,10.354,65.285,124.206,17.603,9.554,-50.988,-53.878
1.8013354999998228,3.195,22.782,-89.255,-53.303,29.114,6.662,156.114,-15.662,3.751,6.303,23.09,16.043,-14.37,-36.653,34.451,14.111,22.377,9.783,39.779,36.45,-1.332,59.312,25.713,94.933,91.807,44.226,31.574,-22.76,-21.036
1.8142823999996835,8.827,33.517,-81.481,-44.028,37.282,23.049,130.342,7.92,10.408,19.104,25.628,15.514,-5.646,-36.104,41.076,19.733,18.768,1.064,34.616,33.852,-1.331,58.228,23.638,100.986,81.469,51.866,38.202,-14.028,-24.089
1.8143506999999772,-11.162,2.745,-107.015,-76.26,5.994,-9.249,163.0,-24.363,-21.878,-13.19,-4.623,-8.067,-34.842,-60.146,15.932,-3.853,-2.767,-22.503,7.942,10.765,-19.773,29.993,2.61,68.609,94.707,23.125,14.598,-41.166,-51.729
1.8293071999996755,-11.151,4.28,-98.711,-70.548,9.574,-8.215,178.718,-27.413,-13.147,-9.591,4.603,3.212,-30.197,-53.426,24.113,4.348,9.531,-11.21,21.766,22.025,-10.531,41.234,13.878,67.516,127.4,26.176,19.706,-42.662,-32.722
1.8442620999999235,3.205,22.718,-72.997,-37.69,33.643,22.532,146.264,5.402,14.018,16.034,25.603,22.164,-7.625,-33.905,39.971,24.835,23.354,-2.49,37.626,36.86,4.848,60.148,26.672,80.256,160.061,42.543,35.056,-32.885,-21.419
1.8443214999997508,-3.971,6.814,-96.491,-61.218,16.191,3.041,113.842,-15.608,-10.587,-5.499,4.573,2.162,-27.085,-53.851,21.488,7.905,2.326,-20.93,16.071,18.38,-13.087,38.058,3.592,64.807,127.625,22.521,15.041,-47.197,-44.451
1.8604229999996278,-12.676,-1.39,-124.059,-82.674,-1.244,-11.819,111.167,-33.523,-29.019,-24.449,-11.313,-13.21,-47.55,-73.777,12.245,-6.448,-7.41,-23.471,8.37,9.14,-25.882,25.725,-5.634,63.205,95.222,12.764,3.242,-49.711,-46.456
1.8604851999998573,-8.565,17.055,-102.93,-63.124,13.614,2.026,143.843,-17.608,-10.547,-8.543,3.042,1.66,-36.232,-50.138,23.503,6.366,13.602,-5.004,26.805,22.451,-10.487,41.068,11.791,77.487,127.915,31.707,19.121,-36.342,-36.676
1.8743458999997529,-4.97,22.161,-82.335,-61.524,19.748,5.097,175.975,-19.639,-5.413,0.687,12.773,10.368,-25.437,-32.669,27.578,15.069,22.81,2.685,33.438,29.088,-1.767,46.663,13.316,73.311,160.062,35.262,25.249,-37.33,-41.762
1.8744103999997606,-0.354,14.966,-95.06,-72.733,15.118,9.703,143.524,-18.083,-11.556,0.174,8.662,4.21,-25.412,-54.153,29.087,14.029,10.491,-6.539,27.257,26.498,-6.376,43.542,5.105,68.627,127.627,28.054,17.539,-36.78,-42.233
1.8893028999996204,0.158,11.365,-108.797,-63.951,13.053,6.619,176.168,-21.651,-14.106,-7.511,-0.056,-1.43,-33.583,-71.005,24.448,9.405,0.235,-20.365,21.082,20.323,-8.419,42.986,7.662,69.583,109.056,29.051,13.423,-32.645,-44.752
1.8893619999998919,-9.576,9.817,-105.615,-58.252,7.405,-11.83,208.779,-44.171,-23.313,-23.385,-5.691,-1.941,-43.796,-63.762,15.202,6.321,3.821,-17.271,22.086,18.254,-9.435,41.407,11.24,64.902,141.735,28.509,13.922,-39.785,-46.756
1.904336499999772,-9.054,18.516,-95.775,-58.706,11.496,-0.035,176.295,-24.659,-21.24,-15.164,4.048,5.234,-34.53,-56.526,23.896,14.512,13.551,-1.884,32.822,30.019,-3.79,46.488,12.766,72.522,153.376,32.067,19.544,-36.671,-26.217
1.904411899999559,-0.848,24.133,-86.97,-58.647,18.657,18.408,143.843,2.518,-8.924,1.245,13.266,8.302,-23.737,-55.957,33.093,20.133,17.123,0.679,34.839,35.112,3.386,53.614,15.827,81.671,135.292,37.158,22.086,-25.876,-15.945
1.9206969999995636,-4.945,11.302,-85.859,-70.884,9.416,-0.054,176.487,-29.76,-15.575,-9.515,5.568,0.609,-33.96,-55.901,21.789,11.916,10.446,-9.055,25.07,22.781,-1.741,47.925,12.225,68.269,122.861,33.535,16.428,-31.486,-42.057
1.9207622999997511,-10.576,1.556,-98.068,-87.207,3.259,-14.398,208.586,-58.419,-28.879,-19.752,-1.61,-2.977,-42.123,-54.308,14.595,6.781,4.288,-16.218,21.459,17.635,-5.325,40.192,6.065,57.443,134.009,28.89,13.338,-42.213,-54.822
1.9344781999998304,-6.979,4.629,-112.827,-87.632,6.33,-6.187,176.102,-49.139,-29.875,-15.633,-1.608,-0.925,-40.544,-53.229,19.192,8.311,3.259,-24.911,19.9,20.692,0.316,40.152,6.059,58.922,157.441,27.324,14.862,-46.269,-33.763
1.9345473999997012,-5.947,7.186,-115.788,-76.273,5.299,-2.595,143.651,-37.819,-27.796,-14.081,-3.144,-3.486,-43.065,-65.984,18.148,6.766,-0.33,-29.497,16.294,16.06,1.34,40.624,6.565,56.302,147.55,25.248,13.31,-47.759,-29.631
1.9494827999997142,-9.528,5.129,-107.475,-65.439,6.318,2.531,111.232,-19.338,-25.719,-12.018,-2.628,-4.507,-44.559,-78.213,14.543,6.247,-4.428,-25.882,15.253,13.995,-0.198,35.973,2.46,57.27,115.127,25.735,9.71,-44.638,-49.581
1.949549499999648,-8.493,1.026,-100.708,-72.033,8.361,3.041,140.834,-12.659,-22.107,-8.419,1.473,-1.429,-38.879,-66.864,16.066,10.851,1.211,-19.196,16.775,19.104,4.413,34.4,3.483,64.385,104.253,27.758,10.725,-45.618,-46.97
1.964492699999937,-5.411,-4.611,-109.316,-88.355,2.717,-8.233,173.481,-37.75,-21.06,-9.436,3.008,1.134,-36.791,-57.576,22.71,12.889,9.407,-14.566,20.857,21.646,7.994,40.001,9.627,57.661,136.937,25.681,13.788,-54.281,-33.603
1.9645517999997537,-7.967,-9.217,-128.162,-89.291,0.153,-14.372,141.032,-52.056,-31.798,-17.623,-3.655,-4.502,-46.488,-72.887,20.125,5.704,0.688,-25.31,18.274,14.965,5.425,36.887,6.031,41.209,156.78,20.02,8.652,-59.35,-54.574
1.9816982999996071,-10.521,-9.208,-129.059,-84.591,1.69,-18.969,108.616,-58.152,-51.234,-32.975,-12.36,-14.744,-62.835,-78.962,9.347,-3.011,-12.632,-39.117,8.01,8.802,5.419,27.117,1.926,40.656,124.348,17.439,3.008,-56.729,-75.012
1.9817651999996997,-2.313,2.584,-103.314,-82.97,7.836,-14.851,141.295,-59.631,-46.572,-27.306,-4.663,-8.581,-55.6,-60.952,18.047,7.238,-1.349,-21.147,17.736,22.113,17.709,40.409,14.732,63.669,100.145,29.204,16.325,-43.865,-45.223
1.9949412999999367,5.886,16.414,-89.891,-71.104,16.537,9.242,108.878,-26.783,-19.885,-1.151,11.735,7.821,-31.466,-51.158,38.521,21.064,16.583,0.391,35.136,38.485,30.499,58.812,24.451,75.9,132.832,44.032,28.604,-31.013,-12.902
1.9950067999998282,-5.903,6.664,-110.294,-75.131,5.25,5.134,76.494,-13.437,-26.525,-11.396,-1.084,-0.896,-41.681,-66.988,26.187,7.722,1.71,-19.077,21.781,23.59,21.76,44.409,10.595,54.308,165.487,33.742,13.206,-46.864,-29.283
2.009574099999554,-24.853,-17.421,-131.188,-107.331,-19.858,-27.146,109.205,-45.699,-58.774,-43.66,-29.26,-24.461,-71.865,-91.0,-3.041,-14.827,-23.395,-46.722,-0.782,-1.025,5.344,23.872,-4.785,35.298,135.608,11.679,-5.251,-71.408,-55.382
2.024568199999976,-22.266,-16.379,-131.057,-111.835,-17.789,-27.119,141.884,-65.121,-58.715,-39.006,-25.132,-20.338,-70.256,-91.421,-0.988,-12.25,-17.736,-43.089,3.317,3.075,11.999,28.459,-0.682,46.021,103.197,15.253,0.39,-59.553,-60.449
2.024630199999592,-3.289,6.691,-118.118,-78.935,7.844,5.696,109.466,-32.268,-33.553,-6.179,-0.004,0.687,-48.669,-67.763,21.042,4.668,2.774,-24.603,17.659,21.002,32.991,40.213,12.126,56.734,114.365,35.218,15.247,-33.366,-53.216
2.039648699999816,-0.724,14.881,-104.68,-67.585,13.472,12.35,137.022,-15.842,-24.811,-2.587,5.119,3.76,-41.96,-64.109,25.632,7.737,5.333,-20.48,20.202,25.08,41.155,45.809,17.75,50.017,145.501,39.281,18.818,-30.771,-38.306
2.0436257999999725,-19.678,1.546,-112.772,-98.769,-1.911,-15.839,169.672,-48.101,-39.643,-24.613,-12.305,-11.101,-53.701,-91.198,12.798,-7.64,-10.554,-36.341,9.936,13.272,30.356,37.054,5.949,40.745,143.819,24.898,5.479,-44.06,-38.268
2.0569110999999793,-29.393,-10.238,-132.639,-109.428,-9.594,-27.094,137.227,-60.861,-55.997,-34.323,-23.563,-18.262,-66.968,-100.84,4.076,-18.903,-21.302,-49.113,-0.32,1.988,24.69,21.135,-7.377,33.02,137.015,10.016,-6.822,-56.312,-54.624
2.056977999999617,-21.166,-6.642,-124.31,-90.363,-6.51,-12.21,104.815,-28.012,-49.281,-23.018,-15.343,-12.096,-61.778,-80.247,11.757,-9.15,-9.498,-34.719,9.926,8.646,36.448,28.798,-1.734,34.011,129.193,14.617,0.869,-58.305,-48.421
2.06981179999957,-18.071,-3.049,-114.452,-91.298,-8.553,-10.149,137.497,-30.034,-42.572,-21.458,-12.766,-13.621,-54.544,-70.433,13.794,-4.018,4.344,-21.364,16.577,15.297,43.072,40.04,3.903,40.637,100.375,24.336,6.504,-51.074,-44.787
2.069877599999927,-26.25,-11.243,-139.44,-112.211,-16.741,-32.168,170.148,-62.279,-58.411,-40.904,-28.634,-23.854,-69.346,-81.633,-0.564,-18.359,-5.394,-33.638,0.678,2.474,34.32,23.094,-7.372,31.888,100.274,12.528,-3.749,-52.56,-69.333
2.084670499999902,-27.248,-13.281,-144.424,-109.537,-15.188,-33.673,137.702,-57.606,-60.914,-42.912,-30.143,-20.756,-73.375,-82.576,-1.588,-21.414,-10.0,-38.215,-0.347,-1.115,39.408,16.411,-6.852,24.171,132.962,4.831,-4.257,-55.581,-67.214
2.084731799999645,-20.561,-0.972,-111.492,-89.96,-6.463,-12.122,118.097,-33.47,-45.484,-21.865,-13.206,-11.514,-55.371,-64.051,13.27,-9.097,7.941,-20.246,17.072,17.842,56.275,35.862,8.012,35.93,145.124,22.245,6.505,-42.718,-37.945
2.0997309999997924,-21.053,0.053,-106.769,-87.309,-9.018,-16.208,150.766,-48.293,-49.537,-23.892,-13.193,-13.551,-57.365,-61.425,11.208,-10.625,9.982,-14.591,15.006,19.361,57.243,36.851,8.516,39.993,134.221,27.346,5.987,-37.04,-39.957
2.103821799999878,-25.13,-8.144,-130.229,-90.295,-13.108,-24.901,118.34,-51.831,-52.561,-35.139,-23.426,-17.636,-69.603,-81.344,1.975,-19.324,-7.446,-26.359,7.818,6.022,54.112,28.105,2.36,32.268,126.914,15.023,2.394,-46.737,-53.237
2.116830899999968,-21.007,-3.525,-129.074,-85.594,-5.923,-2.847,85.946,-18.992,-34.065,-20.247,-17.255,-14.032,-59.287,-84.848,6.584,-14.694,-5.902,-28.382,15.495,12.163,62.767,36.786,9.017,37.359,106.807,20.131,4.441,-44.641,-42.937
2.116896099999849,-16.375,0.065,-113.063,-96.267,-2.843,3.303,118.648,-14.874,-31.47,-10.493,-8.529,-10.945,-51.543,-73.493,10.676,-8.531,5.375,-21.181,19.066,22.397,69.877,41.36,12.594,38.858,108.75,28.82,5.461,-40.498,-32.648
2.129790299999968,-19.432,-6.595,-108.852,-110.003,-7.963,-16.168,151.317,-47.135,-42.709,-22.265,-11.594,-8.372,-58.664,-74.956,9.64,-11.084,1.271,-20.136,16.485,13.666,72.369,35.171,5.41,30.11,141.429,23.668,6.481,-48.142,-34.152
2.1447643999999855,-21.462,-3.515,-112.841,-95.548,-6.418,-14.102,118.891,-44.526,-41.129,-24.292,-13.632,-9.388,-61.167,-74.881,9.631,-13.635,-4.878,-26.775,14.419,7.504,74.345,33.599,3.867,29.568,139.75,23.132,8.523,-47.581,-43.852
2.1448270999999295,-22.465,-3.511,-127.073,-88.793,-11.022,-14.088,86.496,-40.383,-48.261,-25.805,-17.716,-17.063,-66.229,-70.708,1.937,-15.67,-6.41,-34.433,7.233,9.034,71.71,30.492,3.863,26.464,114.507,19.523,2.879,-45.997,-55.591
2.1448696999996173,-28.078,-18.365,-136.168,-112.27,-27.405,-38.153,119.197,-72.618,-63.069,-41.661,-29.482,-21.657,-73.847,-77.297,-5.75,-21.802,-7.94,-32.862,4.664,4.926,72.15,24.826,-2.288,15.679,124.639,8.233,-4.808,-59.783,-46.314
2.1598014999999577,-28.563,-20.908,-128.347,-118.306,-28.402,-37.602,151.866,-81.767,-56.346,-40.594,-29.965,-18.562,-67.113,-78.757,-2.158,-23.83,-5.883,-24.632,7.733,4.409,80.787,24.801,-3.311,14.639,132.199,8.737,-5.316,-64.846,-34.997
2.1637401999996655,-21.874,-13.202,-127.706,-103.33,-18.128,-17.585,119.439,-48.897,-47.581,-29.283,-21.738,-19.055,-64.997,-70.993,-1.131,-23.806,-6.902,-32.292,0.553,6.454,85.83,20.678,-4.332,14.112,114.136,12.314,-4.798,-56.072,-51.868
2.175811299999623,-21.34,-15.751,-135.775,-108.35,-19.134,-19.104,87.044,-36.553,-53.681,-33.352,-25.814,-20.573,-73.129,-75.021,-5.741,-28.905,-10.993,-43.018,-5.595,-0.725,85.744,16.046,-7.914,7.95,110.436,6.666,-5.818,-58.065,-64.112
2.1758771999998316,-24.392,-16.247,-127.955,-112.853,-21.677,-22.159,119.745,-47.787,-50.041,-32.294,-29.375,-17.991,-67.933,-76.995,-3.686,-28.876,-5.347,-31.705,3.12,-2.774,90.781,20.641,-4.32,11.529,115.448,8.709,-4.787,-61.081,-52.777
2.1898951999996825,-27.442,-15.719,-119.118,-102.494,-19.606,-21.112,152.413,-54.4,-49.478,-30.725,-25.759,-20.022,-64.791,-73.844,-6.244,-27.31,-3.805,-26.037,3.629,0.815,94.789,18.571,-3.803,14.079,104.574,9.725,-6.832,-58.459,-55.286
2.1899625999999444,-29.464,-22.363,-125.146,-102.391,-23.685,-31.849,184.023,-69.202,-61.724,-44.527,-32.393,-25.638,-76.509,-82.48,-13.922,-35.48,-15.072,-40.868,-5.596,-3.284,93.669,12.405,-7.385,11.503,107.031,2.543,-9.387,-60.962,-63.94
2.2048251999999593,-20.725,-9.533,-120.923,-95.629,-15.464,-19.01,151.564,-50.69,-46.293,-35.773,-27.238,-20.489,-70.285,-84.446,-2.125,-32.371,-11.471,-35.192,3.119,4.404,103.31,25.2,3.893,25.836,138.175,14.323,-0.668,-48.093,-50.043
2.2048840999996173,-12.507,7.895,-115.167,-78.627,1.457,8.674,119.137,-17.851,-25.755,-13.708,-10.305,-13.296,-56.895,-75.14,11.197,-19.531,1.861,-19.788,15.923,16.695,116.526,33.884,8.5,30.933,147.771,27.117,7.017,-30.626,-40.26
2.219898099999682,-26.839,-13.63,-135.544,-98.528,-11.352,-11.827,141.559,-46.01,-55.955,-37.773,-27.2,-26.603,-78.355,-82.75,-3.159,-35.393,-9.924,-39.748,-1.511,0.797,106.676,14.895,-12.001,8.361,115.348,6.085,-8.359,-52.625,-49.953
2.2373390999996445,-39.62,-35.133,-147.704,-130.193,-35.419,-44.091,174.205,-78.24,-87.15,-66.424,-55.35,-41.433,-99.281,-90.864,-18.525,-54.313,-22.209,-54.053,-19.441,-17.135,95.811,3.609,-20.698,0.668,101.4,-10.315,-21.671,-79.725,-57.588
2.237403599999652,-27.798,-20.753,-129.625,-122.378,-30.26,-34.313,167.371,-60.743,-69.644,-48.427,-42.999,-34.732,-82.788,-82.064,-9.797,-41.963,-10.404,-34.019,-10.2,-7.896,108.01,13.852,-8.895,15.012,122.303,4.552,-13.964,-66.325,-61.116
2.2499352999998337,-25.208,-20.22,-128.471,-114.571,-25.107,-22.495,160.544,-38.653,-58.816,-39.157,-31.686,-29.062,-75.02,-84.031,-7.226,-36.798,-8.857,-33.985,-6.091,-4.814,112.001,13.326,-10.935,14.997,122.693,6.597,-13.438,-57.037,-63.104
2.24999919999982,-39.528,-37.106,-146.785,-126.239,-35.84,-35.793,161.408,-63.718,-74.127,-57.049,-47.023,-37.23,-88.778,-93.681,-16.44,-49.057,-21.143,-49.32,-13.769,-14.543,105.741,6.652,-16.559,7.81,113.861,-7.242,-25.208,-72.862,-58.431
2.2650048999998944,-34.365,-20.675,-134.343,-113.306,-29.144,-24.998,128.971,-51.359,-69.442,-46.745,-38.267,-32.069,-81.004,-84.366,-7.715,-39.786,-13.95,-35.438,-0.436,-4.283,120.492,19.966,-4.76,19.073,118.358,5.061,-14.424,-64.08,-56.323
2.265068699999574,-17.424,4.449,-112.18,-88.601,-10.16,-0.895,111.936,-18.519,-48.88,-25.694,-15.687,-15.643,-64.017,-71.474,9.712,-24.377,-1.641,-24.644,14.934,11.603,137.278,33.778,7.028,38.521,111.58,27.597,5.058,-38.4,-54.73
2.279971899999964,-25.604,-6.314,-123.851,-92.099,-14.248,-9.091,144.612,-24.136,-49.344,-36.939,-25.918,-21.263,-73.175,-76.525,5.603,-33.062,-8.811,-36.403,2.624,3.907,130.481,25.547,-0.664,37.97,110.956,18.348,-2.631,-46.046,-51.089
2.2800295999995797,-41.46,-26.8,-142.17,-110.45,-32.677,-32.136,159.324,-53.314,-70.299,-58.419,-46.896,-40.197,-93.082,-89.256,-13.357,-48.398,-21.61,-44.563,-14.797,-13.515,118.055,7.591,-17.057,15.391,127.751,-5.749,-21.584,-70.591,-60.772
2.297075599999971,-39.881,-24.724,-139.978,-121.61,-38.792,-41.325,191.952,-78.876,-84.061,-60.922,-49.411,-41.182,-95.038,-90.704,-19.492,-53.985,-25.687,-45.031,-17.344,-16.576,118.449,2.46,-20.626,7.178,126.599,-10.354,-22.075,-71.545,-67.883
2.2971433999996407,-35.231,-14.453,-132.154,-117.903,-32.093,-35.136,224.548,-76.235,-72.194,-50.615,-41.165,-32.944,-82.647,-80.367,-12.812,-51.369,-22.587,-41.4,-12.716,-11.436,126.527,10.655,-12.921,20.491,122.374,-3.683,-15.393,-63.789,-49.372
2.310096999999587,-36.22,-15.463,-131.509,-105.489,-23.864,-19.219,192.048,-43.371,-52.654,-40.318,-34.463,-33.423,-75.905,-78.238,-12.8,-44.658,-19.491,-37.26,-7.58,-8.863,134.598,13.718,-11.883,28.155,109.444,-2.655,-16.402,-73.459,-35.49
2.310163299999658,-33.622,-14.936,-126.255,-102.822,-19.23,-8.954,159.581,-17.713,-49.527,-34.643,-29.306,-28.266,-77.366,-79.696,-10.225,-39.49,-18.447,-37.735,0.624,-1.682,142.148,18.315,-8.285,37.349,79.62,3.495,-12.8,-72.361,-41.09
2.3251076999999896,-23.855,2.498,-107.685,-100.158,-12.038,-10.482,192.209,-49.97,-51.527,-31.022,-21.08,-14.918,-69.604,-65.784,6.179,-30.229,-9.207,-27.451,11.894,12.664,152.764,36.74,10.679,54.73,112.328,18.349,0.021,-48.722,-36.951
2.325174099999913,-13.073,13.254,-98.869,-89.299,-7.415,-9.959,224.804,-68.876,-51.988,-28.429,-13.886,-13.366,-62.362,-57.522,11.808,-24.564,-1.001,-16.153,16.493,14.189,161.321,40.289,16.303,49.552,145.004,21.916,4.632,-43.551,-26.668
2.340101499999946,-15.109,0.945,-113.627,-96.895,-10.994,-5.851,192.304,-36.019,-58.083,-33.012,-20.532,-23.087,-74.082,-75.395,-2.548,-36.834,-12.783,-30.481,8.792,4.441,160.647,25.392,-0.107,37.207,112.583,13.698,-4.082,-58.364,-29.715
2.3401692999996158,-26.365,-2.642,-118.124,-108.068,-14.569,-5.845,159.836,-29.323,-61.612,-38.614,-28.709,-25.625,-83.742,-85.566,-5.107,-42.433,-19.43,-41.209,5.197,4.948,159.974,27.416,-3.181,45.879,80.195,16.758,-7.664,-55.744,-30.71
2.357123999999658,-27.363,6.07,-105.198,-92.079,-14.555,-8.401,192.464,-50.298,-54.89,-34.477,-22.532,-20.989,-72.9,-69.599,5.144,-28.558,-4.041,-27.336,13.901,12.628,166.986,37.122,9.63,50.956,112.903,26.987,-1.509,-43.905,-28.118
2.357190399999581,-20.163,-0.084,-110.728,-84.814,-16.077,-10.954,220.961,-49.224,-51.249,-30.856,-20.461,-23.017,-67.704,-58.258,3.602,-28.017,-0.451,-24.747,11.838,9.029,171.43,26.839,3.985,40.147,145.578,18.251,-3.044,-52.058,-40.385
2.369543099999646,-25.778,-15.453,-132.134,-108.808,-22.209,-16.066,209.469,-56.347,-61.956,-40.559,-33.76,-31.191,-77.37,-65.885,-6.648,-45.408,-16.332,-38.555,-9.178,-5.324,165.111,8.881,-17.023,24.225,113.157,-8.407,-15.849,-69.937,-59.3
2.3696098999998867,-35.999,-19.536,-140.711,-117.921,-27.822,-22.71,216.432,-73.196,-71.116,-51.277,-39.362,-33.721,-81.391,-76.577,-11.252,-48.436,-19.902,-41.078,-17.878,-12.491,158.286,1.7,-24.179,8.832,91.014,-18.645,-20.956,-73.453,-64.876
2.384121099999902,-29.303,-11.832,-132.886,-100.384,-24.72,-17.564,183.94,-49.557,-61.311,-43.541,-30.613,-26.515,-75.162,-76.501,-5.605,-35.58,-9.636,-34.376,-3.004,0.329,170.423,12.969,-9.81,18.557,118.076,0.329,-12.738,-59.035,-54.053
2.3841825999998036,-21.589,-6.185,-123.019,-95.673,-20.597,-9.35,168.387,-31.064,-54.589,-36.838,-29.558,-25.464,-75.599,-70.789,-0.477,-32.983,-7.577,-33.83,4.172,6.476,183.573,24.739,-0.066,39.031,131.79,11.087,-10.676,-50.267,-42.728
2.3990727999998853,-32.326,-16.425,-124.433,-109.922,-25.699,-17.025,181.027,-48.964,-64.781,-47.047,-38.75,-35.173,-83.721,-71.743,-11.235,-45.245,-15.767,-40.456,-11.202,-10.949,173.655,9.345,-14.411,24.647,121.412,-5.83,-19.375,-70.709,-45.247
2.4141859999999724,-37.416,-22.556,-124.821,-106.738,-25.674,-15.983,148.57,-36.62,-59.081,-41.877,-35.125,-32.576,-78.002,-69.622,-15.322,-44.176,-17.288,-39.903,-14.777,-10.425,172.457,-0.91,-22.593,12.839,97.724,-10.435,-19.356,-84.983,-48.275
2.4182825999996567,-20.985,-3.066,-113.938,-86.652,-13.353,0.939,181.209,-22.751,-43.14,-20.83,-19.208,-16.662,-62.554,-56.232,1.6,-26.201,-5.487,-27.568,6.243,13.151,196.363,24.194,-2.078,39.466,95.065,11.092,-8.065,-60.307,-40.03
2.430244799999855,-14.816,2.573,-117.41,-91.176,-13.339,-11.357,213.816,-55.004,-57.954,-30.031,-22.263,-19.719,-66.59,-55.663,3.135,-27.711,-3.945,-28.565,8.798,9.039,200.265,32.879,7.145,42.501,125.709,16.717,-5.496,-47.439,-41.015
2.4446263999998337,-32.22,-19.971,-137.273,-114.651,-24.597,-31.838,181.327,-60.072,-73.778,-51.518,-39.659,-37.63,-81.381,-77.125,-16.848,-47.664,-20.335,-42.881,-13.24,-10.95,184.183,8.768,-12.842,12.232,128.657,-2.256,-18.298,-72.495,-55.318
2.4446924999997464,-40.897,-25.074,-142.258,-115.561,-25.597,-18.487,148.87,-27.224,-59.871,-44.806,-40.644,-37.592,-78.225,-83.195,-16.831,-46.079,-23.388,-37.203,-14.764,-5.816,189.122,5.685,-17.952,12.732,107.523,-7.376,-26.477,-79.594,-63.972
2.459213799999816,-40.294,-15.285,-139.92,-102.009,-24.52,-1.557,149.117,-14.907,-41.835,-33.453,-31.853,-27.783,-67.314,-67.141,-3.478,-31.644,-10.531,-16.642,2.686,12.122,209.744,20.021,-4.591,31.662,111.428,2.377,-25.391,-62.01,-74.594
2.459271099999569,-33.594,-10.659,-135.169,-100.37,-23.983,-12.826,181.755,-38.97,-50.502,-38.03,-32.333,-29.293,-69.808,-57.853,-2.962,-35.711,-7.446,-23.797,5.245,11.597,212.608,21.538,0.024,32.655,133.346,7.498,-15.632,-50.165,-63.249
2.47425099999964,-36.122,-16.284,-128.886,-105.905,-21.91,-0.518,149.298,-6.144,-45.841,-32.869,-35.887,-33.362,-72.812,-77.775,-8.594,-41.31,-20.759,-36.069,-11.667,1.34,208.809,8.197,-14.32,26.987,100.937,-6.342,-26.374,-61.385,-45.255
2.474310499999774,-42.746,-25.489,-134.905,-111.434,-29.06,-4.103,171.69,-20.995,-50.406,-38.984,-41.486,-35.89,-77.35,-88.455,-14.221,-43.831,-25.349,-36.033,-25.487,-11.469,202.965,-4.619,-25.064,13.127,76.245,-21.192,-39.156,-77.718,-51.357
2.491418199999771,-42.703,-32.124,-149.627,-115.421,-35.691,-26.641,204.306,-53.249,-58.552,-49.191,-45.543,-36.366,-79.322,-66.85,-14.207,-45.836,-14.053,-28.312,-19.826,-5.823,207.373,1.021,-21.453,-0.206,108.957,-15.023,-31.432,-78.665,-67.699
2.491483199999948,-34.463,-19.284,-139.744,-109.158,-21.311,-11.245,171.827,-20.408,-43.637,-34.797,-34.739,-27.108,-68.996,-49.365,-0.36,-34.519,-3.793,-20.087,-1.876,12.114,226.633,24.586,-4.013,19.262,118.069,6.509,-18.081,-57.069,-59.435
2.504374999999982,-35.966,-4.92,-120.648,-102.901,-12.068,10.283,139.38,12.4,-33.859,-22.979,-22.922,-21.446,-62.267,-59.049,5.275,-26.288,-7.375,-18.018,2.224,9.54,229.992,29.172,4.7,38.71,85.676,14.699,-17.55,-42.667,-51.691
2.519361199999821,-34.368,-2.756,-119.553,-100.385,-9.676,13.299,135.778,16.042,-31.01,-20.529,-20.699,-19.394,-59.87,-58.473,7.21,-24.464,-6.293,-16.934,3.021,10.962,231.219,30.08,5.269,39.048,87.716,15.779,-16.182,-40.044,-52.197
2.519420199999786,-32.77,-0.593,-118.458,-97.869,-7.284,16.315,132.176,19.684,-28.16,-18.079,-18.477,-17.343,-57.472,-57.898,9.145,-22.639,-5.21,-15.851,3.818,12.384,232.446,30.987,5.837,39.385,89.755,16.859,-14.814,-37.421,-52.704
2.519460899999558,-31.172,1.571,-117.364,-95.353,-4.892,19.331,128.575,23.325,-25.31,-15.629,-16.254,-15.291,-55.074,-57.322,11.08,-20.815,-4.128,-14.767,4.615,13.806,233.673,31.895,6.406,39.722,91.795,17.939,-13.446,-34.798,-53.21
2.5195002999998906,-29.575,3.734,-116.269,-92.837,-2.5,22.346,124.973,26.967,-22.46,-13.178,-14.031,-13.239,-52.676,-56.746,13.015,-18.99,-3.046,-13.684,5.411,15.228,234.899,32.802,6.975,40.059,93.835,19.019,-12.078,-32.174,-53.717
2.519539099999747,-27.977,5.898,-115.174,-90.321,-0.108,25.362,121.371,30.609,-19.61,-10.728,-11.809,-11.188,-50.279,-56.17,14.949,-17.166,-1.963,-12.6,6.208,16.65,236.126,33.71,7.543,40.397,95.874,20.098,-10.71,-29.551,-54.224
2.523523899999873,-26.379,8.062,-114.079,-87.805,2.285,28.378,117.77,34.25,-16.76,-8.278,-9.586,-9.136,-47.881,-55.594,16.884,-15.341,-0.881,-11.516,7.005,18.072,237.353,34.617,8.112,40.734,97.914,21.178,-9.342,-26.928,-54.73
2.5235732999999527,-24.781,10.225,-112.984,-85.289,4.677,31.394,114.168,37.892,-13.91,-5.828,-7.364,-7.085,-45.483,-55.019,18.819,-13.517,0.201,-10.433,7.801,19.494,238.58,35.525,8.681,41.071,99.954,22.258,-7.973,-24.305,-55.237
2.5236078999996607,-23.183,12.389,-111.889,-82.773,7.069,34.409,110.566,41.534,-11.06,-3.377,-5.141,-5.033,-43.086,-54.443,20.754,-11.692,1.284,-9.349,8.598,20.916,239.806,36.432,9.25,41.408,101.994,23.338,-6.605,-21.682,-55.743
2.523641299999781,-21.585,14.553,-110.794,-80.257,9.461,37.425,106.965,45.175,-8.21,-0.927,-2.919,-2.981,-40.688,-53.867,22.689,-9.868,2.366,-8.266,9.395,22.338,241.033,37.34,9.818,41.746,104.033,24.418,-5.237,-19.058,-56.25
2.5236767999999756,-24.638,4.804,-119.905,-87.861,0.23,26.117,139.646,23.613,-18.96,-8.099,-12.137,-11.175,-49.869,-61.498,16.518,-18.055,-4.296,-13.893,3.75,13.095,232.595,27.056,-4.024,26.335,96.245,14.66,-6.769,-27.236,-70.026
2.5363860999996177,-21.539,4.287,-110.563,-83.163,-0.283,26.603,172.294,20.004,-19.966,-5.017,-8.027,-11.164,-46.745,-50.678,20.088,-15.475,-0.193,-15.416,15.017,19.229,234.924,40.862,6.226,30.919,102.296,22.33,-7.274,-35.918,-61.759
2.5364596999997957,-30.227,3.258,-109.428,-88.203,-2.844,15.306,204.909,-4.095,-30.192,-17.307,-12.117,-13.714,-51.309,-52.164,13.92,-18.534,-1.218,-17.45,6.293,16.136,225.98,36.21,7.245,28.839,97.583,19.234,-11.878,-34.345,-73.48
2.5494338999997126,-51.201,-18.774,-133.909,-112.705,-32.043,-16.985,232.881,-36.366,-57.314,-49.053,-43.356,-37.267,-79.435,-72.604,-12.222,-40.544,-16.074,-21.531,-21.378,-7.958,201.676,3.898,-19.402,5.244,86.215,-9.987,-29.797,-44.557,-92.362
2.553707299999587,-42.953,-21.317,-141.972,-107.469,-35.597,-10.82,200.373,-3.542,-47.523,-42.344,-41.776,-37.23,-75.257,-65.872,-9.648,-38.455,-11.959,-16.386,-14.185,-4.877,203.011,6.456,-21.432,4.214,79.981,-13.051,-31.816,-52.71,-71.778
2.5648354999998446,-27.029,-6.439,-130.047,-97.116,-8.921,16.855,167.897,26.688,-29.033,-19.247,-16.631,-16.188,-53.152,-51.461,6.756,-19.973,-1.701,-15.857,4.273,14.084,214.079,24.38,-4.505,15.993,58.384,6.942,-17.952,-45.485,-66.583
2.5794199999995726,-31.1,-6.432,-123.257,-105.216,-6.351,14.277,200.517,3.095,-38.737,-22.302,-20.2,-19.758,-60.272,-60.631,4.187,-20.465,-10.921,-19.94,-0.855,11.508,208.741,21.282,-5.013,12.903,62.424,9.497,-15.885,-35.193,-92.644
2.5794802999998865,-26.458,1.259,-110.326,-89.741,-9.93,17.849,168.041,14.875,-32.039,-20.743,-22.742,-27.423,-63.797,-60.571,9.819,-20.957,-10.91,-13.772,0.683,10.472,209.045,28.433,1.14,19.038,95.149,14.61,-15.357,-19.789,-76.157
2.5944218999998157,-16.698,15.602,-92.798,-64.548,0.326,28.077,200.661,31.254,-14.076,-8.939,-7.862,-15.612,-48.364,-44.628,23.129,-12.227,2.933,-4.537,14.002,21.22,210.885,42.749,13.947,32.851,112.985,29.965,-4.583,-3.887,-47.904
2.5944805999997698,-23.341,11.488,-90.655,-70.119,-0.699,18.827,233.248,13.292,-18.16,-10.467,-6.317,-11.498,-43.193,-40.485,17.983,-9.141,4.467,0.59,19.111,24.272,204.527,39.633,9.322,28.207,95.453,30.447,-2.017,-7.982,-65.787
2.609438399999817,-28.441,1.23,-107.471,-86.955,-10.432,15.222,200.739,14.815,-29.413,-17.629,-15.532,-22.245,-52.371,-48.642,7.206,-11.693,-3.222,-2.996,13.969,17.588,197.662,33.958,1.116,16.909,76.403,18.121,-13.286,-25.392,-76.992
2.6094998999997188,-34.56,-13.628,-134.004,-105.311,-22.717,-0.162,198.489,-7.229,-54.999,-41.177,-32.935,-38.104,-76.91,-60.889,-5.097,-28.588,-15.514,-25.023,-12.172,-2.409,175.947,13.944,-12.718,2.035,59.932,-1.877,-30.691,-44.835,-69.743
2.624557199999799,-48.87,-27.447,-143.091,-115.452,-37.552,-29.363,231.078,-39.497,-74.412,-64.19,-50.321,-47.8,-93.739,-66.975,-19.436,-43.928,-23.695,-32.17,-32.14,-17.264,156.816,-8.612,-29.099,-14.874,59.36,-18.781,-41.931,-54.524,-85.555
2.6246257999996487,-42.674,-13.075,-119.894,-95.357,-23.169,-6.792,198.572,-6.67,-41.549,-34.412,-31.315,-30.334,-64.956,-51.027,-9.17,-25.954,-7.278,-7.547,-8.03,1.196,173.053,8.303,-17.799,-5.125,65.961,-4.418,-30.106,-35.001,-91.617
2.639537399999881,-23.163,5.894,-101.331,-74.257,0.932,26.002,166.098,26.125,-8.72,-1.59,-3.107,-6.737,-36.202,-34.07,12.356,-3.386,10.148,0.145,10.934,21.688,187.737,32.885,2.199,16.397,56.673,17.104,-13.17,-13.962,-73.594
2.639618899999732,-26.726,-5.895,-115.062,-83.916,-12.901,4.459,198.719,-6.177,-39.45,-24.642,-18.985,-18.514,-55.633,-44.282,7.733,-15.678,-6.256,-22.396,-9.057,9.37,167.057,18.508,-7.537,7.672,60.203,9.914,-20.329,-25.731,-78.644
2.6545101999995495,-40.532,-20.746,-131.853,-101.251,-34.405,-26.796,189.299,-36.397,-65.026,-54.331,-41.508,-38.475,-77.095,-67.291,-10.206,-33.593,-29.304,-36.719,-22.368,-7.033,147.422,4.145,-22.387,-9.242,70.389,0.171,-33.628,-36.976,-95.471
2.654569199999969,-39.979,-12.528,-123.524,-97.563,-30.272,-11.912,156.834,-3.573,-44.981,-40.957,-32.757,-32.289,-69.845,-67.224,-12.245,-27.412,-22.102,-28.997,-15.686,-4.464,147.275,12.85,-18.266,-2.573,56.998,4.781,-28.984,-24.131,-87.179
2.669540599999891,-29.693,3.878,-100.859,-69.801,-16.922,7.567,189.465,12.825,-29.567,-21.448,-16.843,-18.937,-56.968,-39.492,3.136,-11.503,-0.563,-8.476,-5.936,8.86,153.275,23.595,-8.001,7.676,72.31,10.924,-17.172,-11.812,-72.747
2.66959579999957,-20.442,11.559,-92.049,-53.338,-7.683,8.584,222.063,4.615,-32.611,-21.427,-12.727,-16.356,-52.3,-25.108,16.966,-4.319,7.122,3.828,5.34,19.61,155.171,30.232,-2.87,3.057,105.026,17.061,-12.544,-8.214,-73.187
2.6857023999996272,-26.569,-0.236,-111.937,-80.949,-16.385,-2.695,189.566,-9.222,-47.948,-37.287,-21.424,-25.561,-62.494,-48.137,7.215,-10.463,-6.717,-12.057,-1.325,9.856,140.671,19.956,-7.99,-6.68,74.182,10.896,-20.728,-15.89,-80.798
2.685770799999773,-41.912,-15.093,-126.17,-99.823,-32.762,-18.062,185.79,-25.607,-60.707,-45.959,-31.649,-34.245,-71.653,-59.872,-7.137,-18.137,-18.494,-21.779,-18.23,-4.498,123.112,1.492,-19.766,-10.771,41.833,-6.533,-31.466,-35.342,-78.156
2.700660599999992,-36.234,-3.807,-109.138,-67.448,-19.922,-3.699,201.486,-4.064,-37.593,-25.421,-18.809,-22.94,-55.7,-35.221,4.653,-10.434,-5.667,-1.777,-6.428,6.777,127.6,11.225,-13.598,-4.101,67.406,-0.891,-24.775,-28.134,-69.368
2.700723999999809,-18.267,13.616,-94.684,-47.401,-1.971,19.359,221.777,21.555,-13.989,-10.538,-5.983,-12.671,-42.836,-21.354,17.456,-1.202,7.146,8.983,8.435,19.066,134.645,29.144,2.297,9.224,100.127,19.602,-12.454,4.681,-76.471
2.7146685999996407,-25.421,7.454,-102.274,-68.358,-16.826,3.458,254.343,-1.52,-33.955,-30.508,-18.272,-24.954,-56.113,-37.726,7.193,-8.373,-4.132,-6.908,-6.43,6.751,121.702,19.894,-4.365,9.727,80.046,18.045,-16.54,8.775,-84.592
2.7147353999998813,-41.79,-4.849,-106.27,-79.048,-28.593,-17.55,221.813,-10.228,-52.364,-42.26,-27.988,-33.126,-64.766,-48.959,-2.548,-15.537,-17.96,-20.221,-16.67,-2.989,109.285,9.628,-20.242,-6.165,69.208,3.17,-23.696,-13.775,-66.576
2.7297044999995705,-36.625,-8.43,-104.114,-74.87,-22.416,-6.262,189.316,10.787,-38.479,-27.361,-19.763,-24.896,-57.017,-42.762,0.016,-10.911,-15.381,-16.102,-7.944,4.698,108.664,17.303,-16.636,-17.942,94.242,0.093,-20.086,-23.495,-59.338
2.729769699999906,-23.268,-10.983,-110.67,-74.283,-18.808,3.99,221.914,7.702,-26.658,-16.575,-12.059,-18.723,-47.226,-32.474,6.163,-3.215,-4.607,1.332,0.261,15.452,109.58,24.97,-4.324,-5.116,94.148,10.339,-15.456,-17.324,-83.357
2.74671939999962,-21.708,-2.263,-107.486,-59.352,-11.617,9.622,189.417,16.916,-23.557,-10.411,-3.337,-15.63,-37.445,-28.855,13.842,3.96,4.107,15.676,8.457,24.658,111.007,33.654,3.877,17.943,69.463,25.698,-9.292,-2.45,-86.347
2.759801199999856,-31.42,5.936,-96.62,-46.997,-10.068,12.174,156.952,35.855,-26.608,-10.401,-6.408,-20.226,-42.531,-33.437,10.754,1.907,-1.02,5.926,9.986,21.047,105.26,36.182,6.435,20.487,64.782,24.648,-8.771,7.287,-68.842
2.75986709999961,-40.098,-13.025,-106.769,-67.955,-32.087,-17.04,189.583,3.544,-51.172,-35.493,-30.992,-37.112,-67.591,-36.99,-7.187,-15.513,-15.876,-14.06,-8.98,1.046,85.175,15.141,-5.867,-0.538,73.939,3.106,-25.668,-8.09,-84.143
2.7746994999997696,-35.447,-28.381,-122.032,-85.305,-38.715,-38.54,222.181,-28.735,-64.441,-48.266,-35.06,-38.611,-73.159,-35.928,-12.303,-19.084,-16.372,-17.12,-18.192,-1.516,78.43,4.88,-16.107,-7.71,77.964,-3.557,-32.815,-19.353,-101.477
2.774763499999608,-21.579,-4.787,-108.078,-64.216,-8.963,-5.714,189.683,4.081,-34.662,-15.43,-6.848,-16.031,-43.372,-30.257,7.689,4.501,-0.987,-5.319,1.294,19.49,95.258,27.417,2.864,15.351,90.693,18.476,-9.728,0.134,-73.711
2.7897343999998157,-15.41,16.223,-86.453,-39.561,8.465,27.08,157.218,36.865,-10.037,9.177,6.992,-8.331,-25.91,-23.566,23.051,16.792,2.6,0.834,12.563,27.667,99.773,39.685,14.645,31.217,115.706,30.241,3.602,14.991,-49.559
2.7897957999998653,-17.956,4.936,-90.465,-46.693,-6.913,5.536,189.849,7.114,-26.421,-12.862,-5.311,-21.642,-40.741,-26.617,11.757,1.406,-7.648,-5.315,-1.282,16.369,79.694,20.177,-8.424,14.792,116.615,14.329,-11.259,6.779,-67.44
2.804834699999901,-25.111,-7.365,-105.231,-60.479,-22.787,-15.474,222.447,-25.169,-40.227,-31.804,-17.601,-29.305,-52.996,-33.762,-3.112,-9.354,-8.153,-6.334,-12.551,6.619,65.782,8.374,-20.711,-1.616,84.223,2.531,-19.957,1.649,-91.963
2.808777299999747,-36.869,-11.456,-117.421,-60.931,-24.302,-16.484,189.949,-14.897,-31.477,-27.674,-23.731,-31.837,-52.431,-31.679,-4.646,-8.832,-4.559,3.918,-11.514,2.001,62.13,11.952,-10.956,1.972,55.449,3.041,-18.4,-6.549,-106.728
2.821899999999914,-40.93,-22.203,-134.21,-65.993,-24.79,-23.639,157.483,-0.025,-35.544,-32.77,-27.293,-36.416,-56.989,-28.574,-5.153,-13.434,-9.677,0.841,-8.941,0.462,53.358,9.378,-15.044,1.457,71.275,-2.085,-25.042,-23.961,-117.38
2.8219646999996257,-27.569,-22.18,-131.514,-72.587,-24.765,-20.542,147.592,0.487,-43.193,-34.786,-20.606,-31.769,-56.932,-29.058,-4.636,-9.834,-9.155,-5.82,-1.76,10.196,51.768,12.443,-14.517,1.968,97.332,-1.571,-22.967,-16.765,-104.455
2.834854699999596,-14.734,-2.691,-100.644,-58.17,-13.469,-4.128,180.232,-8.223,-27.269,-16.82,-7.778,-19.442,-40.994,-18.27,8.176,6.057,3.149,10.067,13.099,22.993,64.524,30.873,8.04,21.434,111.067,15.85,-6.038,10.404,-76.686
2.834923599999911,-21.892,5.509,-93.884,-44.279,-6.796,-3.611,212.84,-16.412,-19.044,-10.144,-3.672,-17.886,-35.829,-8.518,14.316,9.125,4.171,19.279,18.209,24.507,68.045,39.039,13.667,34.732,117.616,26.08,-2.958,15.517,-73.023
2.849853699999585,-29.554,0.38,-111.208,-46.796,-10.375,-0.021,180.352,6.146,-24.661,-11.158,-4.18,-20.429,-38.355,-10.559,9.691,4.505,0.58,5.939,14.605,23.458,57.731,34.902,5.456,35.722,112.887,27.078,-8.078,10.378,-79.61
2.8499190999996244,-14.155,8.577,-99.314,-37.528,-0.119,27.131,147.896,38.928,-5.681,10.37,8.632,-8.113,-19.361,-3.376,21.976,16.283,10.826,12.081,22.275,33.168,61.772,41.527,15.185,46.445,121.996,34.224,3.713,26.25,-69.797
2.86483539999972,-3.383,15.741,-81.796,-28.269,12.177,29.665,180.536,25.569,6.62,19.581,16.308,-2.47,-9.608,3.288,32.713,21.39,12.352,23.34,23.789,34.672,65.809,45.072,17.219,43.837,139.805,31.116,7.807,34.42,-69.214
2.8689127999996344,-23.872,-3.23,-102.719,-54.369,-8.84,-2.64,213.143,-6.732,-25.662,-12.714,-6.25,-22.96,-36.751,-16.696,11.163,1.389,-9.177,2.312,0.199,15.682,42.689,22.997,-4.315,16.641,107.39,9.567,-10.643,12.357,-91.174
2.8820480999997926,-37.68,-19.109,-117.985,-69.683,-26.762,-20.568,180.654,-8.774,-44.591,-32.169,-23.15,-35.745,-53.108,-33.585,-4.217,-10.396,-17.365,-9.474,-11.072,4.396,28.302,10.679,-10.971,13.038,75.007,4.947,-17.805,3.635,-104.916
2.882114499999716,-26.884,-7.307,-104.035,-42.461,-8.804,6.605,148.198,24.022,-15.858,-7.546,-7.245,-23.413,-35.636,-20.232,11.156,1.398,-4.028,6.417,3.796,15.15,41.593,25.525,0.823,26.345,107.719,18.775,-8.053,22.074,-94.565
2.894934799999646,-28.394,-3.713,-102.906,-33.71,-3.16,12.234,180.838,12.727,-12.255,-3.952,-3.652,-20.316,-30.99,-13.039,13.707,4.47,-6.585,3.337,3.793,17.696,35.916,25.5,-2.764,15.56,127.079,14.145,-10.095,17.954,-82.687
2.9100036999998338,-34.513,-10.882,-111.513,-48.021,-13.915,-4.172,213.444,-19.561,-30.174,-17.268,-12.87,-24.907,-37.619,-19.174,4.984,-0.145,-12.726,-5.888,0.715,14.092,23.073,19.327,-6.347,13.495,94.677,10.032,-12.134,2.054,-79.53
2.9100805999996737,-10.913,11.158,-91.934,-27.993,8.128,23.497,180.956,13.246,-3.504,12.975,11.734,-5.926,-16.577,-2.761,27.008,18.298,9.828,17.172,28.379,36.62,44.567,47.996,19.274,45.245,100.73,36.662,8.371,28.18,-76.377
2.9101230999999643,3.955,29.59,-76.985,-3.374,29.124,56.261,148.499,46.021,24.677,37.041,31.702,7.4,0.346,14.661,44.912,32.625,23.65,28.938,41.67,49.391,53.231,61.781,32.063,54.934,124.195,49.946,18.608,56.329,-75.276
2.925000199999886,-21.664,1.896,-95.351,-23.35,2.455,28.028,181.139,13.699,-0.451,4.728,1.444,-15.662,-23.221,-7.896,16.178,10.563,-1.989,6.367,10.89,19.115,20.903,29.444,1.805,24.14,104.604,18.133,-6.001,27.071,-85.959
2.9291088999998465,-37.524,-19.11,-103.965,-44.844,-20.601,-4.276,213.745,-18.59,-23.505,-15.256,-20.074,-32.552,-42.665,-31.454,-6.892,-8.916,-18.38,-2.861,-9.613,0.653,9.099,8.409,-16.128,9.259,96.302,-5.964,-22.901,0.916,-95.607
2.9421823999996377,-25.704,-4.234,-90.541,-36.602,-9.31,6.999,211.994,-9.862,-14.772,-0.384,-6.734,-19.712,-32.889,-21.689,8.996,0.315,-6.067,1.241,3.204,14.997,25.996,27.356,-1.255,21.033,109.013,7.362,-10.071,18.334,-95.511
2.955068299999766,-27.727,-5.255,-99.159,-39.639,-13.399,5.455,224.078,-14.463,-18.856,-10.63,-11.85,-20.204,-34.393,-17.056,9.499,1.339,-7.085,-13.105,1.152,8.834,18.798,21.694,-6.889,13.84,115.052,6.842,-10.573,16.778,-101.051
2.9551351999998587,-43.069,-27.279,-122.626,-62.654,-36.952,-23.752,256.641,-44.162,-40.354,-35.21,-33.868,-42.213,-56.387,-31.896,-18.687,-17.105,-24.497,-21.801,-24.465,-14.741,-1.201,-6.505,-31.473,-10.765,128.769,-19.292,-31.567,-8.341,-112.221
2.9700246999996125,-45.075,-27.764,-124.553,-70.276,-38.964,-29.363,224.109,-42.069,-42.362,-33.638,-34.346,-46.782,-62.479,-34.938,-25.328,-24.26,-28.058,-14.095,-32.125,-16.263,1.361,-6.498,-26.318,-5.119,107.636,-19.785,-31.023,0.888,-108.01
2.9700835999997253,-35.808,-11.854,-112.133,-50.225,-22.019,-6.28,191.61,-9.239,-21.315,-18.747,-19.455,-30.341,-44.485,-25.681,-3.274,-11.428,-18.296,-12.544,-11.088,-1.902,19.803,18.611,-3.751,27.674,75.253,7.899,-11.012,22.917,-92.021
2.984044499999982,-31.162,-9.793,-100.75,-33.269,-15.849,8.583,167.852,11.263,-7.462,-7.458,-9.702,-21.602,-29.072,-16.434,8.513,1.903,-9.569,-8.433,3.268,7.834,26.956,28.839,-2.21,41.991,81.838,15.576,-7.415,13.672,-85.781
2.9840995999998086,-40.352,-22.591,-102.186,-42.97,-26.592,-1.159,193.3,-0.019,-21.799,-12.061,-17.377,-30.802,-38.777,-14.881,-5.841,-1.685,-9.559,-0.74,-10.568,0.654,17.707,10.367,-17.065,13.26,114.544,-6.981,-20.727,-9.395,-96.454
3.0012495999999373,-50.045,-29.741,-116.429,-54.71,-36.811,-16.015,166.979,-16.413,-37.146,-28.443,-34.265,-41.529,-55.132,-24.088,-17.618,-13.467,-14.673,-4.837,-19.779,-14.716,15.64,-3.476,-22.171,-2.635,134.409,-20.294,-25.83,-11.435,-110.702
3.00131569999985,-37.7,-18.953,-109.14,-40.31,-28.578,-8.314,167.324,-6.663,-22.765,-23.292,-27.059,-34.316,-44.83,-19.965,-6.329,-8.842,-9.535,-3.296,-3.877,-5.992,34.068,14.458,-7.804,28.618,101.999,-3.368,-14.533,10.606,-103.419
3.014132399999653,-22.805,-6.126,-80.854,-28.999,-16.254,6.038,192.772,14.348,-7.885,-5.85,-9.613,-21.474,-24.806,-2.527,5.972,6.536,2.77,11.565,4.323,11.945,47.354,25.202,-1.136,50.107,69.622,10.98,-6.834,23.403,-81.799
3.0141977999996925,-30.979,-13.805,-87.433,-42.803,-20.336,-1.652,175.673,13.309,-16.586,-12.504,-18.825,-26.575,-31.441,-7.647,-3.767,2.431,-2.868,4.893,-11.05,-0.875,43.72,4.685,-18.041,29.564,102.34,-4.912,-17.073,3.912,-88.889
3.0291466999997283,-38.121,-25.062,-116.547,-51.469,-26.976,-12.921,208.285,-7.709,-23.742,-23.25,-29.053,-37.307,-44.217,-23.009,-12.985,-10.892,-17.21,-16.117,-19.748,-11.633,45.726,-0.955,-23.146,19.289,135.025,-16.69,-23.716,-9.925,-114.416
3.029212099999768,-28.861,-13.766,-110.795,-37.585,-21.825,-4.199,240.865,-14.361,-17.571,-16.054,-18.265,-32.659,-36.488,-16.838,-6.312,-6.782,-17.193,-16.1,-8.97,0.162,56.438,19.026,-6.729,38.737,132.329,-0.28,-12.422,8.528,-103.543
3.044110499999988,-27.295,-2.481,-93.778,-24.74,-18.73,5.027,221.156,3.584,-10.893,-10.403,-14.148,-25.966,-27.742,-5.55,-2.207,2.446,-8.979,-3.277,-0.252,3.236,63.554,25.154,-1.087,46.895,99.921,9.454,-8.311,18.254,-74.75
3.0441714999997203,-32.391,-12.725,-102.906,-35.474,-22.297,-3.688,230.156,-0.006,-8.321,-11.929,-18.745,-26.453,-27.202,-0.422,-3.742,5.517,-4.871,2.362,0.773,3.232,71.175,20.006,-5.184,41.213,103.407,1.248,-15.475,3.379,-83.384
3.061212499999783,-28.26,-21.421,-104.852,-51.32,-21.25,-13.418,262.714,-26.133,-12.411,-14.479,-16.165,-24.889,-23.589,4.189,-0.665,9.098,-0.256,6.97,6.407,12.963,79.813,25.622,1.993,45.782,130.968,2.783,-12.385,-0.211,-105.33
3.061290199999803,-24.134,-12.691,-88.354,-39.998,-18.668,-5.72,230.176,-6.127,-18.546,-17.538,-13.587,-23.84,-25.102,4.698,3.434,9.601,3.843,10.037,13.061,12.95,82.807,28.157,6.602,57.007,119.054,9.953,-5.713,6.962,-91.905
3.074592799999664,-27.696,-8.067,-88.265,-23.564,-19.673,2.995,197.67,26.667,-18.015,-14.447,-16.647,-25.353,-30.713,4.181,4.456,5.493,0.765,5.929,8.95,6.789,84.774,20.445,-0.065,58.487,92.808,7.382,-10.318,4.905,-74.907
3.074668599999768,-31.766,-11.133,-102.009,-31.737,-17.092,-3.668,230.26,0.512,-13.899,-7.773,-14.581,-23.278,-21.46,8.275,3.427,8.049,1.277,2.849,4.842,9.857,89.3,18.887,-3.138,48.183,115.769,5.325,-11.845,6.95,-92.763
3.0891341999999895,-28.148,-5.486,-100.883,-28.632,-10.415,0.434,262.818,-8.71,-3.639,-0.08,-6.37,-17.107,-7.607,8.779,4.448,14.701,8.96,5.92,8.423,11.896,95.871,23.479,-0.574,44.036,148.441,6.344,-5.685,22.312,-105.478
3.0892009999997754,-24.534,1.179,-85.925,-9.135,-10.405,18.365,230.28,24.087,6.099,7.092,-5.339,-18.627,-9.136,6.721,6.493,11.1,6.902,6.426,2.78,6.761,99.873,19.87,-5.696,53.214,125.238,1.727,-8.753,24.339,-83.855
3.104142199999842,-29.633,-4.458,-77.13,-17.835,-15.517,11.174,241.832,12.792,-3.641,-1.112,-16.604,-26.293,-18.861,1.591,4.437,3.405,-2.839,-1.265,-9.519,1.119,98.749,14.214,-11.838,52.136,104.108,-3.398,-13.868,8.433,-64.304
3.119088599999941,-31.14,-6.502,-83.713,-34.211,-13.453,-5.231,274.378,-19.496,-14.908,-13.406,-19.149,-25.242,-20.891,-9.169,2.895,3.914,-2.323,-6.386,-1.824,3.167,105.31,23.422,-3.63,46.448,136.792,2.241,-4.12,8.937,-75.51
3.1228664999998728,-24.449,1.701,-93.875,-30.591,-7.292,5.02,241.828,6.139,-7.721,-6.22,-8.884,-20.094,-17.284,-7.111,9.553,9.545,1.265,-1.769,10.985,12.385,117.5,32.107,5.596,60.234,134.094,15.047,6.13,28.908,-93.878
3.1351902999999766,-28.523,-3.424,-96.343,-40.294,-13.432,6.552,246.71,10.743,-13.861,-6.726,-14.51,-26.222,-21.365,7.241,9.031,8.511,-0.785,3.356,0.216,9.299,114.309,24.391,-4.656,67.346,101.684,16.568,-3.61,27.342,-92.759
3.1352554999998574,-41.302,-16.228,-101.37,-43.328,-24.689,-13.434,279.251,-21.543,-28.192,-21.577,-26.791,-29.269,-27.491,12.869,-0.712,5.429,1.265,1.815,-5.42,1.605,110.608,19.756,-12.336,48.323,120.026,6.818,-13.852,4.261,-80.371
3.1491368999995757,-35.625,-8.015,-105.879,-10.497,-14.931,-0.613,246.696,9.217,-6.647,-6.698,-9.346,-15.92,-12.095,13.369,6.461,13.108,5.874,2.838,13.541,14.411,128.428,29.982,-1.565,41.615,152.693,6.811,-2.568,8.355,-78.754
3.1492051999998694,-22.782,3.264,-93.99,-1.777,-2.108,26.027,214.174,41.996,18.463,18.924,8.594,-6.682,7.897,14.38,19.774,22.316,6.893,4.885,19.675,23.618,140.083,33.026,3.559,57.967,128.974,16.538,6.144,30.888,-87.384
3.164257099999759,-29.932,-11.084,-84.674,-34.051,-14.914,6.021,246.747,9.678,0.514,5.073,-8.833,-15.385,-0.82,11.292,10.533,15.634,2.787,2.318,3.262,9.25,130.721,23.259,-5.666,60.983,96.57,10.886,-7.694,21.636,-91.395
3.164322799999809,-40.66,-23.881,-97.397,-44.775,-27.194,-18.575,270.067,-15.435,-16.905,-14.912,-24.706,-25.103,-16.7,3.084,-1.773,4.86,-6.437,-2.807,-3.914,-0.493,126.492,15.039,-10.271,47.602,129.261,-3.982,-16.396,-1.44,-93.353
3.179182999999739,-37.033,-14.635,-104.985,-13.48,-16.921,1.935,237.521,17.369,-4.081,-3.627,-17.509,-25.078,-11.561,-6.141,-0.746,6.392,-14.627,-9.977,-4.935,-1.005,129.952,7.851,-15.896,38.333,156.284,-8.588,-12.793,4.71,-101.457
3.1832809999996243,-35.459,-13.084,-99.244,-15.003,-15.879,15.253,222.427,28.622,1.047,3.549,-18.516,-27.615,-12.061,-10.233,-5.869,4.848,-17.687,-20.213,-15.688,-10.738,126.748,-0.353,-24.589,36.245,123.853,-9.092,-17.904,19.562,-110.065
3.1963356999999633,-42.596,-19.218,-99.657,-31.894,-29.696,-4.742,254.992,-3.682,-5.614,-8.75,-27.207,-33.223,-22.296,-4.076,-14.06,-2.329,-19.206,-21.217,-18.746,-12.264,126.621,1.696,-20.466,42.869,100.163,-9.083,-22.496,19.542,-112.004
3.1964107999997395,-38.967,-6.391,-96.996,-14.444,-24.543,-4.225,222.462,-0.092,-2.023,-9.253,-20.007,-29.091,-19.199,-2.535,-2.775,3.309,-14.576,-10.95,-6.432,-0.981,137.253,13.99,-8.15,53.073,132.85,1.172,-12.74,26.183,-99.084
3.2092415999995865,-27.145,7.96,-84.604,6.575,-7.612,13.71,189.964,23.474,-3.045,1.515,-7.692,-18.816,-12.52,-5.094,12.597,16.626,-6.877,-2.742,6.894,8.242,149.411,26.784,0.567,60.704,156.796,15.516,-0.432,44.6,-80.03
3.209307899999658,-24.044,8.976,-80.421,7.081,-5.043,14.721,219.488,19.864,-8.165,3.562,-5.635,-16.235,-14.045,5.67,15.146,18.658,-2.771,3.408,15.084,15.918,156.946,33.929,5.689,69.353,149.467,22.16,5.204,53.776,-78.413
3.2242685999999594,-27.606,5.894,-81.877,1.439,-11.698,7.022,252.056,4.475,-5.083,-2.589,-8.703,-20.317,-13.518,10.787,11.545,14.541,-1.744,9.04,14.044,15.39,155.253,30.309,1.585,67.746,141.633,19.064,3.149,46.038,-87.556
3.224335599999904,-29.116,-0.26,-80.771,-7.784,-18.346,-0.157,284.592,-7.312,-8.152,-10.271,-14.33,-24.396,-13.505,-2.543,6.41,12.477,-6.353,3.908,8.395,5.641,151.511,24.643,-6.613,54.359,138.417,12.385,-5.051,31.647,-87.98
3.2393005999997513,-23.964,1.789,-73.005,-4.703,-16.279,0.867,263.303,4.478,-6.607,-5.65,-12.266,-19.248,-9.393,1.045,6.404,17.076,-6.347,-0.194,18.12,13.32,162.63,35.377,4.664,60.964,139.303,19.545,-1.459,38.276,-84.306
3.243382499999825,-16.255,21.768,-54.489,22.967,0.644,25.457,230.764,37.261,16.454,14.848,2.091,-7.446,9.06,20.512,17.668,28.842,5.443,7.491,28.861,28.163,178.349,45.076,17.467,82.932,141.725,34.895,12.374,64.878,-77.562
3.256276899999648,-20.337,20.209,-54.435,28.579,0.643,29.018,234.632,39.273,17.974,16.37,-2.522,-13.074,9.563,11.782,15.089,24.714,2.364,1.335,9.877,13.79,172.023,27.1,-0.993,70.042,124.165,24.614,4.165,60.714,-68.775
3.2693585999995776,-35.686,-6.963,-86.656,-2.7,-23.948,-3.287,267.185,6.959,-14.319,-10.799,-25.573,-31.504,-16.062,-9.234,-7.98,1.636,-17.619,-18.134,-17.798,-12.351,155.457,2.482,-26.095,39.746,101.5,-3.076,-16.844,28.378,-82.026
3.2694220999997015,-38.212,-10.543,-98.864,-9.358,-28.023,-11.992,284.848,-5.344,-18.916,-13.349,-28.109,-29.423,-19.632,-3.077,-14.632,-3.489,-17.601,-18.115,-19.317,-13.363,158.376,-0.082,-23.508,37.657,123.94,-7.683,-16.827,30.911,-101.924
3.269466199999897,-30.489,2.276,-73.15,9.095,-13.65,13.635,252.288,27.449,1.595,6.644,-16.81,-20.172,-2.194,8.709,-2.322,9.322,-9.387,-12.462,-10.588,-5.665,170.513,3.504,-14.775,41.717,156.603,-2.04,-11.687,48.811,-96.699
3.2843739999998434,-35.069,-6.948,-71.54,-2.185,-20.297,6.449,266.38,24.86,-1.48,-1.56,-22.429,-29.886,-7.827,1.528,-3.857,6.751,-18.087,-19.11,-14.676,-9.246,169.318,0.939,-18.859,35.016,132.881,-8.698,-18.848,28.27,-90.455
3.299460899999758,-37.596,-8.991,-85.813,-10.892,-21.301,-1.242,233.838,19.712,-6.089,-7.706,-20.357,-27.807,-12.942,-1.035,-2.828,6.232,-14.995,-9.869,-7.489,-3.089,174.271,13.746,-12.18,51.887,100.472,3.606,-8.583,22.094,-97.025
3.2995224999999664,-19.627,17.658,-66.26,21.394,4.336,31.547,201.329,52.48,17.995,20.479,3.229,-4.213,10.637,16.384,20.741,26.206,7.05,13.195,20.695,20.993,197.151,42.421,10.886,78.987,131.623,35.878,14.992,54.86,-88.218
3.3163676999997733,-10.386,23.788,-53.386,29.057,8.942,36.126,233.916,52.428,20.026,23.02,6.812,-2.672,15.237,24.565,27.38,32.328,8.067,13.182,28.871,26.095,200.54,43.404,13.437,69.687,164.279,33.28,11.903,63.514,-75.322
3.3164355999997497,-26.77,-5.949,-85.608,-3.247,-18.731,3.815,266.469,20.1,-12.269,-9.278,-16.761,-23.161,-14.492,7.634,2.762,13.34,-6.798,-0.152,7.325,5.064,179.847,16.208,-8.606,45.539,144.647,5.582,-7.576,33.224,-88.055
3.3294284999997217,-34.94,-14.14,-106.014,-11.953,-24.348,-4.898,233.928,9.322,-18.404,-15.417,-22.892,-25.7,-20.113,0.454,-3.389,7.179,-4.742,5.996,4.244,1.473,181.204,17.729,-9.11,53.69,113.251,11.725,-5.519,34.728,-105.385
3.329492399999708,-21.585,11.489,-82.342,20.847,-1.27,27.894,201.418,42.1,14.402,17.386,-2.889,-11.329,9.621,23.508,16.595,25.103,12.169,20.847,27.806,20.939,201.003,45.888,15.49,79.764,120.823,37.328,9.855,63.895,-99.644
3.344441199999892,-21.051,17.113,-64.329,31.584,2.318,40.162,209.926,59.476,24.633,26.59,1.725,-8.244,18.833,33.218,16.066,30.2,15.231,17.24,28.803,19.893,196.704,39.694,16.499,78.147,136.583,32.168,5.235,64.343,-87.762
3.344506299999921,-41.522,-12.105,-80.659,1.326,-20.226,9.383,242.504,27.141,-3.568,1.973,-20.819,-23.605,-4.752,13.205,-8.541,9.166,-3.228,-3.269,-3.501,-7.279,174.478,7.379,-14.768,46.818,142.082,0.373,-17.824,36.102,-93.309
3.359414099999867,-47.629,-25.413,-94.41,-13.02,-28.915,-1.385,209.986,27.627,-8.688,-6.738,-29.507,-32.291,-13.457,10.63,-16.729,-2.627,-15.52,-11.975,-19.892,-19.567,170.717,-1.337,-28.073,30.378,150.137,-13.46,-26.516,20.697,-101.413
3.359484099999918,-28.113,-2.334,-78.434,5.949,-8.394,26.281,177.501,60.387,20.523,20.421,-6.424,-12.278,14.221,32.649,2.755,15.819,0.377,0.844,4.207,0.433,187.965,24.792,-4.479,53.401,147.425,10.632,-5.485,40.656,-92.09
3.3745326999996905,-14.765,14.574,-58.376,24.386,8.008,41.624,210.111,50.592,34.847,41.405,10.489,6.177,36.236,38.251,19.658,33.734,14.209,13.139,25.207,18.875,200.072,43.21,13.969,73.328,137.544,34.7,10.402,65.206,-82.776
3.3745962999996664,-24.484,2.777,-68.564,20.775,-2.246,25.189,242.688,19.803,20.467,27.019,0.745,-5.1,23.392,28.992,12.979,27.04,4.974,9.54,13.399,11.172,189.626,31.384,-0.39,57.885,130.747,21.857,-0.879,56.944,-90.378
3.3894987999997284,-33.681,-3.886,-80.791,18.193,-11.465,21.065,210.17,41.3,11.738,18.795,-5.916,-13.804,11.074,28.45,6.818,18.304,-1.179,5.432,4.676,5.525,177.141,21.618,-11.148,49.63,102.439,7.491,-8.05,46.641,-92.849
3.3895605999996405,-21.864,14.049,-62.267,32.52,1.354,38.462,177.685,67.387,19.41,34.146,5.361,0.042,22.846,36.619,18.082,27.507,10.093,16.185,26.189,21.401,181.575,43.114,7.819,69.561,96.189,28.488,6.302,64.013,-79.949
3.4045954999996866,-9.547,23.769,-46.323,39.659,9.549,35.862,210.295,39.655,21.44,34.624,10.478,5.677,30.507,46.316,25.749,37.214,20.841,28.976,41.532,30.089,181.905,58.44,19.594,73.59,128.88,41.779,13.981,75.732,-75.258
3.404652199999873,-15.685,11.449,-59.084,27.837,0.831,18.408,242.36,12.975,13.222,18.708,1.246,-4.574,19.206,43.196,17.014,28.467,17.234,24.849,26.121,15.202,162.256,36.352,1.644,56.098,148.219,22.27,2.696,64.385,-84.917
3.4194813999997677,-28.99,0.167,-74.907,17.563,-7.879,15.316,209.842,29.868,5.524,11.004,-10.026,-13.791,5.355,19.586,4.701,11.533,-0.201,5.356,3.553,-3.768,138.015,14.799,-15.264,48.869,115.795,4.829,-9.602,52.025,-91.492
3.419538599999669,-32.035,1.704,-77.906,14.471,-9.408,16.837,177.357,41.109,1.42,10.481,-13.602,-17.364,2.275,15.981,-1.451,6.91,-7.886,-1.821,-3.11,-8.375,124.557,17.346,-11.663,49.845,103.897,6.874,-10.617,48.9,-97.036
3.435581799999909,-21.244,9.387,-68.606,20.092,-1.714,22.968,209.967,36.97,14.739,22.766,0.244,-6.588,18.667,44.142,8.284,19.199,10.053,13.55,10.213,3.928,129.555,29.111,4.23,57.992,136.58,19.162,2.713,62.171,-95.402
3.4356478999998217,-12.001,16.037,-55.73,30.318,7.509,33.704,242.545,46.154,33.679,36.063,12.027,6.226,33.505,47.684,20.059,29.426,17.215,16.098,21.473,13.658,130.451,35.23,13.448,74.84,134.907,30.414,11.932,79.527,-79.425
3.450017099999968,-23.772,6.8,-66.433,24.14,-3.257,23.424,212.076,39.448,19.301,20.145,-3.354,-7.1,19.639,18.434,8.256,19.15,-5.856,-6.972,10.181,2.886,108.291,27.51,2.676,71.692,102.497,21.162,-0.375,65.103,-75.247
3.4500827999995636,-30.921,-6.015,-81.735,12.333,-16.062,10.593,179.589,32.749,-0.186,6.805,-13.597,-18.364,2.714,17.391,-4.048,10.934,-13.535,-9.015,-0.075,-2.752,92.813,20.31,-9.11,50.103,117.251,8.845,-10.109,45.058,-89.516
3.4646672999997463,-12.959,2.701,-66.284,24.104,-1.189,28.513,147.134,65.504,21.331,28.315,3.323,-0.414,17.056,42.477,12.862,24.243,8.508,18.147,14.269,13.132,99.893,32.585,0.633,50.565,149.921,20.107,1.685,61.407,-96.599
3.4647414999999455,-6.286,14.993,-53.923,36.887,10.596,39.755,179.774,69.024,37.704,36.996,11.516,9.32,32.92,44.484,24.633,36.002,16.184,27.862,29.624,22.341,97.231,42.799,12.928,65.372,130.816,31.358,10.392,80.3,-99.064
3.4796572999998716,-22.674,6.781,-68.213,27.629,-5.296,18.199,212.382,36.68,17.174,17.492,-0.791,-3.497,22.641,35.73,10.263,28.281,10.532,18.613,24.472,14.121,79.716,33.022,5.742,61.208,113.267,22.617,0.648,71.511,-102.551
3.479719799999657,-31.36,-9.619,-79.416,12.232,-19.636,-0.775,182.968,25.885,2.812,4.666,-12.573,-13.228,7.249,39.281,-3.579,13.908,7.448,16.033,9.59,0.787,59.144,17.62,-11.682,40.654,102.907,7.225,-10.623,50.947,-102.449
3.496012199999768,-34.403,-23.954,-87.021,2.486,-24.227,-4.36,150.51,58.647,-1.802,-1.486,-23.831,-19.362,-0.955,32.069,-9.723,2.111,-6.904,0.648,-6.301,-13.046,38.592,3.77,-24.478,20.634,75.14,-8.663,-20.859,29.892,-112.08
3.509711999999581,-34.368,-22.393,-90.008,6.07,-19.08,4.865,119.621,62.174,-0.775,3.126,-17.147,-15.244,5.194,20.254,-5.615,5.183,-12.532,-14.722,-3.221,-8.934,40.091,6.328,-17.793,24.199,106.316,-7.63,-18.277,32.423,-117.091
3.5097765999998956,-17.94,4.781,-65.327,26.556,4.506,26.378,152.289,69.284,28.427,30.276,12.071,6.288,29.779,34.578,15.395,25.67,10.534,7.322,21.373,14.641,56.957,33.474,4.254,49.79,138.997,17.993,5.82,65.178,-89.822
3.524729599999773,-9.725,19.121,-45.282,33.189,13.723,38.647,157.772,91.244,44.28,39.979,16.67,9.356,37.946,51.962,24.089,31.28,17.696,25.757,23.401,17.188,47.678,42.662,8.348,55.376,106.583,28.221,12.474,77.921,-78.461
3.524796199999855,-20.474,0.659,-59.581,19.836,-4.734,27.849,125.339,80.394,19.645,20.471,-3.327,-12.171,19.465,42.176,9.72,14.855,-3.327,6.776,1.349,-2.81,25.601,23.151,-7.542,37.39,75.225,14.873,-5.981,61.962,-106.559
3.539737999999943,-23.527,-9.588,-72.329,19.304,-11.902,15.526,158.001,61.359,9.379,15.328,-5.373,-12.159,14.835,33.425,3.05,14.328,-4.348,-3.477,3.909,-1.782,20.965,20.054,-8.559,33.254,104.352,12.809,-5.463,60.875,-111.576
3.5397965999995904,-26.065,-3.431,-71.745,23.383,-7.279,8.851,190.631,56.687,17.567,16.849,-2.806,-1.388,21.48,35.953,3.56,19.949,3.341,3.699,16.2,7.953,16.845,27.207,-0.866,37.319,113.981,15.87,-0.334,64.913,-94.558
3.554750399999648,-34.236,-12.649,-77.821,6.966,-16.493,-1.404,181.731,42.285,4.229,3.0,-16.123,-13.682,8.139,24.134,-4.128,7.121,-9.982,-3.989,2.352,-4.862,-0.078,16.421,-11.111,26.011,103.621,6.12,-14.166,51.528,-109.321
3.5588018999997075,-31.128,-19.296,-78.768,-3.8,-17.501,-1.915,149.274,46.341,-0.898,-1.101,-17.131,-19.816,-0.579,15.913,-3.612,5.577,-15.095,-8.084,-3.286,-11.517,-8.787,10.257,-17.248,17.276,114.788,3.04,-16.201,47.89,-124.58
3.5709657999996125,-24.437,-4.42,-67.93,13.623,-0.578,17.554,116.849,79.083,19.595,16.318,0.304,-2.378,18.377,38.438,10.224,25.039,1.314,7.294,18.234,8.986,-5.192,24.591,-0.324,25.968,106.989,16.357,-0.816,67.31,-108.574
3.5710291999998844,-27.487,4.294,-59.665,31.54,1.472,27.271,149.52,85.151,26.236,25.524,7.476,6.334,31.167,52.232,17.386,28.6,7.46,14.459,24.364,16.662,-4.674,32.764,8.898,35.163,96.123,25.562,3.283,81.587,-99.244
3.5848582999997234,-30.533,-8.006,-63.192,22.287,-13.899,6.239,182.158,52.791,10.84,11.666,-5.339,-6.992,19.352,33.737,9.684,14.739,-6.38,5.735,6.408,-1.285,-22.6,19.411,-4.431,23.345,128.815,15.291,-5.429,71.772,-104.78
3.584925199999816,-35.625,-23.879,-80.547,-0.277,-23.106,-14.772,164.046,30.709,-1.466,-3.715,-19.678,-19.793,7.038,20.383,-5.695,6.528,-19.181,-4.005,-8.455,-13.067,-43.582,2.998,-18.259,5.391,133.297,-5.217,-18.231,48.134,-106.212
3.5998907999996845,-39.688,-27.442,-88.151,-0.277,-22.571,-6.56,131.606,51.17,3.658,0.899,-16.585,-16.699,10.104,30.609,-8.763,7.546,-14.039,-7.587,-5.885,-8.443,-44.051,4.532,-16.704,11.021,100.888,-6.236,-20.775,39.376,-108.668
3.599956299999576,-30.427,-15.119,-71.157,17.142,-12.814,11.377,147.356,73.148,21.585,18.317,-1.199,-1.314,24.439,45.948,8.664,18.297,4.418,4.204,11.539,2.324,-35.81,21.945,-4.904,29.453,95.152,14.262,-4.872,55.219,-106.51
3.614878499999577,-18.614,0.778,-62.889,17.125,-1.019,18.538,177.435,82.297,31.298,27.52,5.975,7.397,33.636,53.586,21.463,26.988,14.148,24.18,24.336,12.055,-38.848,31.145,4.835,27.887,127.844,23.469,2.817,68.996,-101.793
3.6321578999995836,-18.595,0.777,-73.584,9.935,1.032,19.032,144.982,89.899,27.168,25.443,3.407,2.779,29.504,48.922,15.806,24.399,7.986,21.594,22.774,11.531,-44.445,30.089,6.367,23.76,130.79,20.884,-3.846,69.951,-106.302
3.6322213999997075,-21.138,-1.273,-67.363,24.27,1.031,21.574,149.448,95.445,28.165,26.443,5.965,2.264,28.962,39.139,13.741,27.961,4.392,10.302,27.362,8.445,-45.937,34.158,7.897,38.593,98.384,28.548,2.818,76.029,-100.56
3.6322636999998394,-17.531,8.974,-49.365,40.127,5.64,25.651,182.086,91.763,29.162,30.002,10.57,7.385,36.618,42.174,20.388,34.593,6.437,17.976,30.921,14.072,-53.576,35.148,7.889,40.092,111.606,32.106,9.475,82.101,-86.115
3.6449989999996433,-18.025,5.892,-57.0,31.89,-2.562,15.379,194.712,71.691,15.813,18.702,-0.711,-0.307,26.335,47.255,14.732,20.726,-0.742,14.884,11.935,6.886,-68.379,20.256,-6.463,12.899,144.282,13.118,-4.879,67.674,-99.349
3.645065999999588,-30.303,-16.143,-77.948,8.805,-19.466,-9.227,227.305,46.517,1.965,-2.834,-17.617,-15.676,3.767,36.961,-0.652,3.287,-14.061,-9.209,-8.057,-16.175,-82.655,3.33,-22.338,0.591,111.862,-5.338,-18.706,52.749,-126.402
3.659944099999848,-35.395,-19.201,-74.796,-7.086,-20.983,-11.779,232.2,49.544,1.45,-3.856,-17.599,-14.636,4.788,28.728,-4.75,7.894,-15.072,-10.737,-6.512,-19.745,-89.745,2.302,-20.267,15.447,79.475,-2.771,-16.638,59.869,-127.812
3.6600031999996645,-27.163,-6.374,-61.401,3.68,-12.253,7.7,199.693,72.036,9.133,13.054,-7.335,-4.375,21.689,35.871,2.427,17.108,-9.422,-0.48,-2.407,-5.38,-92.729,5.373,-16.148,15.432,111.159,3.379,-11.499,64.932,-113.34
3.674975799999629,-22.013,-10.466,-65.951,32.365,-10.192,10.766,215.375,70.939,14.76,16.115,-5.279,-5.396,21.668,36.86,6.011,15.554,-12.486,-11.238,-2.405,-4.863,-96.735,4.856,-18.181,4.146,134.101,2.864,-9.438,54.109,-105.542
3.6789710999996714,-21.991,-14.554,-70.495,35.407,-10.694,4.096,247.947,59.085,15.77,9.439,-5.786,-7.952,15.498,31.7,3.443,14.514,-16.06,-11.227,2.721,-7.932,-98.687,12.535,-10.991,19.511,108.864,8.496,-8.916,54.567,-104.924
3.6921354999999494,-20.432,-6.855,-60.691,12.318,-8.634,5.116,230.281,65.174,14.217,14.552,-4.755,-5.382,21.118,31.668,3.952,17.573,-11.433,5.178,5.28,-4.85,-101.15,19.183,-4.832,33.836,110.292,13.611,-9.932,67.32,-114.041
3.7050826999998208,-21.948,-7.361,-59.606,12.818,-8.113,6.648,197.775,78.941,18.301,19.149,-4.751,-4.865,27.245,28.05,8.047,16.019,-10.397,1.075,1.688,-4.845,-109.246,8.917,-14.049,19.457,133.748,5.913,-11.459,67.765,-123.148
3.7051487999997335,-19.877,-5.304,-65.694,33.297,-4.519,15.863,165.302,89.62,24.431,18.105,0.377,-1.786,28.242,24.949,13.674,15.49,-10.386,-0.976,5.785,-2.791,-112.723,6.859,-13.01,17.901,133.102,4.37,-7.861,69.234,-114.316
3.720054599999912,-16.271,5.46,-56.407,31.727,-1.44,19.433,197.924,85.945,20.82,18.087,3.963,0.778,25.652,40.293,13.148,16.499,-5.253,12.858,8.853,-0.227,-110.561,19.66,-1.214,34.277,125.284,15.636,-3.243,81.46,-108.054
3.720112699999845,-28.038,-3.255,-53.789,15.301,-11.685,-0.566,230.514,65.879,10.553,10.896,-7.312,-7.42,16.405,52.548,5.963,10.335,-5.76,6.185,0.135,-9.448,-121.209,12.98,-9.41,27.583,111.327,10.497,-9.387,76.768,-117.167
3.73409619999984,-36.207,-18.621,-68.08,18.36,-21.919,-8.25,198.008,63.764,8.493,2.689,-13.964,-12.024,13.315,41.737,4.932,3.665,-11.39,-7.141,-4.988,-14.562,-134.92,-3.939,-24.769,14.747,87.649,-4.882,-20.136,58.248,-109.878
3.7341526999998678,-25.925,-11.942,-67.499,29.612,-14.725,8.664,165.535,74.971,14.632,9.346,-6.266,-4.327,22.011,34.523,13.124,12.37,-8.817,3.112,2.701,-5.838,-131.711,4.775,-19.622,20.368,98.832,-0.779,-16.018,58.19,-92.862
3.7511648999998215,-22.825,-1.684,-52.062,24.972,-6.001,7.631,198.157,64.137,15.642,16.509,-2.673,-1.249,25.063,44.222,18.234,21.58,-2.148,7.72,10.383,-0.197,-124.92,18.602,-7.307,27.52,131.521,12.542,-4.731,72.476,-99.429
3.7512298999999985,-26.9,-8.343,-52.01,14.188,-9.069,-4.16,230.746,57.413,13.578,10.345,-5.745,-4.321,22.476,46.227,18.216,17.972,-3.17,-4.071,11.91,-1.733,-131.967,14.485,-5.25,28.005,136.0,10.48,-7.288,76.502,-119.822
3.764171599999827,-24.312,-19.093,-66.815,8.539,-14.695,-0.57,198.24,75.286,14.589,6.748,-7.276,-5.342,21.429,35.935,16.148,12.319,-8.803,-6.629,4.726,-5.83,-144.13,6.274,-14.466,21.317,114.347,-3.363,-21.113,63.106,-129.436
3.7642371999995703,-25.825,-23.172,-74.433,7.506,-15.193,0.456,197.53,74.699,16.111,10.84,-10.342,-5.849,23.457,33.85,13.571,12.819,-6.232,1.063,-5.525,-11.46,-150.134,-0.393,-26.235,10.025,97.327,-10.532,-23.141,48.698,-121.622
3.779184399999849,-29.385,-17.001,-69.748,11.597,-11.592,-5.18,230.12,53.107,13.533,12.366,-5.721,-3.793,27.532,42.013,16.631,15.367,1.971,4.135,-3.471,-9.399,-151.008,0.12,-22.11,19.236,82.373,-1.812,-14.408,50.699,-106.643
3.779247199999645,-25.257,-9.3,-61.994,15.171,-8.506,-1.077,202.225,58.689,12.495,11.841,-0.592,-1.228,26.992,46.069,20.713,15.352,-2.129,-1.504,5.242,-4.779,-152.907,9.854,-10.305,34.586,85.876,7.411,-12.345,57.308,-108.073
3.7941805999998905,-24.207,-14.413,-65.005,13.619,-10.035,6.609,169.747,89.369,21.192,14.391,-5.715,-3.276,25.428,46.023,20.692,13.287,-9.812,-7.138,3.188,-7.335,-159.414,11.381,-15.418,24.818,118.578,3.305,-15.918,53.152,-118.724
3.7942426999998133,-26.232,-17.473,-67.502,16.167,-9.512,8.652,193.656,95.428,28.855,18.475,-2.635,-0.711,32.063,50.076,23.745,15.836,-2.118,0.554,5.234,-5.791,-160.279,6.759,-18.989,13.522,151.247,-0.796,-14.878,51.562,-114.507
3.8103626999995868,-27.231,-9.771,-59.238,22.811,-4.38,2.495,226.25,63.569,18.068,16.92,4.027,2.363,30.494,49.001,26.283,18.894,1.471,8.238,10.864,-1.175,-157.045,12.9,-12.822,19.656,121.382,2.791,-12.302,53.56,-112.343
3.8104436999997233,-28.74,-11.81,-56.617,21.251,-6.424,-5.192,229.098,46.599,6.267,11.267,-4.686,-2.762,20.217,42.804,22.158,16.313,-6.728,8.742,5.73,-4.247,-164.06,16.473,-15.371,22.198,88.985,4.325,-13.314,47.871,-120.94
3.8246385999996164,-24.101,-12.311,-61.171,22.254,-8.98,5.06,196.593,74.217,20.093,16.891,-2.632,-1.223,30.443,48.909,26.747,20.395,0.451,19.491,8.798,-0.657,-170.556,15.432,-12.281,27.299,92.995,9.444,-11.251,48.848,-111.597
3.8247052999995503,-19.978,-1.028,-58.548,32.991,-1.798,20.936,188.2,95.66,35.442,27.121,12.227,7.488,45.269,58.082,35.429,28.572,10.697,30.23,22.622,9.59,-167.312,21.564,-1.511,35.469,111.857,16.094,-8.166,58.02,-99.19
3.8392563999996128,-29.692,-3.076,-56.44,31.933,-2.821,13.23,220.799,79.683,24.648,20.434,4.531,4.407,34.466,53.413,29.246,21.371,-0.072,15.856,13.377,1.383,-173.292,15.907,-13.292,25.187,106.622,5.32,-10.72,51.815,-108.825
3.839315599999736,-29.662,-13.319,-58.433,16.532,-9.991,0.41,245.169,62.185,12.328,7.093,-7.769,-3.282,22.648,47.724,23.581,12.64,-10.318,-0.554,-3.03,-9.889,-184.389,1.547,-28.136,7.231,116.25,-7.493,-15.832,40.492,-116.401
3.854320699999789,-14.776,-8.182,-54.789,13.442,-5.882,4.508,255.683,61.098,14.365,8.111,0.948,-1.23,27.236,49.213,29.193,17.751,-8.259,3.545,5.17,-3.731,-182.668,8.205,-18.374,7.736,146.36,-0.826,-14.791,45.575,-108.6
3.8842941999996583,-15.786,-2.539,-48.586,27.773,2.321,13.725,223.151,75.894,21.011,17.324,7.094,3.382,31.307,43.529,32.75,20.807,-4.664,12.251,18.485,4.469,-179.412,22.541,-6.572,20.536,147.75,8.909,-6.067,54.238,-104.393
3.8883037999999033,-21.405,2.587,-40.853,36.454,10.003,26.006,190.653,106.556,35.846,30.627,12.723,10.551,40.498,43.997,37.328,23.86,3.537,20.435,20.003,7.539,-179.232,26.617,-4.517,33.323,125.573,12.998,1.623,62.381,-95.067
3.8883570999996664,-8.576,15.392,-34.152,29.245,19.214,38.788,223.25,114.647,46.569,43.404,26.03,17.2,52.24,62.909,49.586,34.595,9.682,25.538,22.545,13.167,-172.905,33.251,-0.414,39.438,105.98,21.694,6.745,73.589,-76.529
3.888397199999872,2.191,17.426,-41.803,22.044,15.097,33.114,255.814,86.355,34.227,37.213,21.906,12.572,46.553,72.58,51.586,35.072,3.524,19.365,24.572,13.666,-174.269,36.804,0.099,41.448,99.214,25.771,10.324,71.467,-69.792
3.9015251999999236,-3.447,14.334,-47.396,28.682,8.422,24.884,223.283,80.121,25.996,28.466,13.687,8.461,38.309,58.675,44.874,30.426,1.471,16.271,22.498,11.603,-181.267,32.668,-2.975,46.017,128.316,23.184,9.801,65.76,-77.407
3.901590599999963,-2.419,27.64,-33.516,45.047,19.684,37.154,190.785,107.706,40.827,39.709,24.431,15.113,48.517,52.468,51.489,37.568,8.13,22.403,25.037,17.227,-178.012,37.759,1.639,41.872,160.976,25.722,10.304,78.502,-88.6
3.9143969999995534,7.318,29.149,-22.724,48.076,24.787,41.216,223.381,101.962,43.348,43.255,28.506,19.709,55.641,60.613,59.635,41.629,9.659,17.77,27.573,22.333,-175.785,40.283,4.199,29.535,151.593,26.209,12.343,85.083,-96.196
3.9144611999995504,3.212,13.751,-32.948,32.658,10.418,21.707,255.946,69.585,24.349,27.843,18.231,14.054,46.876,61.577,51.378,34.415,7.6,13.141,23.447,15.65,-184.831,32.045,-1.953,27.969,119.166,17.473,10.794,67.58,-91.489
3.9294581999997718,-9.087,14.25,-42.136,24.941,6.309,14.513,223.414,69.003,22.788,25.253,17.188,7.892,40.681,58.441,44.155,30.282,7.08,20.3,17.276,8.462,-190.281,29.964,-6.562,34.088,107.776,17.968,9.246,62.901,-82.689
3.9336123999996744,-8.053,24.994,-33.385,37.724,16.549,30.892,190.916,101.722,38.646,37.523,19.732,9.933,44.739,56.334,48.209,29.74,0.413,17.719,15.21,8.966,-189.579,32.496,-5.531,35.591,111.767,25.123,10.261,75.646,-81.069
3.9455432999998266,2.201,21.895,-28.229,44.858,18.069,35.984,194.311,114.428,39.12,40.047,19.713,13.509,46.744,45.007,49.185,28.685,-7.784,3.868,16.731,12.543,-190.414,30.414,-4.501,34.019,122.926,23.048,10.251,74.546,-81.5
3.945604999999887,4.248,18.799,-36.91,34.567,16.002,26.727,226.904,85.624,33.958,34.884,23.279,14.52,45.672,41.888,50.161,32.243,-3.166,4.377,22.35,16.629,-189.199,35.507,-2.959,33.472,138.172,21.488,11.778,69.348,-83.98
3.959880399999747,-1.904,23.903,-38.41,29.922,21.109,27.212,231.8,77.342,39.559,37.411,26.33,17.58,50.237,59.777,58.82,36.309,7.083,13.082,27.963,21.223,-187.473,42.131,1.142,36.513,130.862,27.102,15.352,79.525,-86.97
3.989437099999577,-4.976,20.806,-30.687,33.991,19.551,32.308,199.293,97.757,39.52,39.423,23.742,19.099,52.236,63.815,55.175,33.711,2.978,13.581,24.861,18.641,-193.945,35.429,2.678,38.525,111.775,27.587,14.824,81.495,-84.322
4.004562699999951,-3.434,13.613,-35.267,37.031,9.798,29.202,198.069,100.733,31.796,36.309,18.083,12.42,43.475,50.432,40.775,26.505,-5.734,13.055,15.615,10.425,-201.436,28.733,-2.448,31.315,107.565,20.388,8.662,70.655,-85.262
4.00461789999963,1.693,22.821,-37.793,49.289,12.862,34.296,230.659,95.509,39.448,40.372,20.114,15.481,46.505,60.115,47.394,30.065,6.567,23.801,23.796,17.075,-196.624,36.389,2.678,37.943,114.63,24.978,10.702,74.682,-89.275
4.004657799999677,5.277,34.068,-23.923,59.486,25.657,43.483,263.216,100.536,50.68,48.528,31.364,27.249,60.803,78.498,62.204,44.379,20.905,33.511,39.654,30.378,-187.205,46.087,17.02,58.398,131.934,39.298,23.499,86.391,-81.501
4.0085793999996895,-1.388,16.104,-28.51,37.909,21.532,27.046,269.1,85.579,37.309,38.746,25.185,19.025,49.984,65.099,52.408,38.187,6.539,23.231,25.782,19.589,-197.264,33.745,7.269,42.458,146.659,29.524,17.841,74.521,-74.76
4.0215901999999915,-7.534,-3.38,-53.584,15.33,8.703,11.649,236.556,69.612,24.464,25.387,8.254,4.149,35.077,48.128,41.085,20.218,-5.763,7.838,8.338,5.224,-207.826,17.318,-9.132,10.652,136.266,7.978,-0.108,54.467,-83.906
4.034599699999944,0.158,13.017,-45.334,32.221,17.916,33.155,204.044,95.158,44.932,42.268,23.103,19.514,55.534,61.912,56.413,31.469,12.174,17.564,28.822,20.076,-194.298,33.182,5.734,26.523,128.445,20.265,7.064,65.683,-88.946
4.034665199999836,0.67,27.349,-14.038,51.144,30.194,43.88,236.628,106.333,58.207,58.107,38.961,31.79,69.823,78.757,66.09,47.319,24.457,32.916,45.187,30.815,-188.98,50.055,16.999,45.964,132.415,38.688,18.84,86.11,-79.635
4.049641399999928,-8.552,11.44,-16.585,40.334,17.868,20.782,269.179,81.124,37.656,38.581,20.479,15.877,50.286,76.116,51.68,33.439,14.187,29.809,28.235,16.439,-203.648,36.173,4.174,31.574,110.253,24.817,7.038,77.314,-75.969
4.049712399999862,-0.859,15.014,-29.376,38.757,14.776,26.397,236.634,96.412,38.643,34.957,20.459,17.91,54.334,73.991,51.116,31.357,16.734,32.853,31.793,20.009,-197.809,38.186,12.879,37.177,112.192,27.866,9.081,74.163,-78.967
4.0645832999998674,10.925,41.639,-18.076,56.649,34.742,57.109,229.225,129.103,66.269,62.586,47.078,38.384,77.846,80.065,67.458,49.768,29.013,46.141,50.717,36.383,-181.73,59.152,26.699,49.436,144.868,50.38,27.515,95.606,-77.351
4.064645499999642,-4.455,32.376,-20.107,53.006,29.584,42.707,261.784,106.945,55.957,52.79,32.174,24.514,61.374,75.886,59.194,38.448,17.713,34.311,29.661,20.465,-198.454,37.064,1.057,19.672,137.551,30.349,16.216,86.801,-80.86
4.080759599999965,-21.357,3.142,-44.678,31.436,-0.16,10.389,237.443,74.563,23.626,20.462,-0.133,-2.151,29.55,59.929,32.495,12.794,-2.285,8.149,0.943,-3.122,-221.822,6.8,-20.974,0.185,105.138,0.093,-5.317,54.439,-92.05
4.080827499999941,-13.139,8.262,-47.707,26.794,-1.697,10.891,269.994,68.34,21.553,22.49,8.064,7.073,35.156,54.233,30.413,18.929,-1.77,9.678,12.212,3.029,-215.965,22.163,-6.608,19.14,104.008,15.974,0.836,61.045,-95.544
4.094686599999932,-0.83,28.746,-30.241,40.6,19.31,28.811,302.511,82.617,42.023,47.571,29.573,24.484,56.637,66.475,46.776,35.816,13.088,33.235,31.668,17.371,-202.429,38.535,7.231,22.707,136.692,33.889,11.594,88.136,-91.862
4.094752299999982,1.732,34.353,-17.403,52.854,29.537,43.127,269.934,108.662,53.765,53.159,34.154,24.972,63.753,75.63,52.877,37.83,20.248,41.398,33.173,22.989,-198.64,36.447,6.711,12.951,145.777,28.22,11.07,88.56,-84.086
4.109715699999924,4.292,34.319,-12.775,53.314,30.019,54.867,237.388,137.755,60.883,59.253,37.193,25.972,65.739,70.431,57.435,37.279,16.641,29.574,34.165,26.039,-198.954,42.046,9.778,21.647,113.355,30.753,12.596,80.275,-70.17
