Timestamp,Cz,Fz,Fp1,F3,C1,C3,T7,C5,CP5,CP3,CP1,P1,P3,O1,CPz,Pz,Oz,O2,P4,P2,CP2,CP4,CP6,C6,T8,C4,C2,F4,Fp2
0.0,40.937,23.093,-134.504,50.174,37.51,24.057,329.5,88.054,54.342,55.348,30.607,21.763,32.109,54.385,30.856,-21.265,60.487,57.95,23.677,32.921,124.304,39.802,36.852,42.16,-29.931,24.696,45.644,5.239,-133.331
0.00011519999998199637,34.748,19.484,-134.882,54.735,30.3,19.935,296.895,88.478,50.702,48.633,22.891,19.692,28.491,50.745,25.19,-24.83,55.303,47.646,11.871,21.105,119.057,24.905,24.008,39.556,-62.177,15.45,38.938,-8.598,-145.493
0.014855099999749655,14.733,8.193,-134.234,49.557,24.122,7.107,290.962,80.192,42.966,39.875,16.721,7.377,19.753,44.546,17.48,-29.928,50.125,45.549,2.125,13.4,116.376,8.999,13.738,29.783,-73.385,2.627,30.702,-31.644,-149.958
0.019716499999958614,20.866,8.697,-138.711,36.7,30.245,10.686,323.459,80.112,48.559,43.422,19.778,11.468,26.393,51.162,24.635,-27.337,56.735,54.213,11.857,25.169,116.772,20.773,20.384,23.093,-40.524,2.624,32.208,-19.829,-154.419
0.03142839999964053,41.338,18.935,-139.084,39.737,43.535,23.483,350.8,88.229,58.756,53.112,27.955,25.801,35.588,57.258,37.418,-19.112,63.851,58.769,26.702,34.878,123.828,36.634,31.634,36.39,-28.188,12.868,39.861,-2.903,-146.58
0.03149519999988115,36.173,21.477,-126.65,60.189,51.176,26.021,339.179,91.727,58.698,59.207,35.612,24.751,35.041,49.516,37.893,-12.946,62.25,63.321,28.724,35.868,127.29,37.11,39.287,56.846,-60.435,23.613,46.993,-12.634,-119.281
0.044944699999632576,23.329,20.944,-118.326,66.277,48.051,25.995,342.426,90.611,54.54,58.635,34.552,21.14,34.493,47.93,32.732,-15.494,58.601,62.233,25.622,36.856,123.577,37.072,38.736,57.301,-59.35,25.126,45.922,-17.232,-119.674
0.05992530000003171,28.429,17.337,-131.528,50.329,33.658,20.334,374.871,79.762,48.851,48.843,23.759,20.607,30.36,47.37,30.65,-23.676,52.907,46.29,18.424,27.086,120.891,32.937,27.939,41.875,-49.045,13.318,37.679,-12.604,-151.83
0.05999279999969076,29.425,6.561,-143.18,39.52,20.817,3.407,382.693,60.726,39.068,37.523,16.562,12.389,21.621,38.613,24.471,-27.75,50.293,41.632,11.745,16.813,117.184,23.17,23.3,34.148,-66.927,3.571,32.518,-17.715,-162.436
0.07495929999959117,17.101,7.067,-133.303,43.067,33.092,4.428,350.035,66.813,39.541,40.047,21.669,12.889,23.648,42.161,21.885,-23.112,56.903,59.009,19.418,25.505,117.067,26.221,30.449,34.627,-41.244,10.228,36.072,-18.209,-135.122
0.0750223999998525,20.157,20.892,-124.46,47.122,53.039,22.867,317.41,93.387,50.772,51.278,28.307,24.659,31.822,51.34,35.183,-18.478,62.993,65.61,26.571,35.213,123.61,33.879,32.98,33.055,-15.075,19.439,42.695,-11.531,-118.08
0.09101789999976972,34.994,20.359,-129.459,50.149,44.276,21.307,336.048,91.244,51.746,50.714,26.742,23.098,31.277,41.555,40.271,-16.923,59.344,56.323,19.372,30.055,123.487,28.722,27.824,32.51,-47.336,16.346,42.653,-16.13,-122.573
0.09108530000003157,29.836,10.092,-133.428,52.661,27.838,10.015,356.204,71.173,42.473,46.053,24.666,17.439,26.635,35.366,29.473,-17.93,56.723,57.291,17.816,27.463,115.678,27.157,27.796,33.502,-61.121,10.694,37.999,-25.336,-136.283
0.10505719999991925,9.314,10.594,-132.782,44.411,32.421,8.468,376.852,66.491,39.357,43.957,24.129,19.471,25.072,44.039,29.955,-23.548,57.179,58.771,19.847,28.973,112.489,30.203,28.793,33.981,-28.272,11.195,37.449,-23.773,-148.442
0.10512329999983194,3.157,12.121,-129.063,36.17,35.463,3.337,396.455,66.937,38.805,37.253,17.445,12.279,19.924,45.02,34.536,-29.672,55.585,50.515,12.655,20.235,109.815,23.513,26.203,33.434,-35.928,10.16,36.899,-16.577,-135.998
0.1199971999999434,15.961,12.621,-120.225,47.404,29.792,0.259,363.784,68.919,35.18,34.655,13.329,5.607,14.268,42.413,26.817,-31.179,55.529,51.489,9.569,14.579,106.119,19.391,26.689,30.327,-44.089,6.563,32.252,-15.536,-121.005
0.134976800000004,23.118,18.244,-123.178,55.554,34.885,6.919,331.144,77.047,33.608,36.669,15.877,9.7,14.766,46.982,19.618,-32.173,57.011,56.561,10.584,19.688,107.037,23.47,27.687,28.76,-46.607,8.094,33.244,-18.594,-136.253
0.13503549999995812,13.361,16.688,-138.424,44.227,32.801,5.888,316.981,76.458,35.623,32.534,13.812,10.715,16.289,45.398,18.574,-34.19,53.88,50.357,6.987,21.205,107.443,21.91,23.56,32.829,-78.835,10.135,36.797,-17.551,-143.802
0.13507699999991019,13.347,13.598,-133.675,45.208,19.96,8.956,284.389,82.016,41.223,38.137,17.897,12.241,18.321,40.229,19.58,-29.545,53.314,47.745,13.128,20.159,106.823,23.425,24.562,32.797,-51.604,10.637,37.272,-14.972,-126.239
0.1509621000000152,28.703,24.343,-112.025,62.581,28.65,23.804,316.892,97.304,48.867,49.882,32.224,20.425,27.012,42.751,28.782,-21.831,57.359,56.406,24.385,29.36,109.79,32.623,33.758,30.202,-18.765,17.286,43.383,-9.834,-123.552
0.15103299999964293,25.088,28.417,-110.888,59.957,41.429,19.169,349.363,78.763,46.256,40.098,29.118,17.331,25.961,42.196,32.339,-23.346,56.789,53.788,17.701,29.843,108.143,33.103,35.262,36.832,-44.362,21.88,47.95,-2.652,-124.965
0.165179299999636,11.743,19.167,-122.048,41.454,32.166,1.731,362.846,52.045,32.89,26.738,14.744,5.531,10.053,36.006,19.499,-31.519,50.585,42.464,4.876,17.518,102.4,23.848,25.493,40.381,-76.593,15.198,39.193,-4.186,-112.032
0.18010889999959545,20.441,16.586,-122.438,40.388,28.547,5.828,330.207,68.899,29.783,32.859,15.754,2.451,4.92,32.384,13.844,-38.148,45.411,38.323,1.797,13.914,101.273,14.603,16.758,25.484,-61.147,4.424,30.957,-13.916,-129.339
0.1801728999998886,25.031,16.057,-129.488,49.569,35.179,11.97,305.286,82.15,36.926,34.875,17.275,5.01,12.6,29.277,21.003,-41.183,41.267,37.772,0.258,15.95,99.635,9.977,12.643,14.188,-39.056,0.834,31.951,-17.488,-158.923
0.18021550000003117,7.075,10.918,-142.166,49.519,26.947,2.224,337.769,59.526,35.352,29.205,11.622,6.542,11.05,29.76,22.006,-38.068,44.3,39.271,1.282,13.372,94.924,15.09,16.728,19.809,-46.19,4.419,34.48,-18.495,-138.784
0.1951324999999997,5.531,11.42,-138.95,41.785,24.871,2.222,320.013,57.417,32.755,33.787,18.271,9.61,13.088,34.341,21.472,-31.37,53.989,48.454,11.527,18.994,97.903,25.321,25.933,24.912,-22.577,10.05,38.032,-22.063,-110.981
0.19519769999988057,23.969,10.896,-132.151,34.059,29.969,9.392,287.417,74.266,37.845,35.29,21.326,10.112,21.272,31.233,22.475,-31.851,51.374,49.942,15.102,24.611,101.391,24.271,23.858,20.277,-19.993,9.015,38.506,-22.553,-126.752
0.2118983999998818,26.506,4.225,-133.556,31.463,16.106,1.186,319.917,62.921,30.635,23.471,9.522,4.979,11.517,21.98,13.743,-39.504,40.564,41.183,6.89,15.877,94.118,18.099,17.687,17.695,-52.249,3.371,34.881,-24.067,-142.506
0.21197080000001733,22.382,6.782,-130.349,35.018,10.967,-4.963,352.385,49.538,20.358,20.886,9.0,4.462,0.747,29.643,8.094,-37.415,45.646,42.679,8.932,14.836,93.511,20.131,23.304,26.899,-63.467,9.515,38.433,-20.969,-135.192
0.2255883999996513,30.044,20.608,-126.632,43.692,32.986,10.923,319.757,69.981,35.707,35.21,24.872,13.679,14.579,48.057,19.869,-24.57,60.458,52.37,20.706,28.654,105.713,30.869,30.966,42.241,-59.305,22.826,50.69,-3.53,-137.106
0.24011369999971066,38.211,29.809,-126.505,54.919,41.15,29.355,287.675,92.452,54.115,49.52,32.02,19.813,28.909,47.496,33.169,-21.472,60.91,48.219,21.198,33.748,110.73,36.986,32.471,43.736,-49.0,26.901,54.225,7.232,-136.968
0.24018119999982446,38.172,26.193,-118.182,55.889,26.251,23.691,320.175,83.138,46.376,45.372,25.84,14.158,21.195,33.104,29.55,-30.672,50.09,33.826,10.931,26.03,102.935,29.776,29.877,29.347,-16.163,19.702,46.999,-6.095,-116.852
0.2550751999997374,30.45,15.408,-116.015,42.001,18.541,5.224,352.642,61.538,34.034,33.031,19.667,9.021,11.953,27.948,14.664,-34.227,42.868,30.719,5.284,18.831,95.66,18.476,19.601,17.535,-10.511,7.387,38.242,-20.434,-109.05
0.2551378999996814,25.296,13.856,-121.022,38.373,22.108,8.293,327.186,64.551,38.099,37.609,25.282,13.11,21.162,35.605,12.087,-29.582,46.411,43.496,8.353,21.886,96.589,20.507,18.045,19.054,-40.727,6.867,38.204,-15.29,-121.236
0.2701336000000083,34.492,27.162,-116.29,50.63,29.771,26.215,305.342,82.417,48.819,53.965,37.04,21.294,37.023,43.254,28.981,-23.917,56.611,54.211,18.078,35.185,104.177,33.806,32.884,30.818,-45.809,22.742,46.875,-4.004,-126.238
0.2740036999998665,35.995,32.77,-120.784,54.165,35.376,23.115,319.894,79.261,48.77,50.837,35.978,20.248,33.912,43.21,36.125,-22.869,59.116,49.546,21.134,38.736,107.146,37.358,36.949,36.423,-40.128,29.379,49.902,-0.926,-127.137
0.28566559999990204,16.491,17.88,-138.594,41.303,30.218,4.649,310.865,63.3,35.401,34.905,21.598,12.543,17.484,35.482,18.67,-29.506,50.86,43.348,9.33,25.377,99.355,28.1,25.129,25.116,-52.384,14.493,41.655,-9.635,-132.133
0.2857328000000052,13.401,4.03,-133.845,31.016,26.089,5.156,278.279,68.36,31.78,34.87,16.965,12.53,19.003,27.762,11.479,-33.063,47.735,46.891,4.198,21.253,94.645,22.436,23.567,16.381,-46.696,8.331,36.491,-21.408,-133.537
0.3002406999999039,32.855,9.149,-120.391,32.522,35.797,16.422,292.345,79.562,47.117,44.569,26.17,18.153,30.255,29.272,26.837,-28.419,50.761,47.357,14.952,29.429,101.21,27.537,30.204,23.025,-32.304,16.519,39.528,-20.874,-136.478
0.30030390000001717,30.773,16.825,-128.98,38.637,41.909,14.869,324.84,71.798,49.119,45.036,30.242,17.111,25.614,40.001,32.446,-25.316,52.76,45.772,17.498,29.399,106.232,32.12,32.735,25.051,-44.055,18.552,43.587,-10.607,-134.804
0.315161900000021,13.324,14.246,-135.511,39.623,37.768,10.243,317.855,67.628,32.164,38.331,24.577,15.044,17.392,47.645,24.216,-26.316,53.731,49.825,10.309,23.222,104.076,30.551,33.727,24.001,-47.085,16.997,43.543,-9.06,-127.497
0.3152234999997745,18.433,12.183,-128.203,37.534,39.268,16.381,285.262,80.88,33.669,38.805,22.503,16.054,18.399,36.327,26.753,-26.802,50.604,43.115,8.761,21.662,101.411,26.422,29.082,28.076,-24.496,18.004,38.889,-15.711,-135.567
0.33023869999988165,35.321,17.294,-121.415,42.62,46.913,23.024,314.691,84.385,49.517,45.939,30.677,16.55,23.503,24.508,37.997,-26.263,47.992,34.363,9.777,24.202,104.383,25.883,28.029,29.585,-25.497,21.06,41.924,-15.695,-142.603
0.3341881999999714,33.749,24.961,-110.023,51.798,51.989,23.513,347.164,75.079,50.492,50.504,38.844,24.73,31.165,37.803,45.644,-19.064,55.628,49.185,15.403,34.424,112.476,35.079,39.271,35.191,-43.402,29.236,54.69,-2.359,-125.555
0.34719089999998687,22.957,28.01,-105.302,53.284,52.449,24.002,322.738,78.078,43.781,48.404,35.731,29.829,30.621,48.524,45.086,-11.36,60.696,62.968,25.634,41.562,114.412,43.241,41.794,42.328,-36.698,32.793,55.147,4.303,-115.695
0.3472570999997515,19.86,21.834,-119.541,45.033,44.712,21.929,290.14,83.123,40.151,44.257,26.986,15.967,19.832,36.18,37.869,-16.984,51.926,53.172,21.509,31.786,104.052,34.488,26.895,31.015,-26.928,22.514,41.772,-9.534,-125.313
0.3603019999995922,25.988,16.177,-124.033,40.89,35.446,18.321,319.051,73.306,40.623,45.237,25.934,10.828,21.861,34.094,34.757,-23.115,49.825,51.582,14.316,24.582,99.849,27.794,24.819,23.299,-30.487,19.418,40.706,-14.135,-123.651
0.3603656000000228,27.499,22.309,-114.175,47.509,38.485,23.938,351.52,72.72,47.755,52.364,34.105,26.698,34.647,47.893,40.87,-14.383,64.119,65.875,25.06,34.804,111.02,41.086,39.651,37.108,-18.673,29.644,50.399,4.835,-118.917
0.37531159999980446,22.86,25.872,-116.622,47.974,45.106,26.476,318.893,86.48,48.22,50.775,36.12,27.696,31.026,45.795,42.878,-10.27,67.641,64.784,30.158,39.38,113.471,46.68,42.685,42.194,-14.044,33.201,50.349,4.317,-123.408
0.37537750000001324,26.936,17.137,-124.19,36.655,38.913,14.154,299.107,77.684,30.753,35.355,26.35,14.349,17.675,32.942,35.663,-22.043,52.205,50.887,16.808,30.631,103.111,33.826,31.884,29.856,-46.305,26.508,43.126,-20.278,-124.31
0.3893123999996533,35.618,16.096,-123.554,34.569,30.677,5.943,331.595,51.991,22.525,27.123,21.713,13.31,13.559,26.761,28.968,-29.193,42.931,42.639,11.155,25.477,100.959,29.181,28.778,25.216,-62.141,20.846,41.034,-15.647,-128.284
0.3932706999999027,26.874,26.326,-121.893,44.268,33.721,16.183,351.756,56.038,34.286,36.83,29.376,16.882,19.181,24.685,27.914,-22.504,49.548,40.547,18.317,26.989,106.493,34.275,32.336,29.289,-38.512,24.411,44.579,7.423,-130.717
0.4052876999999171,16.088,28.349,-116.136,48.323,40.859,26.925,319.129,81.085,42.961,48.064,32.933,18.402,24.797,28.247,31.984,-18.383,54.621,48.704,20.348,30.036,110.485,36.29,32.816,33.87,-26.691,31.047,49.657,6.903,-121.877
0.4053573999999571,26.318,23.197,-109.872,47.25,37.744,26.898,298.83,88.176,42.406,47.503,29.314,21.458,24.26,30.78,36.051,-20.414,53.03,55.827,20.327,32.567,112.424,36.254,33.295,35.374,-32.299,30.503,50.12,0.236,-124.317
0.41940059999978985,33.977,25.223,-112.836,47.715,30.022,25.847,307.24,86.039,43.9,46.431,31.334,18.363,21.162,26.651,34.478,-19.369,48.878,47.575,19.795,31.51,111.799,34.681,35.311,30.215,-27.144,26.374,49.557,3.822,-131.365
0.43435579999959373,28.819,26.735,-116.822,41.519,32.554,28.382,286.44,91.588,44.881,48.434,35.913,15.27,22.678,28.161,30.345,-18.837,46.78,41.892,17.726,27.892,113.224,32.084,32.202,27.623,-30.191,26.86,50.532,-2.329,-123.549
0.43441389999998137,32.889,20.048,-121.316,34.306,39.181,25.28,318.942,82.275,38.176,46.336,30.242,17.817,22.655,30.694,26.729,-22.404,47.246,47.997,17.195,26.328,115.16,30.515,26.534,27.596,-42.456,23.247,47.408,-14.11,-125.987
0.44938449999972363,37.979,12.856,-129.903,34.784,30.433,14.496,351.41,59.651,30.965,40.142,22.527,14.213,16.997,26.053,26.189,-26.993,49.248,51.023,17.178,25.789,111.459,25.362,23.946,19.371,-40.364,15.027,40.701,-20.244,-137.132
0.44944359999999506,26.671,12.331,-126.7,34.749,18.107,13.457,318.784,59.591,32.471,39.077,23.017,11.125,20.054,28.589,26.676,-28.503,52.272,52.509,12.55,26.275,109.811,23.287,25.459,13.716,-38.275,13.987,39.635,-22.785,-132.384
0.46652229999972405,19.984,15.392,-121.45,29.079,23.724,19.592,286.189,70.803,36.025,42.625,26.068,15.724,25.669,34.708,21.526,-26.937,53.757,52.969,11.513,25.737,112.775,28.387,26.458,21.9,-52.069,16.535,43.182,-15.078,-138.911
0.4665895999996792,29.698,13.327,-133.112,21.365,29.848,9.838,318.691,55.363,25.743,37.459,20.919,14.172,15.397,28.525,16.894,-28.959,47.043,45.231,13.039,21.613,111.637,24.772,21.821,21.878,-66.361,14.982,39.04,-7.89,-161.314
0.4795240999997077,33.767,5.63,-139.126,14.684,21.621,-1.955,339.889,34.303,14.446,26.663,14.75,10.059,6.161,23.374,18.926,-34.054,43.41,42.112,7.902,16.98,109.989,15.014,15.139,8.536,-75.004,8.307,33.366,-20.69,-153.468
0.47958959999959916,24.511,4.087,-131.815,15.693,16.477,4.707,307.274,42.977,20.58,26.636,17.297,11.586,9.741,25.399,17.37,-31.97,46.953,47.193,2.259,17.476,112.44,15.511,14.612,6.478,-70.318,3.175,33.845,-32.965,-131.798
0.49453399999993053,15.265,9.206,-138.343,22.85,19.022,8.289,293.134,55.23,28.756,31.733,16.767,8.5,9.218,19.226,10.693,-32.963,41.271,41.511,1.745,15.409,110.791,15.496,14.597,9.033,-43.608,6.246,32.786,-26.272,-141.4
0.49460039999985383,14.738,7.66,-142.303,24.364,17.466,2.133,291.304,54.662,27.19,29.139,9.578,2.857,4.598,12.035,10.17,-40.102,32.52,33.272,-0.819,9.758,109.656,9.845,12.021,2.364,-26.146,8.801,30.192,-21.122,-152.017
0.5094893000000411,18.821,4.578,-126.791,22.803,16.424,6.229,276.156,62.805,27.675,27.573,9.569,6.44,8.692,13.047,14.77,-36.988,37.611,38.874,-0.818,14.359,112.62,13.421,16.108,5.436,-53.272,6.743,32.723,-26.224,-137.52
0.5095499999997628,18.29,7.135,-119.492,26.366,20.506,11.858,287.663,72.476,30.722,33.693,13.657,11.044,11.245,12.01,16.292,-29.779,43.721,43.446,7.38,22.029,117.118,21.092,22.752,17.726,-82.933,8.786,29.617,-34.395,-137.383
0.5253247999999076,15.71,7.128,-126.033,22.241,28.682,7.748,290.449,66.768,30.179,34.172,12.619,8.984,9.697,6.875,18.838,-32.823,40.603,40.329,8.397,17.397,117.001,15.948,18.118,11.048,-56.722,7.24,23.439,-36.41,-157.225
0.5253923999998733,16.719,1.486,-135.641,7.362,33.264,3.129,271.203,58.504,24.001,24.404,10.045,5.389,7.638,11.479,18.307,-35.352,41.075,40.801,-1.345,11.232,111.761,9.272,10.415,-3.308,-24.39,-1.989,24.953,-28.689,-159.63
0.5396221999999398,15.678,0.46,-144.727,10.941,26.571,-1.485,303.72,51.786,17.317,20.793,10.547,6.92,6.094,22.738,16.751,-33.267,46.669,46.396,2.755,18.393,112.161,15.923,17.065,6.429,-49.469,4.161,29.026,-25.586,-145.125
0.5396888000000217,13.101,9.168,-137.922,30.398,23.983,2.103,336.204,51.222,24.984,31.531,17.709,17.672,16.846,29.887,25.956,-27.599,53.282,54.034,19.146,28.62,125.369,29.739,29.855,26.403,-72.473,24.137,35.657,-26.073,-138.832
0.5545458999999937,16.161,17.356,-118.829,31.904,40.865,16.446,303.592,64.49,37.767,42.258,27.937,23.802,30.661,31.394,37.713,-17.325,56.303,58.59,23.225,29.616,130.879,37.394,31.875,29.963,-46.785,29.748,44.331,-15.801,-136.644
0.5546059999996942,16.658,10.679,-123.32,17.015,42.873,10.794,273.575,60.84,27.995,32.482,21.25,11.995,15.774,26.752,29.479,-23.455,44.464,46.749,10.906,21.902,118.453,28.135,22.109,20.199,-38.029,18.96,38.139,-18.859,-136.508
0.5695938999997452,13.055,-3.677,-139.079,14.949,14.654,-8.173,289.183,44.897,14.135,18.105,5.859,2.249,-4.734,16.479,11.006,-41.875,33.148,31.333,-1.4,12.146,111.162,11.201,11.841,7.371,-52.848,5.621,25.805,-40.869,-135.859
0.569652799999858,12.529,-0.599,-131.255,25.693,6.442,-0.48,270.963,59.197,24.879,24.234,9.952,9.931,5.004,9.803,8.946,-39.271,38.238,33.863,-2.423,10.085,118.223,7.604,9.78,1.728,-34.352,-1.557,25.78,-42.365,-127.014
0.5865234999996574,10.98,10.672,-119.853,29.253,28.465,12.841,292.721,70.409,32.539,33.432,18.139,14.532,12.684,11.33,23.281,-28.474,42.299,41.514,2.19,13.149,118.105,12.719,12.844,7.362,-27.658,0.494,28.828,-26.441,-126.887
0.600111399999605,5.334,3.489,-129.467,22.052,26.387,-3.566,325.216,42.674,18.162,21.103,8.387,6.833,-1.161,14.393,24.283,-37.154,37.645,38.398,-0.886,9.037,108.765,9.632,10.782,7.867,-59.906,2.542,24.7,-26.415,-147.252
0.6001839999998992,4.304,-11.371,-145.219,5.636,-2.841,-19.444,292.615,32.385,9.434,7.762,-2.893,0.679,-7.82,10.28,2.229,-45.314,35.046,31.7,-8.057,1.856,105.583,3.987,5.136,1.199,-80.85,-2.071,20.577,-36.122,-164.523
0.6146995999997671,6.861,-13.921,-151.222,-8.202,-7.961,-15.326,260.047,50.283,15.06,10.316,-3.402,-0.347,-2.177,3.097,-5.458,-40.658,32.45,26.545,-8.049,2.366,107.014,5.52,5.643,1.71,-56.691,-3.606,18.507,-39.16,-163.847
0.6147791999997025,9.416,-5.71,-145.435,6.151,18.175,-6.089,270.033,54.844,19.144,16.965,2.749,2.728,1.412,5.656,16.065,-35.494,31.905,28.568,-3.43,6.975,111.518,11.15,11.785,6.319,-35.117,1.009,22.075,-34.51,-151.387
0.6297907999996823,15.554,10.177,-130.433,37.908,33.526,8.262,290.256,63.498,24.248,27.707,16.579,11.434,9.095,19.482,31.93,-29.824,42.119,43.396,2.721,14.652,119.091,14.213,16.896,10.411,-25.861,5.106,31.787,-22.18,-130.744
0.6298489999999219,21.174,17.851,-115.958,41.968,28.369,17.475,285.867,79.828,31.396,36.388,24.247,16.546,15.746,24.586,28.825,-23.646,50.786,52.574,8.353,21.81,124.095,15.223,18.416,12.962,-30.446,9.199,35.853,-20.109,-119.854
0.6447027999997772,16.542,6.05,-123.014,17.848,23.73,5.674,318.369,66.428,29.315,28.667,12.952,11.406,9.07,10.729,22.136,-27.209,43.563,43.3,2.197,16.153,118.335,11.11,11.225,7.826,-52.957,7.141,29.158,-32.384,-133.055
0.6489196999996238,9.865,-8.3,-145.945,7.584,13.46,-9.701,318.05,46.894,14.429,14.294,-1.918,0.636,-2.21,-0.553,8.281,-37.94,32.761,30.449,-9.588,1.28,105.922,0.852,-0.057,0.134,-71.347,-4.649,20.419,-36.962,-147.266
0.6604659999998148,12.417,-7.78,-143.75,16.285,-7.558,-7.642,285.457,47.36,5.193,12.231,-1.404,-3.463,-5.282,7.645,-6.072,-42.0,31.192,26.833,-9.578,0.254,101.205,-0.173,-0.057,3.208,-67.177,-6.694,19.887,-34.876,-137.897
0.66052609999997,21.626,2.474,-112.867,15.757,-4.477,2.612,308.225,50.899,15.434,19.391,8.331,6.787,3.945,20.445,5.205,-31.2,37.308,32.954,1.702,14.086,112.375,15.196,12.751,11.914,-49.179,6.633,29.6,-37.403,-122.903
0.6748730999997861,24.678,5.033,-116.853,7.032,21.655,5.683,314.065,52.897,25.665,24.494,12.421,13.44,11.114,19.4,21.082,-23.484,38.808,39.068,5.286,19.195,120.459,22.866,17.349,13.951,-38.884,12.262,34.694,-36.853,-136.1
0.6749409999997624,16.969,-10.341,-149.011,-0.148,17.023,-3.544,281.475,48.233,15.393,17.297,3.7,3.693,2.906,10.159,9.79,-32.682,33.133,32.882,-4.453,8.929,112.142,10.548,7.086,6.765,-51.14,0.979,25.438,-38.866,-165.165
0.689833699999781,12.341,-16.478,-145.789,-3.221,-9.634,-11.737,306.809,39.476,6.668,9.596,0.11,-0.409,-3.245,6.563,-1.491,-35.211,32.076,26.701,-7.01,7.384,107.419,11.049,5.029,5.221,-60.823,-3.121,22.851,-42.925,-160.389
0.6898973999996088,20.526,3.518,-112.855,4.979,0.11,-0.455,339.29,49.682,20.494,20.344,10.868,10.349,7.517,12.191,12.855,-21.856,38.191,34.359,6.83,17.11,116.021,21.797,14.758,15.974,-46.417,7.128,33.586,-32.636,-128.978
0.704812899999979,22.042,11.199,-122.476,16.245,25.725,6.718,317.434,59.367,25.084,25.959,13.419,10.851,11.095,10.13,24.113,-20.297,34.055,33.3,5.286,12.482,115.392,13.066,9.62,14.421,-44.834,7.121,33.04,-27.993,-125.263
0.7087813999996797,6.651,-6.743,-148.481,10.593,17.502,-10.707,288.94,41.889,7.64,7.49,-2.988,-3.504,-5.31,-2.176,11.794,-36.158,19.676,14.824,-18.286,-4.436,101.445,-4.366,-9.857,-5.061,-71.429,-8.767,19.687,-47.432,-146.655
0.7207362999997713,-2.577,-12.884,-140.648,-3.25,0.066,-21.967,277.38,34.162,0.973,-2.763,-11.695,-10.161,-17.087,-1.149,-0.001,-42.782,16.582,10.198,-23.39,-5.969,98.269,-6.923,-10.872,-7.617,-84.678,-17.98,13.008,-55.07,-152.656
0.7208031000000119,8.696,-1.088,-125.138,-3.759,10.312,-5.551,244.827,54.108,13.267,10.56,1.637,0.608,-7.336,15.246,10.757,-30.444,31.935,27.606,-3.387,9.406,112.003,4.867,5.533,8.784,-58.465,-6.179,20.167,-37.084,-146.868
0.734961299999668,22.007,5.573,-125.013,9.565,29.257,8.286,270.71,60.202,21.963,22.844,15.468,11.878,6.503,20.866,28.677,-18.118,42.662,38.849,7.887,18.618,121.625,19.719,13.724,12.362,-25.619,9.709,30.905,-28.337,-147.233
0.7350269999997181,16.35,-0.068,-128.474,15.703,21.543,-4.017,303.227,37.6,12.207,14.625,8.792,6.743,1.374,7.526,23.013,-21.686,33.397,30.101,-0.318,12.452,115.868,20.212,8.588,5.177,-37.377,7.137,30.362,-38.555,-146.573
0.7498935999997229,2.501,-5.703,-129.37,2.88,2.054,-19.895,279.358,21.681,-0.613,0.265,-4.536,-3.51,-10.411,-5.29,4.035,-30.374,22.093,18.8,-6.977,4.755,106.531,9.433,4.993,10.295,-69.615,-0.042,20.086,-40.054,-135.668
0.7499552999997832,6.597,2.5,-125.655,-3.783,9.737,-9.629,246.803,40.615,10.147,6.413,1.104,2.642,-1.691,0.863,10.178,-23.683,28.219,24.929,2.763,11.41,112.572,16.084,12.673,26.166,-59.299,12.766,24.164,-24.132,-128.873
0.7649051999997027,20.423,11.719,-118.869,13.127,27.658,11.386,255.265,67.214,31.141,25.874,16.472,12.885,13.68,18.793,26.05,-9.827,40.998,37.2,14.031,22.157,126.292,30.412,23.931,31.775,-26.452,25.048,38.484,-18.985,-132.842
0.7808460999999625,17.329,7.096,-115.164,24.384,19.946,12.399,287.798,64.585,29.573,28.41,17.992,11.335,10.592,23.385,20.901,-9.305,42.494,39.212,11.968,22.647,125.653,25.259,22.882,22.522,-17.716,15.802,35.884,-33.823,-134.246
0.7809139999999388,8.602,1.454,-118.123,15.138,10.704,1.116,298.268,50.176,17.248,17.623,11.314,5.176,0.336,12.091,12.683,-15.956,32.718,31.488,1.71,16.477,114.257,13.963,8.002,12.766,-49.974,4.515,24.065,-41.986,-132.575
0.795061099999657,9.106,-2.134,-128.763,6.926,20.427,-4.009,272.355,44.49,12.108,10.433,4.13,0.048,-3.251,0.808,14.719,-20.551,21.414,17.112,-8.538,7.239,105.946,7.801,-3.276,5.58,-78.613,-0.613,21.992,-40.407,-140.127
0.795131500000025,6.023,-7.767,-134.27,9.481,19.894,-5.029,262.861,41.372,8.509,10.935,1.053,-0.977,-2.735,-3.291,12.655,-21.042,18.831,9.41,-12.628,0.06,102.766,4.207,-0.712,0.452,-64.702,-5.223,22.482,-46.002,-147.672
0.8100181999998313,-2.18,-1.099,-121.84,18.181,11.165,1.124,265.16,49.015,17.722,20.145,9.761,7.221,3.415,4.909,13.155,-14.874,28.034,26.307,-1.857,7.744,107.274,12.912,11.584,8.136,-33.899,0.418,26.558,-42.882,-138.303
0.810085899999649,1.921,5.562,-114.034,22.261,15.765,6.758,246.964,56.651,23.852,22.175,13.337,9.263,3.924,16.687,16.728,-11.273,34.154,41.138,5.83,15.933,112.802,21.096,18.745,18.886,-44.624,5.541,31.655,-35.155,-128.43
0.8249779999996463,18.313,-6.227,-129.289,11.992,16.262,-2.47,214.441,45.836,8.459,8.832,1.541,1.569,-6.838,8.986,12.613,-16.384,26.947,28.801,-3.91,9.257,108.078,14.415,11.042,15.281,-76.854,-2.662,27.013,-43.316,-133.425
0.8250467999996545,25.979,-9.294,-136.844,7.37,15.221,0.606,194.759,50.401,10.5,15.484,7.175,6.178,-2.221,-1.781,14.137,-12.27,24.359,24.161,-2.881,9.76,108.483,16.45,9.494,15.266,-68.581,-0.098,25.961,-43.785,-140.464
0.841023199999654,17.756,3.523,-125.437,22.732,23.402,22.634,227.352,72.38,34.056,40.571,27.66,21.029,17.249,14.614,22.32,3.112,37.142,43.093,12.491,26.657,122.206,31.29,24.341,24.985,-35.724,13.735,37.718,-31.446,-131.102
0.8410979000000225,9.029,4.544,-120.701,28.857,19.28,20.563,259.912,56.938,29.411,37.457,25.07,20.496,18.769,31.506,19.224,5.158,41.716,48.173,14.015,27.142,122.596,31.259,26.366,22.398,-28.516,11.159,38.705,-39.099,-115.089
0.8550218000000314,16.192,0.441,-122.629,19.094,7.478,1.587,240.697,31.266,11.963,18.976,12.238,10.229,6.967,19.179,18.692,-6.63,29.379,35.317,5.804,13.795,109.666,23.543,13.532,15.203,-35.66,6.025,32.006,-45.72,-117.023
0.8550850999999966,21.299,4.026,-119.945,19.587,11.569,6.708,208.181,45.579,18.099,22.031,14.787,10.219,3.374,2.766,26.358,-9.697,21.665,28.621,4.262,12.245,110.069,23.519,13.519,18.262,-33.063,8.581,36.073,-28.256,-131.251
0.8700764000000163,13.593,8.121,-117.263,28.789,18.218,15.923,214.633,57.829,25.253,29.181,18.871,14.82,5.932,3.788,21.721,-0.978,26.766,29.617,3.745,14.794,116.619,24.008,18.116,17.731,-36.104,6.523,38.086,-22.08,-130.607
0.8701425999997809,17.678,9.137,-117.146,30.297,16.15,9.247,235.935,50.086,23.691,27.615,17.315,15.829,9.0,10.444,10.941,0.559,31.35,32.149,-0.357,11.705,114.965,18.861,12.462,13.615,-47.338,0.881,32.925,-31.28,-124.329
0.8849747999997817,30.468,2.468,-117.541,24.631,17.671,6.676,223.916,54.647,22.13,28.1,13.711,10.69,5.917,11.97,10.93,-9.175,25.683,29.043,-5.992,9.644,111.264,12.182,8.351,11.552,-69.833,-4.243,27.769,-37.396,-127.791
0.8999540999998317,14.556,-12.904,-123.059,10.775,9.969,1.034,240.598,46.395,7.763,16.289,2.939,-0.591,-6.384,5.811,3.234,-17.363,16.436,19.793,-15.208,0.925,105.005,1.412,2.708,-1.267,-84.62,-17.559,18.007,-55.802,-127.663
0.9039293999999245,-6.975,-16.989,-126.522,-0.507,-8.484,-10.75,262.899,18.684,-7.101,-0.121,-6.285,-5.201,-13.55,-2.392,-9.064,-16.833,15.395,21.31,-20.828,-7.272,98.752,-3.713,-7.029,-13.049,-60.969,-22.664,13.891,-69.578,-128.048
0.9039816999998038,10.45,-0.066,-117.174,13.326,-1.816,0.019,230.361,29.424,5.201,10.125,3.455,6.075,-3.291,4.783,5.802,-9.132,25.626,36.658,-6.975,9.129,109.924,11.148,3.224,-0.74,-33.243,-8.809,27.197,-47.479,-135.092
0.9171489999998812,39.129,18.377,-104.762,36.366,25.85,19.487,197.855,62.182,22.615,30.607,19.845,17.852,12.594,19.122,26.801,2.148,36.359,45.33,15.061,27.05,124.159,30.092,23.713,18.728,-44.481,7.593,39.465,-21.304,-126.76
0.9172106999999414,30.893,21.433,-104.145,38.891,27.362,14.344,230.445,54.948,19.518,28.015,21.875,17.322,14.119,13.468,19.089,5.22,35.81,41.699,11.972,21.388,119.936,28.013,22.665,22.296,-53.658,10.66,36.864,-21.283,-113.313
0.9301186999996389,9.857,12.19,-107.114,33.73,14.014,5.109,263.002,40.036,13.351,19.79,15.193,12.694,6.42,5.258,9.336,-0.933,30.139,37.559,-2.384,14.707,114.181,17.739,13.933,17.15,-35.674,5.014,34.265,-23.823,-113.2
0.9301851999998689,15.995,12.69,-101.372,36.77,24.246,13.813,230.464,59.976,21.534,27.967,18.251,15.242,11.024,19.085,22.647,-0.42,30.621,34.96,5.815,19.815,121.239,21.307,19.555,19.695,-37.175,6.546,37.305,-20.213,-106.939
0.945101099999647,29.299,20.362,-101.783,36.221,32.419,17.897,249.701,63.502,22.537,34.087,21.819,17.276,16.649,22.652,25.186,3.679,28.541,29.802,13.494,16.721,123.167,24.872,22.097,22.236,-60.704,12.174,37.268,-23.267,-105.295
0.9451775999996244,17.999,15.731,-105.779,30.549,14.968,9.682,282.239,38.848,12.269,27.393,15.65,11.111,8.435,3.161,8.254,0.089,20.828,27.21,1.697,12.606,118.946,22.285,16.951,15.554,-49.885,8.064,35.181,-25.805,-122.608
0.9609712999999829,12.858,15.203,-87.743,30.518,14.441,9.673,257.366,41.371,16.355,26.341,17.683,12.637,8.427,4.183,11.32,3.163,24.906,34.355,5.794,21.815,124.974,31.485,22.57,18.1,-19.096,9.08,42.831,-19.119,-115.826
0.9755794999996397,34.362,29.532,-74.335,34.586,41.066,21.446,224.833,63.359,26.585,33.487,28.936,22.358,17.127,21.085,32.313,11.869,34.102,42.518,22.182,29.99,135.096,41.699,33.306,36.013,-28.811,24.953,53.546,-5.78,-90.607
0.9756416000000172,34.84,27.965,-95.778,35.064,44.099,23.474,224.609,59.197,19.386,31.916,25.321,17.725,11.475,13.379,31.769,7.247,29.457,36.328,13.963,22.275,132.911,34.998,29.174,37.514,-50.811,26.465,47.857,0.373,-102.299
0.990172999999686,5.604,14.105,-109.514,32.467,25.612,15.766,257.172,43.256,11.682,27.274,15.05,7.974,4.803,4.656,17.905,0.579,24.817,29.119,1.141,12.519,120.995,25.229,17.874,23.644,-34.879,11.069,37.051,-7.824,-118.079
0.9902350999996088,-0.55,18.702,-93.011,36.533,26.099,15.75,268.185,47.311,19.355,33.906,19.646,14.626,12.996,15.41,21.473,4.677,28.891,34.725,6.776,14.044,114.214,23.667,14.782,22.596,-16.913,7.984,39.063,-18.575,-96.956
1.005251799999769,20.455,25.855,-81.647,45.206,34.782,22.907,245.888,65.195,28.045,41.045,24.749,21.271,18.106,16.932,31.185,7.234,30.911,39.814,11.892,21.202,117.686,28.254,19.891,26.672,-30.217,16.685,43.123,-17.531,-85.588
1.0053162999997767,25.046,22.756,-87.713,42.087,32.185,21.859,238.982,68.203,29.041,36.905,21.138,16.127,16.551,8.718,25.519,4.153,29.856,38.237,13.417,23.742,119.618,35.398,27.043,25.108,-48.629,21.279,41.543,-10.854,-103.946
1.0202211999999236,9.139,20.684,-101.458,26.676,27.543,8.005,271.531,44.057,16.717,25.598,17.019,15.086,9.874,4.611,19.346,3.124,26.24,35.637,13.404,21.157,115.912,37.412,25.991,26.62,-59.339,21.258,42.013,-13.405,-118.699
1.0242576999999073,8.105,16.052,-116.213,25.112,21.88,-0.712,274.333,30.18,3.892,20.961,14.44,15.583,-0.894,-3.591,22.4,0.047,18.529,27.917,7.243,17.55,111.185,32.763,19.305,23.007,-45.96,15.602,42.996,-23.125,-120.629
1.0366724000000431,25.003,13.475,-107.9,35.846,16.735,12.096,241.783,49.105,14.647,28.113,16.475,15.055,1.156,-6.661,24.427,-2.002,20.047,25.84,7.748,18.045,106.976,33.243,21.335,20.422,-20.811,13.537,40.904,-23.102,-113.849
1.0367354999998497,22.929,17.047,-92.423,33.248,18.255,20.281,242.054,57.253,27.44,33.72,20.557,17.602,10.376,2.567,20.816,1.074,24.638,31.962,12.863,17.514,100.721,33.21,26.437,29.111,-44.356,18.646,39.838,-16.931,-107.587
1.0502599999999802,0.877,9.346,-106.163,23.481,14.65,6.428,234.639,44.901,16.142,24.465,13.364,12.973,3.706,1.54,13.111,-2.001,14.879,26.294,2.092,11.349,92.936,22.93,18.214,27.033,-76.587,13.504,35.188,-24.086,-116.189
1.0503238999999667,3.438,-0.397,-123.475,23.97,9.513,5.397,202.129,51.516,11.003,19.317,7.715,7.325,-2.446,-6.658,9.512,-9.171,9.229,17.046,-6.62,6.727,88.232,17.272,11.023,14.711,-45.772,0.683,31.566,-34.821,-121.708
1.06523339999967,24.951,8.312,-109.007,24.458,20.262,19.224,234.715,58.637,20.725,29.032,18.978,16.027,9.852,-2.553,22.822,-1.99,19.978,26.251,5.682,13.38,94.291,23.915,18.697,18.282,-24.722,5.293,39.732,-30.175,-116.463
1.065297399999963,23.902,15.476,-99.164,22.385,34.074,17.668,267.268,42.184,18.656,34.638,29.205,23.696,17.527,3.085,34.07,9.283,24.569,36.471,12.849,22.076,101.882,30.039,24.313,25.948,-51.337,15.022,45.327,-21.948,-123.519
1.080278299999918,11.07,10.338,-116.483,29.534,30.453,11.503,234.725,35.994,13.001,28.968,19.442,17.524,9.313,1.032,23.277,2.614,16.348,29.262,4.127,16.931,96.144,25.398,18.141,19.262,-44.626,9.884,38.11,-23.975,-131.08
1.0842206999996051,14.645,4.692,-130.199,30.017,16.078,9.442,202.215,47.229,11.452,20.742,5.591,7.261,-0.431,-2.555,10.446,-9.684,9.159,19.499,-5.611,5.131,85.802,16.663,10.951,11.046,-26.138,2.189,30.387,-28.562,-119.166
1.0972708999997849,24.364,4.175,-123.921,17.692,5.816,2.26,234.801,46.669,7.854,15.598,4.56,4.179,-2.992,-7.163,9.411,-9.675,7.101,15.893,-6.63,5.638,86.741,18.183,12.989,14.109,-48.141,4.749,30.357,-29.558,-112.387
1.0973423000000366,23.828,11.855,-108.941,20.236,12.47,5.332,267.354,41.5,11.945,21.73,12.24,10.835,2.134,-7.668,9.402,-6.079,10.167,19.976,3.623,16.903,94.851,29.948,23.735,25.878,-52.704,12.429,36.474,-21.332,-120.984
1.1103558999998313,18.168,22.09,-102.172,30.974,26.802,10.962,265.549,40.946,16.543,25.295,13.765,13.898,4.181,-7.148,11.442,-7.098,13.231,25.591,9.254,17.911,98.342,32.992,26.273,34.049,-43.429,18.052,43.097,-9.015,-120.35
1.110423499999797,19.687,14.383,-112.316,20.697,18.579,-2.881,233.008,35.782,4.744,12.974,6.579,4.151,-3.507,-17.387,11.43,-9.14,9.632,18.393,-1.513,4.573,95.17,24.25,14.975,26.843,-63.366,12.398,40.493,-17.715,-112.545
1.124430299999858,24.791,0.536,-122.449,5.819,-1.932,-9.538,200.5,39.332,-0.896,6.301,2.474,1.585,-8.627,-18.907,2.71,-12.717,7.061,11.715,-6.123,1.495,92.001,21.152,11.374,17.594,-60.741,3.164,33.28,-36.141,-113.97
1.124495300000035,18.106,3.097,-119.253,3.252,2.168,-1.844,223.353,45.441,6.789,12.442,4.008,8.243,-7.081,-3.519,-2.416,-14.753,12.177,20.925,1.568,10.715,96.52,22.668,18.535,21.163,-33.528,5.723,33.759,-36.617,-117.442
1.139438700000028,6.817,4.119,-119.134,5.298,13.437,-9.527,255.918,29.001,0.635,8.331,-0.094,1.063,-8.099,-3.003,0.148,-14.226,9.603,22.953,-5.606,7.118,96.424,17.01,15.443,19.605,-36.568,4.18,29.627,-34.531,-117.324
1.1563057999997,6.298,-4.595,-123.625,8.366,2.665,-17.714,231.071,14.628,-9.612,-1.923,-7.779,-8.672,-13.726,-22.468,-3.438,-20.872,-2.19,6.024,-17.895,-8.259,87.106,8.796,4.669,6.777,-47.803,-9.657,18.326,-43.718,-127.453
1.1563747000000149,3.218,-7.151,-120.94,6.821,-7.072,-11.037,198.565,32.032,-7.041,0.128,-11.357,-4.565,-19.348,-32.179,-6.509,-29.56,-7.823,-3.204,-17.365,-12.861,86.506,6.225,4.664,4.209,-51.341,-13.233,18.308,-43.162,-144.232
1.1694712999997137,-2.421,-2.534,-118.258,1.691,0.108,-15.124,231.154,37.635,-8.059,-0.897,-12.37,-5.585,-23.427,-31.122,-5.99,-30.043,-7.303,1.923,-16.836,-7.213,94.104,8.268,10.295,12.914,-66.147,-4.511,23.925,-31.848,-146.649
1.1695366999997532,4.241,0.03,-120.189,4.251,2.669,-26.892,263.71,7.371,-13.174,-8.58,-12.358,-10.19,-23.404,-31.603,-13.156,-27.964,-9.857,-0.128,-18.868,-5.156,96.059,10.309,10.285,15.463,-67.105,-2.969,23.389,-28.23,-126.523
1.1846052999999301,9.36,-3.556,-120.069,3.734,-3.993,-23.791,277.279,-4.419,-11.623,-8.572,-11.833,-6.082,-23.892,-28.498,-16.729,-31.01,-11.896,-4.227,-18.337,-8.225,92.377,5.176,5.151,7.763,-56.792,-9.114,22.341,-37.423,-104.879
1.18468619999976,-0.895,-9.7,-119.949,-5.491,-0.403,-17.108,244.726,21.2,-11.612,-4.977,-13.358,-8.637,-26.942,-25.908,-10.053,-36.102,-11.372,-1.149,-24.978,-11.803,89.723,-0.977,-1.514,2.632,-69.03,-11.154,18.732,-51.218,-108.873
1.199443599999995,-6.53,-5.592,-116.242,1.175,11.38,-14.529,212.206,36.036,-9.039,-2.41,-10.271,-12.727,-19.743,-27.931,-5.432,-35.041,-7.775,3.463,-25.466,-9.23,94.244,1.073,-2.025,8.265,-75.109,-7.044,17.689,-50.655,-124.133
1.1995055999996111,0.137,6.197,-105.88,18.592,9.32,-6.83,244.782,33.439,1.729,3.74,-4.113,-2.98,-9.477,-25.342,-2.352,-26.809,-4.181,6.534,-15.194,-3.073,101.835,8.244,4.637,12.867,-52.492,0.135,26.893,-34.722,-120.935
1.215515299999879,4.747,4.142,-102.188,17.549,-0.936,-4.774,233.266,37.504,1.215,7.834,-3.597,0.609,-10.492,-24.292,0.724,-23.196,-5.201,7.039,-16.204,-3.07,101.733,7.724,3.608,2.096,-42.194,-2.427,28.403,-32.639,-121.839
1.2155821999999716,8.329,1.064,-107.721,11.383,8.799,-7.331,233.545,35.929,-4.422,8.339,-0.519,0.096,-10.482,-23.243,3.797,-20.099,-3.659,7.545,-19.774,-2.042,103.168,4.642,1.555,-3.029,-57.521,-7.547,22.227,-40.803,-141.185
1.2296071999999185,15.493,13.358,-110.175,18.544,28.77,0.874,266.099,27.184,7.366,14.99,10.24,11.367,-0.738,-10.924,13.015,-11.882,6.078,10.611,-8.483,7.182,115.36,11.81,9.751,12.855,-64.636,2.194,30.914,-30.004,-132.847
1.2296722999999474,10.354,17.955,-106.991,15.964,22.594,7.533,233.558,36.891,16.068,18.049,9.717,11.867,-0.225,-9.889,16.588,-12.382,4.023,9.576,-4.888,6.662,115.757,18.97,13.839,19.502,-45.103,11.926,37.031,-23.314,-104.024
1.2446047999997063,-3.488,6.154,-106.884,4.165,1.566,-0.159,201.049,46.588,3.756,9.834,-0.539,-0.952,-10.47,-25.248,4.788,-22.616,-8.276,3.931,-15.642,-4.615,102.321,13.828,8.19,8.724,-30.201,5.254,27.26,-36.61,-108.531
1.2446698999997352,-1.948,4.611,-109.339,8.26,3.102,-1.696,233.635,35.27,2.728,8.8,0.999,2.635,-9.948,-23.686,1.709,-21.569,-2.633,8.025,-14.089,-2.562,106.318,10.741,9.719,12.302,-54.249,5.761,27.232,-31.451,-119.181
1.259576399999787,11.374,14.853,-101.032,21.059,20.005,12.138,235.963,40.87,17.07,21.086,11.244,13.391,2.358,-9.318,10.417,-12.326,10.69,17.751,-3.829,9.224,120.044,19.952,14.32,24.073,-79.811,17.026,36.939,-15.025,-101.643
1.2596396999997523,14.949,17.399,-84.538,20.526,25.62,18.786,203.452,60.81,16.028,25.164,15.331,10.304,4.917,-12.382,10.919,-8.727,6.068,14.147,-6.387,9.215,119.411,21.469,9.183,18.413,-66.411,13.935,35.878,-27.306,-96.419
1.276601799999753,11.348,10.21,-91.113,12.308,15.861,6.984,236.036,46.404,6.79,15.405,10.705,7.219,-3.285,-12.882,9.371,-11.28,-0.085,5.936,-15.09,3.058,113.144,10.689,2.513,8.149,-50.975,4.187,31.743,-46.234,-111.692
1.27666999999974,5.701,4.052,-114.588,5.124,4.574,-1.732,268.588,19.718,7.296,10.779,3.522,7.725,-5.843,-3.135,7.312,-15.367,5.55,8.492,-16.612,0.493,109.957,5.555,1.486,6.603,-45.289,2.646,29.15,-45.675,-119.265
1.2896786999999676,1.084,1.486,-117.035,1.02,4.057,0.319,236.044,26.87,7.289,15.379,1.469,4.131,-2.251,-9.792,1.157,-16.889,6.569,11.557,-13.521,-0.532,107.798,6.574,1.485,-0.575,-32.436,-0.43,26.047,-45.117,-128.367
1.289745099999891,3.133,-1.589,-109.746,-1.543,5.59,-1.219,203.532,39.139,2.67,13.826,3.005,2.59,-5.323,-20.029,1.669,-16.36,1.44,6.935,-15.044,-1.556,109.227,5.543,3.02,-4.673,-47.26,-3.504,27.558,-50.707,-136.435
1.3046388999996452,9.277,-1.588,-112.71,-5.639,-1.588,-3.267,192.57,34.489,3.18,9.202,2.489,4.636,-9.928,-13.348,5.765,-18.393,2.975,5.903,-18.103,-0.53,111.679,7.074,6.091,3.016,-79.488,0.086,29.067,-46.046,-121.442
1.3196709999997438,17.977,7.636,-106.962,3.075,2.512,6.471,165.738,42.139,10.349,15.853,6.073,7.705,-2.746,-9.749,4.735,-14.788,6.558,10.508,-13.987,4.082,117.203,13.215,6.085,8.136,-66.089,6.233,33.137,-33.192,-111.074
1.3197309999995923,28.205,18.386,-96.096,18.442,20.441,16.198,198.36,51.831,17.511,25.058,15.289,12.821,5.966,-12.813,10.366,-6.064,7.064,10.498,-7.825,7.664,126.307,17.3,7.616,9.152,-49.629,12.375,43.862,-24.45,-116.086
1.319773400000031,21.517,17.343,-100.099,9.202,15.297,10.546,230.949,33.848,16.981,21.447,13.224,11.783,0.837,-11.776,9.331,-10.669,3.983,7.926,-11.916,3.045,123.107,15.233,10.17,14.779,-80.318,12.362,40.232,-31.598,-107.773
1.3366501000000426,4.589,7.08,-107.683,-9.763,-5.723,-0.735,198.443,21.007,8.767,12.204,1.428,3.062,-7.873,-14.325,-3.999,-20.904,-1.144,5.868,-20.101,-4.13,111.201,11.12,8.623,14.764,-80.237,6.202,27.384,-41.3,-101.518
1.3508755999996538,11.757,7.585,-108.088,-0.532,-1.106,2.34,165.969,35.842,4.66,14.241,3.988,2.547,-2.23,-13.799,0.616,-15.248,-0.118,4.838,-12.396,-0.54,114.676,15.719,11.176,11.675,-47.37,9.782,32.48,-32.549,-112.687
1.3509409999996933,31.725,22.435,-104.906,12.789,22.461,16.17,198.591,46.053,12.34,26.01,16.792,11.254,8.531,-2.002,17.009,-2.937,9.103,13.03,2.473,9.707,125.32,27.487,20.898,15.762,-34.515,20.019,41.156,-24.32,-108.988
1.36478599999964,20.935,23.437,-103.264,4.579,25.512,16.666,231.18,43.958,12.84,23.935,13.189,11.755,2.887,-3.025,11.869,-7.545,9.607,17.628,-4.189,8.16,122.633,23.361,17.291,13.185,-66.755,12.314,34.455,-34.542,-98.121
1.3648527999998805,-1.627,6.507,-110.333,-3.622,7.044,1.28,198.673,40.84,0.532,4.443,-3.731,0.472,-13.51,-20.952,-0.95,-21.882,-4.748,1.216,-24.165,-5.68,111.24,5.407,-0.657,1.389,-84.107,-4.604,28.273,-41.167,-109.806
1.3798156999996536,4.522,3.939,-114.321,-5.156,-2.185,-6.406,185.155,30.04,-4.592,0.852,-5.776,-2.602,-15.546,-25.542,1.1,-20.836,-9.354,-4.933,-20.555,-8.236,111.641,6.426,-0.656,2.924,-70.191,0.523,30.806,-34.466,-115.331
1.3798838999996406,17.838,19.304,-102.424,-5.151,7.039,1.285,217.757,22.326,7.196,17.758,7.55,9.696,1.376,-12.709,8.783,-6.47,7.05,16.077,1.495,7.654,120.751,26.912,21.886,19.827,-58.337,21.015,37.948,-27.259,-101.384
1.3947682999996687,13.209,23.384,-96.686,-0.022,12.667,9.481,235.982,31.013,15.386,22.863,14.714,17.883,10.084,-3.987,11.336,-3.902,13.703,21.184,2.518,13.794,119.605,33.033,28.012,26.98,-63.914,26.117,44.57,-25.183,-98.209
1.3989322999996148,8.585,14.651,-105.811,-0.022,8.556,8.959,203.471,36.105,8.71,15.156,8.04,10.693,1.877,-10.131,7.226,-12.608,-0.656,1.695,-14.903,1.485,112.313,19.167,11.078,16.707,-76.658,13.283,37.353,-29.256,-104.77
1.410688399999799,14.724,11.562,-106.217,-6.682,13.671,3.314,187.898,29.409,4.603,14.116,4.445,5.559,-2.223,-16.78,5.682,-10.546,-4.754,-0.868,-17.962,-2.103,114.762,11.463,4.919,7.468,-74.532,4.049,28.094,-34.35,-104.153
1.410756699999638,17.783,15.137,-95.353,-2.577,24.415,4.848,171.317,35.527,9.722,15.639,8.539,11.701,3.927,-12.153,12.849,-6.437,7.034,11.94,-7.698,7.633,118.746,16.063,12.086,11.047,-61.65,7.631,32.164,-30.729,-101.488
1.424880999999914,11.618,16.659,-94.233,3.061,20.805,8.429,168.071,40.614,8.175,13.061,8.531,12.714,2.898,-8.555,13.348,-10.529,11.126,12.953,-9.227,8.138,112.992,15.022,10.025,12.573,-56.978,8.135,33.669,-33.772,-92.677
1.4249464999998054,3.409,7.421,-105.409,-7.701,6.952,-4.387,200.691,21.106,-3.104,2.29,-2.236,2.455,-8.888,-15.718,-2.034,-18.203,4.967,7.817,-21.513,-4.678,105.707,4.249,-1.768,-0.247,-66.655,-3.144,24.926,-55.768,-87.461
1.4398880999997345,1.869,-2.833,-118.111,-18.451,-1.765,-15.141,177.949,11.351,-9.761,-9.495,-10.431,-4.207,-17.076,-16.215,-10.229,-24.845,3.425,10.371,-24.565,-11.334,106.113,-2.416,-4.84,-6.907,-91.691,-10.825,19.778,-64.934,-107.866
1.439950299999964,6.99,5.367,-117.993,-14.847,0.286,-1.293,145.496,30.295,-4.116,-0.777,-4.785,1.432,-12.448,-2.366,-3.559,-20.721,9.569,21.631,-15.319,-1.076,111.643,8.345,3.874,6.932,-103.895,-3.13,22.832,-48.987,-127.738
1.454877099999976,7.495,15.095,-102.506,-7.66,6.434,8.442,178.138,32.314,4.085,12.032,3.417,9.116,-2.19,6.857,3.105,-9.43,16.732,29.294,-8.644,7.634,113.58,19.608,10.018,14.098,-82.274,4.558,31.519,-41.254,-112.241
1.4587901999998394,3.389,5.859,-98.305,-13.287,-0.745,-5.911,210.747,9.74,1.007,4.335,0.852,4.496,-4.237,-5.445,3.101,-12.494,8.006,18.506,-14.271,-0.058,106.294,11.903,2.835,2.813,-66.31,-1.594,32.512,-51.459,-97.784
1.4706833000000188,5.435,-0.295,-112.039,-24.033,-12.015,-11.541,178.261,13.829,-6.166,-2.842,-4.272,-1.144,-12.429,-25.419,0.025,-21.703,-8.396,3.119,-22.453,-7.23,101.577,4.207,-2.291,-4.362,-63.682,-8.765,22.746,-54.993,-108.957
1.4707489999996142,12.602,12.001,-107.829,-14.787,3.366,5.377,145.807,40.455,3.574,13.555,2.904,7.054,-2.171,-21.295,0.537,-12.46,-2.752,7.726,-14.746,4.048,112.234,15.986,8.47,3.839,-41.589,1.49,27.334,-46.741,-99.627
1.4850362999995923,13.614,24.284,-81.593,9.306,20.781,20.228,178.449,42.976,19.964,27.886,16.222,18.318,15.762,2.804,7.709,1.385,17.231,23.6,3.712,18.388,120.319,29.802,21.269,23.303,-45.646,18.907,43.188,-35.424,-66.739
1.485101499999928,14.113,24.772,-79.975,11.346,10.515,18.671,203.886,28.076,17.383,24.272,19.791,19.836,16.771,9.462,14.873,0.871,18.238,27.675,10.368,19.907,118.149,30.797,23.297,36.087,-77.876,22.987,41.608,-29.241,-65.648
1.5000052999998843,17.173,16.038,-109.608,-8.133,3.844,5.333,171.407,22.413,5.582,14.002,11.575,12.132,5.484,-5.405,13.834,-7.327,6.949,16.377,-1.425,12.715,115.47,22.569,14.565,19.145,-69.089,10.156,33.369,-38.433,-97.858
1.5150082000000111,8.446,3.727,-122.819,-22.982,9.476,-5.431,166.625,19.829,-0.059,1.692,1.829,3.923,-3.743,-19.232,2.037,-16.541,-2.279,3.04,-17.818,1.943,109.719,6.153,1.743,-3.928,-43.404,-5.223,28.213,-56.325,-113.129
1.5150797999999668,-5.907,-6.011,-110.913,-31.156,-1.292,-9.012,173.118,11.1,-7.743,-9.068,-5.857,-3.253,-11.424,-25.36,-10.261,-23.697,-8.937,0.476,-26.509,-7.28,100.9,-6.661,-5.432,-1.363,-75.636,-15.977,17.426,-68.052,-101.745
1.53074689999994,1.784,-4.468,-108.753,-30.1,-6.414,-10.027,180.117,10.064,-12.346,-10.596,-9.437,-6.836,-14.999,-22.261,-5.127,-22.648,-5.854,7.647,-24.434,-7.273,102.848,-0.507,-1.84,3.762,-86.319,-14.936,16.384,-69.009,-92.422
1.5308148999997684,20.225,9.369,-112.23,-15.213,5.888,-4.894,199.405,20.813,-2.6,-3.413,-2.768,-3.243,-11.91,-18.14,4.099,-18.527,0.299,10.714,-16.212,0.931,109.918,9.74,4.822,-1.877,-53.445,-2.114,30.712,-57.157,-97.453
1.5450885000000198,13.032,14.995,-104.433,-7.513,-0.266,1.771,166.93,26.939,0.989,-2.385,-1.228,-2.215,-11.386,-25.807,-7.688,-23.12,-9.435,-2.617,-17.733,-0.606,109.295,8.193,3.792,1.711,-63.638,1.475,30.169,-51.464,-107.089
1.5451546999997845,-5.424,-4.488,-109.452,-21.85,-17.172,-8.99,134.488,15.129,-13.869,-16.727,-16.084,-12.459,-24.182,-34.49,-21.0,-33.855,-25.307,-20.033,-33.084,-17.0,103.551,-2.061,-7.994,1.197,-95.85,-13.384,15.282,-74.979,-106.982
1.5601521999997203,1.242,-15.754,-125.224,-33.611,-7.933,-20.252,167.141,5.38,-18.466,-22.346,-22.216,-16.545,-30.306,-33.943,-11.758,-36.383,-21.696,-13.865,-37.662,-20.569,104.984,-8.207,-12.597,-12.125,-74.749,-21.567,13.218,-92.834,-98.166
1.5602214999998978,19.683,5.266,-112.804,-20.77,11.03,-3.837,178.757,23.306,1.02,-1.319,-4.775,-2.184,-11.832,-32.885,3.623,-25.075,-7.842,2.542,-20.206,-3.13,119.224,2.56,0.735,-6.477,-41.887,-8.738,24.475,-68.151,-88.846
1.5751397999997607,16.59,21.655,-92.711,-5.892,14.605,12.048,160.648,39.164,11.778,10.466,5.476,2.941,-2.087,-29.778,5.157,-18.903,-5.784,0.491,-13.013,-0.053,126.789,12.804,6.37,10.948,-67.972,2.029,30.598,-47.59,-82.097
1.575206999999864,-1.87,7.289,-102.352,-21.256,8.443,-4.358,176.368,20.682,-7.702,-6.963,-9.899,-12.431,-22.065,-27.699,-5.095,-30.667,-13.463,-7.194,-30.419,-15.934,113.342,-0.529,-7.469,2.228,-100.18,-9.244,19.297,-67.523,-89.7
1.5920955999999933,-3.917,-6.551,-114.033,-40.702,-3.861,-21.26,159.798,3.755,-22.551,-16.178,-20.135,-18.054,-26.653,-30.233,-11.75,-38.321,-13.962,-0.015,-36.536,-15.918,110.155,-11.287,-11.047,-11.607,-97.006,-21.017,8.519,-81.288,-106.516
1.592192299999624,6.845,1.14,-101.111,-28.366,-7.955,-8.431,127.363,17.584,-8.184,-1.817,-7.819,-6.765,-7.159,-23.03,-5.078,-29.061,-3.19,6.645,-20.106,-4.119,126.439,2.556,-0.79,-1.349,-64.121,-11.775,18.757,-68.911,-97.7
1.6051980999995976,3.252,14.459,-93.325,-9.895,7.422,4.385,119.551,26.788,7.194,6.382,3.459,-2.66,-3.053,-13.786,2.1,-21.347,2.961,6.638,-13.426,-2.066,130.411,8.702,2.285,5.312,-31.269,-0.492,29.497,-61.157,-71.475
1.605265899999722,-2.386,15.981,-105.015,-18.594,17.148,-1.767,137.875,10.879,-2.035,1.252,-1.667,-7.268,-10.223,-18.383,-2.513,-24.912,-2.165,10.218,-20.585,-2.576,127.207,-0.529,0.745,-3.402,-37.386,-7.152,24.344,-63.658,-71.404
1.6202457999997932,8.375,3.158,-112.082,-34.457,1.762,-7.913,117.244,1.134,-13.304,-5.409,-10.375,-10.335,-11.749,-25.537,-7.634,-30.01,-7.286,5.085,-23.638,-5.648,129.129,-2.577,-1.817,-3.399,-69.624,-15.342,17.147,-68.205,-88.238
1.620307799999864,6.829,-7.604,-107.359,-34.935,-12.072,-6.88,84.852,10.355,-9.704,-10.014,-12.414,-12.886,-17.885,-33.708,-12.237,-35.103,-11.889,-7.728,-26.688,-13.327,126.438,-3.087,-11.549,-2.371,-90.559,-16.863,14.056,-75.821,-88.662
1.6352515999997195,-13.67,-2.985,-103.666,-23.629,-3.863,-6.361,80.668,15.468,-7.133,-8.98,-9.84,-11.848,-19.917,-41.359,-15.811,-33.531,-17.0,-8.233,-29.223,-12.801,127.336,-6.67,-14.099,-10.565,-69.976,-20.432,12.505,-75.233,-81.914
1.635318599999664,-10.582,8.801,-103.562,-11.31,10.998,-3.793,113.375,8.792,-9.688,-2.311,-4.195,-6.714,-10.675,-30.047,-1.45,-25.301,-13.397,0.485,-19.46,-4.079,139.504,3.07,-1.789,-3.383,-70.418,-15.289,20.69,-62.863,-79.783
1.6520304999999098,9.921,13.403,-99.36,-10.274,13.036,2.358,119.922,7.759,-5.067,-0.259,-1.117,-5.17,-7.078,-16.697,13.92,-23.739,-4.162,5.095,-8.17,0.024,142.438,12.801,6.409,11.478,-66.249,-6.564,28.354,-59.726,-78.678
1.6653126999999586,4.275,8.266,-98.748,-15.899,1.752,-0.205,138.245,5.702,-4.038,-3.333,-4.702,-7.214,-11.682,-26.414,-0.438,-29.35,-4.158,7.652,-12.772,-2.538,139.222,5.104,-0.769,0.708,-33.395,-16.292,23.202,-71.449,-81.161
1.665378299999702,-13.66,-1.988,-107.871,-20.494,-10.545,-10.964,170.895,-11.21,-14.28,-12.039,-11.869,-10.793,-18.843,-34.072,-17.856,-33.932,-16.449,2.521,-27.616,-12.781,138.571,-6.685,-13.064,-15.687,-41.047,-29.083,16.519,-82.649,-79.543
1.6654199999998127,-9.035,-5.572,-110.837,-24.06,-10.535,-14.027,138.448,-14.273,-18.364,-16.637,-11.345,-12.319,-22.922,-26.866,-6.055,-36.972,-24.118,-7.728,-31.175,-18.404,139.457,-5.141,-12.539,-5.425,-73.281,-21.369,17.527,-81.541,-68.705
1.6802800999998908,7.367,4.167,-100.993,-16.863,0.234,-1.717,106.035,10.845,-7.587,-2.788,1.986,-2.573,-8.042,-21.716,13.418,-29.762,-11.798,-2.085,-15.262,-4.041,148.539,9.209,1.306,11.487,-68.085,-8.54,24.682,-72.238,-65.562
1.6803471999996873,5.311,12.872,-101.916,-1.99,8.943,6.481,138.716,15.957,2.154,9.51,10.694,6.139,6.822,-21.182,15.454,-15.388,-1.54,8.163,-6.538,6.209,156.075,15.347,4.379,3.791,-35.229,-9.556,30.805,-67.043,-75.743
1.6942921999998362,-5.965,8.248,-115.647,-5.061,12.008,0.327,171.365,-8.65,-4.508,1.303,1.461,-3.601,-6.504,-29.358,4.168,-19.983,-15.371,-3.628,-21.388,-6.605,149.259,3.037,-8.433,-11.07,-47.489,-20.818,26.676,-71.587,-85.401
1.6943521999996847,9.41,8.752,-111.432,-12.741,9.947,-0.185,138.918,-11.203,-14.749,-2.796,-3.663,-8.208,-16.232,-38.55,1.602,-29.697,-22.016,-12.333,-26.49,-10.697,150.646,-1.065,-8.937,-4.399,-79.717,-21.821,24.6,-72.027,-77.631
1.7101822999998149,31.942,22.576,-88.267,1.104,7.376,11.598,106.504,8.276,-9.099,7.453,9.148,3.071,-0.334,-26.728,12.871,-19.934,-5.087,1.511,-6.483,5.196,166.89,14.818,5.929,10.975,-54.534,-6.43,35.334,-62.734,-52.963
1.724738499999603,16.029,29.213,-84.08,9.812,8.905,14.148,139.185,13.903,1.156,9.494,15.287,6.654,5.302,-14.918,15.932,-12.741,2.09,10.731,1.72,9.289,170.821,23.512,11.558,11.988,-25.79,1.261,41.958,-57.548,-36.516
1.724804999999833,-3.967,25.598,-97.316,1.093,8.896,9.523,149.292,11.328,0.13,5.386,9.124,1.012,-3.413,-26.174,8.744,-20.413,-8.158,3.036,-5.454,3.644,162.966,19.902,8.473,12.489,-55.478,-6.425,37.818,-61.077,-43.652
1.7393531999996412,10.893,24.548,-98.756,-3.006,2.227,9.001,181.931,7.218,-3.456,4.869,6.553,1.011,-3.922,-31.783,9.76,-21.93,-11.736,-4.139,-4.424,5.69,165.364,20.395,8.976,19.648,-76.94,-5.394,35.731,-58.454,-58.465
1.739415999999892,20.104,22.986,-96.096,-9.151,-1.873,8.48,189.433,0.038,-1.916,4.864,7.571,1.01,-1.868,-23.555,8.726,-18.834,-11.725,-5.672,-6.469,5.172,171.347,19.35,7.431,15.018,-46.637,-0.778,36.72,-53.785,-63.017
1.7543115999997099,8.301,18.865,-98.049,-13.753,-0.335,11.545,156.969,1.575,-0.377,7.42,8.588,-0.528,-2.379,-26.093,-0.505,-21.889,-15.299,-5.667,-14.659,0.044,170.663,12.67,1.275,5.269,-32.245,-8.974,32.585,-61.416,-56.807
1.7543697999999495,14.953,17.821,-91.803,2.143,4.789,19.218,176.792,9.771,4.234,12.024,11.141,1.009,1.722,-31.19,2.57,-24.429,-11.697,-6.173,-13.62,0.556,169.468,11.121,-1.287,7.825,-53.218,-12.551,30.503,-70.576,-46.504
1.7693048999999519,29.282,19.341,-86.076,9.313,7.858,17.662,209.403,12.322,6.792,10.475,10.618,-2.066,0.696,-28.085,10.764,-24.916,-9.124,-7.704,-11.045,2.092,171.86,14.184,2.3,11.916,-60.337,-5.366,35.595,-65.382,-44.92
1.7732670999998845,14.908,16.76,-95.724,-8.115,-1.372,7.398,176.918,9.236,-1.924,3.292,4.459,-8.724,-8.014,-29.081,7.679,-28.478,-13.214,-9.745,-16.669,-2.521,168.102,13.657,4.859,12.416,-55.154,-6.386,35.047,-58.144,-60.757
1.7853084999997009,-4.574,8.034,-108.436,-17.328,-12.641,-0.294,196.208,1.542,-9.607,-2.859,-1.693,-13.326,-11.592,-37.249,-1.55,-32.548,-16.787,-15.371,-21.263,-10.715,161.274,5.447,-2.318,5.744,-54.074,-16.113,24.766,-67.308,-75.553
1.7853745999996136,1.578,3.415,-102.179,-9.626,1.716,3.293,228.288,1.541,-3.962,-2.344,-0.154,-10.751,-9.532,-37.724,-2.061,-32.003,-18.307,-21.503,-20.73,-11.729,165.723,0.83,-6.926,-3.996,-46.335,-20.708,22.692,-77.999,-63.694
1.7994510999997146,20.02,16.219,-77.487,1.142,24.256,20.196,195.784,24.081,5.263,7.905,9.58,-2.031,-3.887,-25.391,10.749,-23.262,-13.165,-13.797,-12.512,-0.447,178.365,11.588,4.864,7.791,-51.412,-12.49,33.94,-69.724,-38.015
1.7995185999998284,21.536,32.084,-67.675,12.411,21.158,28.885,177.145,34.815,6.795,14.045,13.156,2.07,-0.809,-16.144,19.448,-14.529,-6.492,-4.562,-6.352,4.165,181.773,19.773,12.543,27.764,-64.68,-0.182,41.591,-53.26,-38.489
1.8145457999999053,8.707,28.466,-88.1,14.96,10.378,17.073,209.756,12.239,0.641,6.858,7.508,-3.055,-5.419,-27.399,9.182,-20.662,-12.121,-10.705,-15.055,-4.549,176.98,13.094,0.748,19.539,-48.734,-2.231,38.988,-52.695,-55.869
1.8146137999997336,9.211,17.679,-98.77,4.187,12.93,10.908,213.644,-4.167,-4.483,2.753,7.5,-3.565,-7.463,-37.105,4.562,-27.814,-19.281,-19.404,-23.236,-4.032,176.803,11.031,-4.376,5.175,-30.242,-12.475,35.363,-62.376,-52.227
1.8294707999998536,18.423,16.125,-84.327,-8.113,7.794,16.02,181.155,3.522,-4.479,6.336,10.054,-1.512,-4.381,-29.896,10.705,-22.663,-15.676,-18.872,-17.578,1.608,175.09,14.094,1.776,7.731,-44.557,-12.975,32.766,-68.974,-45.003
1.8336193999998613,11.745,15.596,-84.755,-13.228,-5.534,11.906,185.585,9.153,-6.011,3.768,2.36,-7.146,-8.476,-31.403,0.448,-21.103,-19.246,-21.927,-19.609,-7.103,167.23,3.321,-2.836,1.576,-54.758,-16.036,28.635,-76.589,-58.79
1.8466270999997505,0.975,8.408,-102.601,-11.677,-2.455,2.672,192.572,4.534,-9.591,-4.945,-3.278,-11.237,-14.102,-40.593,-8.774,-26.718,-25.887,-23.442,-28.299,-12.219,163.477,-2.83,-10.006,-7.135,-53.167,-24.217,25.532,-86.759,-67.953
1.8466957999999067,7.121,3.789,-107.109,-14.227,5.745,1.645,211.847,0.943,-7.02,-4.427,0.824,-7.127,-5.891,-32.868,3.531,-24.129,-18.689,-18.808,-23.148,-5.035,168.436,6.907,-2.311,2.606,-70.532,-19.582,26.531,-86.672,-59.176
1.8596135999996477,12.237,3.785,-102.391,-25.484,1.64,0.619,228.541,-2.644,-3.939,2.237,3.384,-3.022,-1.275,-25.15,7.113,-17.958,-13.547,-17.764,-15.44,-2.468,170.829,9.462,3.839,10.288,-84.806,-10.341,28.554,-82.999,-59.629
1.859678299999814,3.516,5.319,-102.801,-19.311,4.2,4.204,196.037,-0.08,-2.398,7.87,5.43,1.08,-4.86,-28.711,4.032,-15.89,-18.144,-20.308,-17.986,-2.978,169.122,5.866,0.249,8.228,-75.5,-11.867,26.476,-80.867,-70.328
1.8745986999997513,-1.099,11.973,-101.161,4.787,15.467,17.52,171.763,13.752,6.826,11.449,11.573,3.128,0.781,-27.146,15.811,-11.264,-16.077,-20.8,-17.456,3.173,169.465,9.959,0.248,11.294,-62.104,-11.855,27.474,-70.54,-66.159
1.8895822999998018,6.075,16.572,-101.06,2.221,10.328,16.99,188.497,15.788,9.893,7.339,6.438,-5.072,2.829,-27.631,17.332,-10.228,-11.962,-21.291,-15.389,1.633,168.783,9.436,1.273,12.82,-48.722,-8.257,30.008,-65.346,-56.871
1.8896445999998832,5.557,8.358,-105.57,-21.86,-5.051,-1.47,207.776,-4.72,-7.023,-7.013,-6.889,-13.776,-15.105,-36.312,0.921,-18.415,-18.61,-23.832,-21.521,-7.078,162.979,2.767,-4.876,5.635,-43.55,-14.397,24.343,-76.552,-62.962
1.9065883999996913,-0.597,0.153,-104.44,-24.912,-4.534,-6.592,211.155,-13.425,-17.263,-11.617,-5.857,-11.201,-22.774,-33.714,0.408,-15.322,-23.203,-28.419,-23.549,-5.534,162.304,6.863,-3.847,0.506,-63.487,-17.969,22.782,-83.135,-71.096
1.9066562999996677,5.552,9.887,-99.212,-14.641,11.864,11.346,186.353,9.13,-1.364,6.325,9.518,0.081,-1.747,-22.41,13.728,0.062,-17.544,-22.755,-13.279,5.23,170.85,17.614,7.94,8.19,-69.059,-7.705,35.054,-75.367,-60.779
1.9197073999998793,18.354,25.246,-97.064,-8.991,23.123,30.29,189.24,28.076,18.618,26.299,22.829,8.79,17.21,-11.117,18.325,8.259,-7.28,-5.314,-1.995,11.372,176.827,24.257,12.543,21.502,-36.202,3.062,43.216,-66.583,-42.787
1.919773599999644,14.749,22.659,-99.016,-2.834,19.002,27.698,221.839,15.753,17.574,25.76,21.269,7.757,15.656,-10.593,13.696,3.128,-6.248,-4.796,-4.555,6.238,169.99,19.109,5.871,16.869,-14.649,-1.04,35.488,-63.955,-45.306
1.9346797999996852,-4.733,0.095,-110.188,-14.614,2.077,2.567,224.178,-10.39,-0.886,5.242,2.292,-6.083,-1.778,-32.1,-0.15,-8.658,-24.685,-29.894,-21.456,-9.138,152.914,-0.377,-6.431,-4.664,-46.909,-17.433,20.596,-78.235,-67.802
1.9347395999998298,-11.389,-16.811,-118.274,-41.24,-17.393,-15.366,191.679,-17.552,-16.767,-16.28,-14.104,-18.373,-19.707,-44.875,-13.983,-17.871,-37.98,-39.598,-34.755,-19.375,143.028,-11.648,-16.67,-12.344,-79.138,-29.711,14.428,-96.6,-80.03
1.9496775999996316,1.943,-2.45,-105.861,-34.539,-16.351,-1.006,174.581,2.957,-9.066,-11.141,-2.307,-10.67,-14.052,-24.85,-4.747,-7.607,-20.524,-18.554,-21.913,-5.523,155.692,4.758,-8.457,3.037,-52.931,-18.922,26.709,-86.257,-64.581
1.9497369999999137,14.749,21.119,-96.021,-3.766,6.207,21.024,207.194,20.373,8.874,12.437,18.7,3.173,2.356,-11.506,15.75,9.819,-6.159,-6.752,-1.911,9.852,172.443,23.708,11.019,17.891,-20.091,1.076,38.977,-62.605,-47.097
1.966568599999846,14.222,16.487,-109.245,-3.762,14.397,17.929,201.864,9.594,4.767,11.4,12.534,-1.441,-3.282,-27.888,13.685,3.661,-21.01,-24.676,-8.056,0.108,168.172,16.0,8.447,13.775,-23.657,-0.974,31.766,-63.567,-56.784
1.9666368999996848,13.695,7.249,-113.746,-21.689,1.575,9.714,169.387,1.9,-5.484,-1.419,-1.823,-12.198,-11.475,-38.106,-2.21,-8.126,-34.309,-39.509,-19.831,-8.601,158.782,5.738,-2.32,1.466,-32.854,-11.731,26.099,-72.213,-74.146
1.9801693999997951,16.243,16.976,-97.239,-20.13,0.549,19.438,182.537,15.73,8.866,10.365,7.4,-5.525,2.369,-30.383,-1.183,2.129,-25.565,-29.223,-11.615,2.678,165.283,16.491,8.441,7.1,-26.162,-3.523,33.245,-63.944,-67.412
1.9802323999997498,14.177,18.496,-87.408,-12.425,5.159,20.444,215.142,14.69,16.03,19.064,13.54,0.628,8.514,-20.107,5.99,10.836,-16.318,-15.361,-4.431,7.798,168.704,22.109,13.555,19.9,-18.451,3.653,35.261,-60.806,-47.877
1.9947869999996328,12.626,13.354,-87.32,-9.851,1.056,9.152,247.715,-2.231,-0.893,6.237,3.793,-6.033,-0.204,-18.55,2.91,2.628,-15.277,-16.371,-11.086,1.643,163.925,11.329,1.246,11.171,-9.211,-2.498,33.689,-66.893,-40.144
1.9948531999998522,19.786,25.124,-87.233,-2.157,12.838,15.803,215.192,5.968,-1.404,8.28,9.424,-3.978,0.309,-25.704,10.592,6.212,-13.725,-16.867,-8.001,6.764,169.908,15.928,5.344,8.086,-11.251,3.652,41.34,-60.678,-44.715
2.0097900999999183,24.889,33.296,-94.83,1.431,31.268,30.644,182.701,26.455,13.454,20.567,23.76,6.273,6.968,-27.215,26.463,18.501,-10.125,-10.702,2.765,15.979,177.423,31.794,19.171,27.546,-34.806,16.968,44.372,-47.297,-47.744
2.024804799999856,17.692,25.578,-102.933,-6.255,22.528,24.466,182.006,20.281,5.244,13.374,19.125,1.656,3.888,-18.991,18.752,14.384,-7.041,-10.691,0.713,13.402,170.073,27.151,13.516,27.006,-40.919,11.828,37.668,-47.762,-47.696
2.0289249999996173,3.33,19.404,-97.194,-18.544,7.648,8.048,214.612,-5.355,-9.106,3.115,7.835,-9.105,-1.752,-22.558,2.339,6.173,-9.083,-15.804,-7.997,6.216,160.682,14.829,3.769,9.56,-21.922,1.058,30.97,-55.399,-53.796
2.0289765999996234,-4.358,16.824,-89.412,-30.821,9.69,-0.157,247.185,-20.719,-7.048,2.087,4.241,-8.071,-3.799,-31.757,7.46,6.679,-12.148,-18.35,-8.501,3.648,158.984,14.814,5.814,14.162,-23.437,1.057,29.402,-58.418,-63.476
2.040771599999971,2.306,16.807,-90.348,-27.716,11.217,1.892,226.958,-7.891,-0.381,3.11,7.311,-4.989,0.303,-25.577,15.649,7.697,-8.037,-17.819,-4.394,7.743,161.899,19.41,11.444,24.906,-31.099,5.154,33.471,-57.335,-55.728
2.0408355999998093,14.599,22.425,-89.233,-12.831,14.28,15.21,194.455,16.196,2.181,10.279,14.988,-3.959,5.426,-19.916,12.048,11.275,-6.492,-14.215,-4.902,12.346,167.373,21.44,12.457,19.758,-6.989,5.662,39.073,-55.74,-39.279
2.054873399999906,16.634,21.891,-91.193,-13.843,20.925,17.757,212.704,13.618,-0.382,9.756,13.948,-2.931,0.81,-32.192,10.499,9.727,-13.658,-13.688,-11.045,7.211,162.594,16.295,4.247,8.98,5.826,0.02,35.96,-61.32,-50.51
2.069898799999919,10.47,14.696,-102.885,-21.002,16.294,4.931,245.279,-4.839,-2.944,0.525,6.762,-6.002,-4.314,-35.746,10.488,1.52,-14.669,-19.31,-14.62,1.056,148.6,8.594,-3.954,1.286,-22.357,-6.127,31.826,-68.431,-70.952
2.0699773999999707,7.898,19.805,-98.683,-6.636,10.13,9.025,217.881,3.875,4.232,8.209,13.928,-5.996,4.399,-15.218,10.99,7.666,-6.97,-17.242,-8.458,8.739,148.963,14.733,3.222,7.432,-40.265,0.027,35.893,-64.264,-61.147
2.084909599999719,7.89,25.42,-77.068,5.666,14.218,23.36,185.388,20.778,8.326,17.935,19.037,-0.867,9.518,-4.444,19.176,17.393,-5.426,-10.564,-1.789,13.341,155.474,22.916,7.318,21.77,-29.467,7.199,38.418,-56.515,-52.377
2.0898895999998786,7.882,17.71,-78.527,-10.221,11.642,13.603,217.991,5.388,-2.441,5.621,7.747,-3.427,-0.738,-17.76,17.107,8.154,-11.056,-12.603,-5.374,5.643,152.245,14.183,-0.887,17.137,-21.753,-0.493,33.257,-58.508,-66.669
2.1017016999999214,9.923,13.594,-98.429,-21.994,5.483,2.831,250.56,-9.987,-6.025,-1.556,5.178,-7.522,-6.372,-27.476,2.746,3.022,-14.631,-14.64,-10.491,3.076,151.58,8.022,0.139,8.923,-14.046,-7.152,30.662,-62.036,-64.041
2.101766299999781,4.79,15.63,-103.966,-16.337,6.502,10.513,218.034,3.343,1.154,3.056,8.759,-9.052,-4.829,-31.034,-0.843,5.069,-18.203,-17.699,-13.555,1.024,152.453,7.501,1.163,11.476,-11.471,-5.608,27.045,-60.949,-52.194
2.115013899999667,-3.924,7.417,-111.034,-19.394,0.348,6.404,185.541,10.0,-7.044,-6.681,-4.058,-18.264,-13.533,-44.836,-1.355,-7.744,-28.943,-37.149,-25.837,-13.322,143.079,-5.314,-13.182,0.193,-40.148,-15.337,17.284,-66.523,-74.171
2.115080300000045,-2.383,1.262,-121.682,-26.547,-6.825,1.787,168.961,7.94,-12.16,-8.724,-5.59,-20.807,-16.081,-47.865,-6.476,-13.372,-36.086,-44.284,-34.008,-17.919,141.399,-10.944,-16.243,-7.491,-62.65,-24.031,14.705,-75.678,-82.293
2.129987599999822,1.205,13.044,-100.043,-14.737,-0.67,20.74,159.571,26.888,5.27,12.802,14.395,-6.954,0.328,-28.349,1.727,0.986,-21.706,-20.674,-20.654,-0.995,153.553,4.948,-2.907,11.984,-41.583,-10.174,25.449,-75.091,-49.423
2.130066199999874,0.692,19.179,-77.914,-10.112,-2.207,24.306,192.199,25.324,7.314,16.888,15.405,-4.386,5.451,-20.124,8.898,3.034,-9.901,-10.407,-10.899,4.129,154.937,9.554,-1.879,17.607,-29.246,2.644,30.547,-70.405,-34.005
2.145047799999702,5.814,6.864,-99.353,-27.008,-15.012,-1.846,224.795,-6.977,-17.284,-5.158,-1.004,-18.726,-12.997,-31.887,-5.968,-9.264,-23.211,-29.352,-23.696,-9.708,146.585,-2.751,-11.099,2.22,-46.635,-8.117,23.856,-72.896,-66.246
2.148994599999696,10.419,0.709,-118.721,-34.666,-9.362,-8.504,200.491,-20.802,-22.39,-13.862,-3.564,-23.318,-21.694,-40.052,-11.598,-13.353,-29.848,-35.47,-28.795,-12.259,146.951,-6.334,-11.6,-2.393,-45.564,-17.331,21.783,-74.36,-83.086
2.161870999999792,-0.862,9.418,-99.647,-28.483,10.628,9.435,168.015,12.007,-5.973,-2.578,4.636,-15.61,-11.426,-40.524,5.32,-8.217,-18.547,-23.139,-17.496,-1.489,155.513,1.357,-4.928,-1.366,-28.1,-9.117,26.372,-63.015,-70.708
2.1619378000000324,-8.546,10.433,-90.326,-27.942,9.592,10.962,135.572,26.851,-3.406,2.035,6.168,-13.033,-8.34,-39.971,6.339,-5.135,-21.09,-22.604,-13.892,-0.975,155.87,5.454,-1.337,0.685,-24.998,-4.497,28.395,-56.804,-68.075
2.175094100000024,0.172,-2.897,-111.752,-36.111,-14.496,-3.906,142.609,6.332,-13.136,-9.75,-2.547,-19.68,-17.554,-37.882,-10.061,-11.79,-31.827,-32.827,-20.538,-11.22,145.468,0.838,-5.947,4.27,-31.633,-12.177,24.268,-74.678,-77.229
2.175160799999958,3.246,-13.141,-124.961,-45.809,-27.801,-9.537,175.254,-8.019,-17.222,-18.961,-9.717,-23.759,-19.073,-34.77,-12.1,-17.925,-27.185,-32.282,-23.591,-11.721,141.224,-5.823,-13.113,-4.443,-42.872,-18.312,18.608,-90.997,-86.885
2.1900464999998803,-1.881,-6.98,-117.151,-41.153,-12.916,-2.355,197.108,-6.986,-14.131,-8.696,-1.51,-18.1,-13.419,-31.149,-1.329,-8.174,-19.985,-25.59,-18.957,-4.025,151.329,-1.206,-10.026,-4.951,-44.366,-12.146,21.151,-78.098,-92.946
2.190110199999708,3.244,0.712,-112.423,-22.668,1.953,5.332,164.635,0.706,-8.993,1.046,6.688,-12.446,-10.844,-30.094,2.77,-0.481,-23.551,-26.077,-15.352,-2.996,156.3,4.942,-3.869,7.349,-27.415,-7.011,29.327,-65.725,-92.853
2.205037899999752,12.975,-7.486,-116.409,-29.306,-6.246,0.203,148.589,3.779,-13.595,-10.738,-2.54,-19.094,-15.443,-39.285,0.718,-10.727,-30.188,-33.223,-19.435,-9.141,151.021,-1.21,-5.402,-1.367,-23.289,-13.152,27.761,-81.541,-87.125
2.209132899999986,8.351,-14.651,-109.633,-54.379,-13.412,-6.457,161.248,3.263,-19.217,-17.387,-6.124,-23.685,-23.113,-45.394,-3.893,-14.814,-30.158,-36.776,-22.49,-9.644,153.944,-4.283,-5.396,-10.075,-37.611,-15.188,20.561,-88.119,-79.866
2.2211340999997446,-4.977,-8.488,-100.302,-46.64,-8.275,1.747,128.812,12.481,-13.05,-8.661,0.542,-19.563,-25.139,-43.299,-10.549,-9.164,-23.98,-28.542,-18.369,-6.048,158.401,1.357,-4.366,4.28,-40.135,-10.562,22.077,-73.686,-83.884
2.2212007999996786,-5.484,-7.967,-117.107,-29.688,-13.902,-1.329,161.471,6.321,-16.623,-12.238,-7.655,-24.667,-22.04,-44.28,-17.711,-14.79,-24.468,-28.001,-23.986,-11.678,147.484,-5.817,-12.559,-1.36,-39.07,-17.211,17.957,-79.248,-103.78
2.235173300000042,3.743,-19.23,-132.872,-47.076,-22.085,-21.82,194.097,-25.961,-31.976,-24.009,-17.893,-29.765,-24.067,-41.674,-19.23,-22.972,-30.591,-40.781,-34.208,-19.863,138.627,-13.496,-18.182,-19.289,-51.326,-26.416,8.717,-96.075,-100.603
2.2352381999999125,0.153,-18.186,-112.759,-53.689,-13.354,-17.7,179.558,-28.497,-24.259,-14.763,-5.58,-18.977,-20.969,-32.924,-13.063,-15.777,-25.95,-39.715,-25.464,-13.695,149.247,-4.261,-11.503,-6.462,-56.398,-16.655,16.393,-89.319,-69.251
2.250175599999693,-6.507,-3.824,-98.302,-27.508,-0.533,5.884,147.103,4.32,-3.743,2.158,8.258,-11.273,-5.579,-35.452,-6.39,-6.028,-17.727,-28.405,-15.705,-3.435,158.319,0.354,-7.393,3.79,-47.632,-5.88,28.672,-74.373,-65.596
2.2502416999996058,5.794,2.328,-109.474,-19.284,1.517,7.927,129.025,14.561,-5.276,3.18,5.688,-16.897,-2.499,-36.954,0.276,-5.509,-18.222,-32.475,-22.862,-4.457,153.55,-2.207,-8.411,-5.947,-36.826,-7.924,27.619,-67.638,-86.535
2.265180799999598,16.035,0.789,-102.192,-29.51,0.491,2.796,161.684,1.227,-11.93,-2.458,3.633,-16.881,-15.305,-25.134,3.35,-7.041,-18.204,-35.004,-19.765,-4.964,151.86,5.992,-2.767,0.718,-28.592,-4.842,26.054,-61.423,-79.788
2.2811314999999013,0.65,2.325,-90.307,-25.895,-0.534,7.404,140.005,9.423,-11.406,-2.456,4.654,-13.278,-17.851,-30.232,-6.387,-7.546,-18.698,-27.797,-10.524,-1.886,154.269,7.01,-1.227,8.402,-24.978,-1.251,26.54,-62.386,-73.049
2.281199899999592,-16.257,-5.362,-112.758,-30.992,-5.145,-5.411,107.59,3.265,-25.227,-12.187,-6.621,-25.047,-22.444,-50.181,-20.726,-16.76,-28.413,-35.454,-26.907,-13.667,145.918,-12.464,-14.546,-8.512,-20.854,-14.57,13.706,-72.57,-103.714
2.295314099999814,-10.606,-20.214,-129.039,-51.453,-9.238,-25.898,140.27,-25.939,-39.034,-32.668,-23.009,-37.83,-38.303,-41.934,-19.68,-31.6,-28.384,-42.59,-45.323,-30.047,136.551,-26.797,-21.704,-21.311,-14.686,-28.387,3.959,-77.621,-118.467
2.29537769999979,1.7,-18.144,-110.467,-50.377,-4.618,-23.31,172.917,-26.426,-28.237,-31.098,-17.35,-30.62,-32.117,-22.937,-9.414,-27.47,-13.499,-26.666,-32.982,-21.82,144.611,-16.524,-12.46,-10.019,-18.257,-23.236,12.664,-73.444,-85.561
2.310241700000006,-3.937,-5.318,-97.037,-35.982,3.071,-9.455,182.478,-5.907,-15.401,-11.599,-0.939,-19.831,-11.592,-28.037,-5.819,-12.073,-9.899,-19.98,-18.605,-8.478,154.713,-2.162,-4.251,0.749,-30.022,-11.942,22.385,-69.785,-65.495
2.3103039999996327,-19.302,-12.485,-116.407,-45.168,-4.104,-13.031,150.02,-3.34,-23.07,-17.735,-10.16,-29.545,-23.364,-41.329,-14.01,-21.283,-24.746,-38.403,-32.418,-19.74,143.799,-11.894,-12.956,-7.961,-45.361,-18.59,15.19,-75.863,-93.607
2.3242325999999593,-22.357,-33.478,-143.956,-66.127,-20.494,-32.998,130.915,-16.656,-37.392,-41.796,-34.228,-47.958,-47.931,-56.145,-26.804,-42.778,-40.091,-52.709,-50.829,-34.578,128.799,-35.448,-30.362,-27.933,-63.247,-39.064,-0.706,-89.107,-120.666
2.3242927999999665,-17.723,-33.444,-142.275,-65.036,-23.035,-38.088,163.572,-26.886,-37.354,-39.705,-31.12,-44.837,-44.297,-68.896,-25.752,-38.637,-40.051,-44.972,-47.704,-30.957,134.305,-34.388,-29.819,-30.979,-59.085,-44.66,-1.73,-90.042,-107.737
2.341355499999736,-21.292,-14.968,-110.882,-48.578,-13.79,-20.119,195.684,-18.15,-23.485,-19.685,-10.084,-27.373,-27.859,-52.433,-11.894,-21.692,-26.178,-32.631,-32.8,-20.168,146.466,-16.423,-14.42,-17.628,-28.8,-29.246,13.128,-76.632,-91.748
2.3414356999996926,-19.734,-8.805,-102.062,-43.406,-10.19,-10.365,163.213,-3.274,-19.875,-15.567,-7.513,-26.834,-27.831,-29.327,-11.882,-21.671,-20.517,-38.234,-31.742,-17.586,145.295,-17.431,-16.455,-19.147,-20.062,-24.094,17.726,-67.846,-103.439
2.355458699999872,-4.345,-14.944,-120.915,-47.973,-13.254,-15.478,130.774,-6.857,-30.613,-25.798,-15.702,-36.541,-36.513,-40.056,-18.53,-29.846,-31.767,-54.59,-42.469,-23.716,142.076,-25.611,-26.684,-28.862,-37.46,-32.267,11.048,-69.316,-107.434
2.355523599999742,2.32,-7.757,-114.646,-38.704,-13.753,-7.778,139.865,-3.264,-25.972,-21.673,-12.612,-31.381,-33.402,-49.75,-13.901,-27.767,-28.662,-48.9,-40.377,-23.692,148.594,-15.339,-15.899,-16.025,-30.25,-23.013,14.623,-65.66,-81.712
2.3695090999999593,-9.978,1.985,-97.113,-28.419,-12.715,0.939,169.951,14.157,-12.114,-9.869,-8.501,-24.69,-20.049,-35.356,-17.986,-21.079,-11.214,-28.871,-28.554,-14.447,153.056,-6.615,-7.174,-0.64,-22.535,-8.645,18.707,-62.521,-65.748
2.3695801999997457,-19.19,-11.337,-108.287,-46.321,-21.923,-15.968,202.569,-3.275,-23.885,-22.154,-20.276,-35.936,-28.226,-36.345,-32.825,-28.743,-18.376,-33.965,-35.185,-21.605,145.731,-18.903,-19.975,-10.885,-54.276,-21.957,4.856,-76.803,-85.15
2.384403199999724,-15.584,-28.744,-119.962,-67.28,-33.172,-34.395,194.169,-30.424,-40.255,-43.137,-35.625,-46.658,-49.714,-53.727,-31.767,-45.108,-36.8,-54.423,-51.544,-37.977,136.876,-33.229,-29.688,-30.855,-59.857,-42.427,-3.345,-89.534,-108.631
2.3844653999999537,-14.544,-23.592,-114.206,-59.528,-26.991,-27.701,161.7,-11.951,-30.993,-35.921,-29.954,-40.464,-45.566,-56.747,-25.075,-43.013,-30.616,-53.857,-47.906,-32.304,139.813,-31.659,-24.023,-35.947,-27.01,-37.261,5.879,-79.198,-111.596
2.401323699999921,-20.677,-15.884,-116.141,-48.197,-17.231,-20.501,176.907,4.455,-24.814,-23.59,-17.116,-35.3,-33.225,-53.104,-30.686,-31.7,-19.827,-43.044,-35.563,-22.538,145.309,-23.943,-19.389,-29.763,-25.446,-29.54,7.41,-69.385,-107.386
2.401409699999931,-17.583,-22.016,-119.099,-55.321,-22.849,-29.19,209.006,-14.505,-35.548,-33.812,-22.734,-39.363,-41.389,-52.027,-32.704,-36.791,-24.418,-39.927,-39.626,-30.2,144.651,-26.48,-21.931,-24.61,-57.696,-38.219,-0.282,-78.537,-107.791
2.4144631999997728,-7.831,-24.043,-112.832,-57.828,-25.9,-31.722,176.521,-17.052,-36.025,-36.34,-29.884,-38.812,-43.397,-42.241,-27.036,-41.877,-20.807,-37.326,-47.271,-33.243,143.994,-34.651,-28.056,-25.61,-56.613,-40.743,0.231,-83.069,-109.733
2.4145277999996324,-13.971,-20.945,-116.306,-56.745,-23.825,-26.055,209.133,-12.424,-33.939,-30.156,-27.293,-39.798,-36.693,-37.588,-31.62,-38.762,-17.2,-39.338,-49.785,-32.698,142.825,-36.665,-34.688,-36.855,-31.454,-40.189,-0.282,-81.449,-108.598
2.429461999999603,-26.252,-29.121,-128.485,-66.422,-32.51,-34.226,241.711,-33.416,-45.176,-40.884,-35.462,-48.467,-49.977,-50.358,-42.347,-46.92,-28.966,-52.106,-54.859,-42.911,137.559,-39.702,-38.24,-52.188,-47.816,-50.395,-5.404,-95.2,-103.879
2.4444307999997363,-15.98,-36.264,-128.356,-69.942,-39.65,-44.95,209.194,-39.018,-52.303,-51.09,-41.062,-48.931,-59.661,-52.869,-39.743,-51.484,-26.888,-50.005,-54.291,-42.868,138.446,-40.175,-32.566,-48.549,-58.527,-47.783,-1.3,-102.277,-102.238
2.444491199999902,0.942,-24.445,-117.982,-61.675,-30.389,-32.61,176.709,-14.901,-44.054,-39.256,-25.14,-37.099,-42.695,-34.885,-23.309,-35.038,-5.856,-27.926,-39.38,-24.382,150.603,-25.79,-20.751,-25.447,-28.754,-27.756,7.922,-82.707,-105.722
2.4594578999999612,-4.182,-15.199,-110.179,-59.052,-17.038,-11.572,195.488,2.02,-28.129,-22.31,-10.77,-29.377,-25.746,-23.067,-15.089,-23.732,0.81,-20.725,-28.582,-16.161,158.137,-15.006,-15.094,-19.786,-25.139,-20.043,13.038,-68.792,-106.641
2.463521299999684,-19.035,-24.405,-113.143,-62.067,-12.41,-13.098,221.933,-0.031,-21.44,-20.239,-16.907,-32.934,-25.72,-26.118,-22.759,-29.344,-7.9,-34.025,-34.189,-24.854,151.832,-24.212,-23.789,-33.086,-57.39,-30.269,10.975,-76.408,-105.51
2.4760881999995945,-24.139,-34.115,-125.837,-66.616,-23.669,-33.577,254.498,-24.622,-39.862,-37.637,-31.747,-43.147,-36.453,-36.338,-29.396,-39.561,-14.04,-40.138,-47.987,-34.563,140.409,-36.996,-35.548,-41.25,-69.628,-45.096,-1.331,-86.065,-111.552
2.476154999999835,-21.041,-34.593,-138.007,-68.598,-37.99,-46.351,287.032,-50.212,-55.191,-50.407,-37.863,-47.715,-47.175,-49.11,-27.829,-48.231,-21.711,-39.586,-55.112,-40.164,134.121,-42.082,-37.049,-47.869,-36.77,-52.736,-9.014,-95.201,-121.174
2.48959399999967,-15.384,-26.361,-135.307,-52.648,-28.218,-32.472,259.08,-28.133,-37.718,-34.987,-24.505,-38.958,-38.931,-45.474,-23.191,-41.01,-21.177,-36.985,-43.786,-33.464,142.184,-31.281,-26.254,-44.747,-21.877,-43.974,4.315,-95.618,-122.078
2.4896592999998575,-6.147,-7.892,-113.655,-25.443,-5.648,-5.8,226.545,4.683,-15.139,-12.923,-7.062,-26.623,-20.961,-26.473,-13.946,-23.551,-6.299,-23.628,-25.811,-16.012,156.898,-8.709,-13.42,-22.161,-34.15,-24.462,20.192,-71.444,-108.123
2.5045139999997446,0.519,6.461,-96.635,-12.61,1.53,2.915,259.107,7.24,-15.636,-10.861,-5.006,-24.548,-16.842,-22.861,-5.735,-20.965,0.368,-14.383,-21.175,-11.385,156.742,-2.552,-9.82,-12.917,-20.796,-15.728,17.61,-48.319,-88.547
2.504570699999931,-3.068,4.405,-101.662,-12.597,-1.546,-4.26,234.769,-3.014,-24.329,-19.047,-8.074,-28.109,-22.46,-29.498,-7.779,-25.043,-6.293,-21.541,-23.203,-18.546,146.339,-11.259,-11.86,-20.589,-13.603,-20.323,12.469,-48.783,-82.311
2.5197033999997984,-12.799,1.327,-102.072,-15.659,-4.106,-8.354,202.259,-5.06,-28.403,-22.614,-8.579,-29.618,-26.024,-21.271,-11.357,-19.895,-2.7,-24.081,-17.544,-15.966,146.705,-4.075,-7.749,-11.859,-35.106,-20.815,19.629,-52.832,-82.741
2.523800999999821,-11.761,7.473,-86.601,-20.254,-3.589,-8.346,234.844,-12.227,-28.375,-21.055,-7.545,-26.515,-23.436,-12.029,-5.71,-13.727,6.012,-13.298,-7.793,-4.679,153.218,8.736,0.455,-0.064,-29.436,-10.036,27.807,-46.632,-75.486
2.5364009999998416,-1.503,11.564,-84.465,-16.647,3.587,-3.215,255.614,-6.58,-21.174,-12.837,0.147,-21.365,-11.118,-13.554,4.029,-7.054,8.055,-5.6,-3.686,-0.064,152.552,8.215,1.992,-3.138,-2.254,-0.804,28.291,-42.999,-74.898
2.5364660000000185,-2.014,8.991,-95.139,-9.458,4.095,-0.137,249.211,2.649,-17.055,-9.238,3.22,-22.368,-7.52,-15.077,3.513,-5.51,3.436,-12.767,-10.343,-6.211,145.228,2.059,-4.158,-8.258,-3.276,-10.538,22.627,-45.005,-88.144
2.549628599999778,-12.258,2.322,-96.069,-13.035,-3.593,-6.797,281.749,-11.186,-20.111,-16.913,-6.517,-30.543,-21.857,-24.283,-7.249,-18.824,-8.35,-28.636,-24.677,-17.988,138.935,-9.726,-14.912,-20.545,-17.105,-28.97,16.969,-53.157,-93.691
2.5496932999999444,-13.271,-2.804,-99.559,-15.071,-3.077,-6.278,249.192,-9.126,-18.554,-18.945,-8.047,-33.074,-25.934,-37.579,-9.803,-24.441,-14.49,-36.804,-29.263,-22.581,136.746,-14.327,-19.508,-30.258,-31.945,-30.99,16.44,-59.764,-93.597
2.5646827999999005,-7.11,-0.752,-106.119,-8.908,-3.074,4.999,216.668,15.986,-12.388,-8.68,-0.867,-26.893,-15.15,-33.443,-2.109,-13.145,-5.766,-26.009,-16.426,-14.874,136.61,-0.48,-8.73,-13.322,-45.233,-18.664,20.522,-53.044,-93.503
2.564746600000035,-7.103,-3.825,-98.841,-16.584,-14.342,-4.228,249.239,3.675,-17.499,-10.208,-7.526,-26.354,-17.696,-24.188,-6.718,-14.669,-4.736,-17.786,-12.311,-14.859,129.813,0.545,-5.135,-5.624,-26.233,-17.621,18.452,-49.917,-87.262
2.579682299999604,-12.219,-16.629,-99.254,-33.474,-19.451,-29.327,281.777,-28.604,-32.338,-31.203,-20.838,-39.135,-31.511,-35.947,-22.592,-28.487,-20.1,-33.649,-29.717,-28.164,116.876,-19.436,-20.499,-27.135,-7.763,-33.485,6.139,-63.187,-96.397
2.5835259999998925,-12.206,-16.612,-106.84,-31.903,-14.82,-32.371,249.22,-27.551,-37.941,-39.881,-25.941,-45.244,-37.627,-49.743,-26.156,-31.02,-25.716,-47.448,-39.934,-35.308,111.123,-23.002,-25.602,-32.231,-27.223,-41.648,3.571,-66.198,-112.694
2.595058799999606,-9.12,-0.201,-92.9,-14.965,-13.781,-15.945,216.695,0.141,-30.731,-28.57,-19.255,-38.538,-34.515,-44.571,-19.47,-25.866,-17.493,-37.154,-28.111,-29.125,115.623,-12.733,-13.793,-16.83,-30.782,-30.336,16.887,-48.201,-96.187
2.5951301999998577,-11.673,5.946,-78.975,-6.241,-14.28,-8.757,238.508,7.313,-26.09,-22.906,-10.014,-33.889,-29.87,-31.206,-15.864,-21.741,-14.914,-27.383,-20.91,-23.461,117.557,-10.671,-11.73,-13.739,-12.821,-20.059,20.969,-38.931,-73.55
2.609730199999831,-13.71,-2.256,-86.581,-7.259,-12.728,-10.797,271.057,-1.915,-27.6,-25.445,-10.004,-36.417,-26.766,-27.589,-14.311,-17.109,-16.436,-30.942,-24.476,-23.95,111.291,-10.148,-16.841,-17.312,-29.202,-23.625,10.702,-45.04,-82.185
2.624700500000017,-9.598,-7.89,-89.568,-12.375,-17.326,-13.86,259.003,-8.061,-28.597,-25.932,-16.654,-40.479,-30.838,-35.758,-18.908,-20.678,-18.981,-32.448,-26.5,-26.487,102.983,-12.187,-18.362,-17.807,-51.714,-29.749,10.179,-54.729,-89.788
2.624759699999686,-10.613,-9.931,-94.602,-21.584,-26.531,-20.506,232.616,-12.664,-31.643,-32.566,-22.273,-45.049,-40.029,-46.993,-27.598,-29.367,-27.671,-35.49,-32.622,-33.633,96.22,-19.86,-22.954,-24.449,-41.928,-34.843,11.193,-62.359,-89.186
2.639752099999896,-14.189,-15.556,-112.438,-29.76,-25.479,-27.146,265.171,-19.824,-35.71,-37.656,-25.324,-46.029,-41.526,-48.483,-31.157,-31.386,-32.767,-43.651,-40.786,-38.21,89.464,-23.938,-25.493,-32.621,-27.542,-41.98,3.497,-62.297,-99.343
2.6398129999997764,-8.027,-16.565,-108.227,-28.705,-17.257,-17.897,241.852,-12.119,-28.501,-27.372,-20.688,-41.372,-32.775,-42.287,-29.589,-27.257,-29.148,-40.021,-35.622,-34.586,86.813,-24.427,-22.393,-35.663,-22.903,-42.45,8.105,-58.136,-100.268
2.6566508999999314,-5.457,-13.475,-89.676,-20.992,-15.703,-2.51,209.335,15.558,-18.227,-18.124,-11.446,-36.207,-25.57,-41.22,-26.998,-22.619,-26.557,-31.784,-28.926,-31.477,84.165,-22.353,-24.932,-31.016,-26.979,-36.773,15.269,-59.615,-97.606
2.656723299999612,-13.649,-14.486,-94.709,-19.434,-20.298,-9.167,241.913,16.567,-22.819,-22.716,-15.021,-37.196,-31.18,-46.814,-25.434,-24.133,-31.141,-38.413,-36.07,-35.032,75.883,-20.281,-28.494,-26.887,-38.735,-37.76,7.057,-63.653,-116.976
2.6699546999998347,-18.246,-20.107,-105.885,-27.612,-22.327,-29.651,274.459,-15.725,-38.166,-35.501,-27.301,-46.38,-44.981,-50.866,-31.556,-32.818,-37.77,-48.108,-42.694,-40.12,69.148,-28.458,-27.953,-36.594,-38.696,-44.895,1.414,-65.639,-126.081
2.670020999999906,-17.203,-20.087,-98.607,-32.707,-18.206,-29.621,241.909,-24.419,-45.3,-42.638,-27.274,-49.92,-49.034,-46.204,-34.086,-34.322,-36.708,-42.937,-37.016,-41.617,69.078,-33.04,-27.413,-39.631,-37.121,-43.313,4.999,-60.45,-104.95
2.684867199999644,-18.21,-16.993,-94.922,-28.064,-11.528,-19.857,209.392,1.733,-38.082,-36.96,-22.123,-42.185,-41.301,-37.449,-23.293,-25.578,-30.523,-33.672,-30.831,-36.964,69.009,-21.224,-23.799,-22.685,-49.891,-36.098,4.994,-49.631,-95.624
2.6849334999997154,-20.241,-20.05,-108.66,-28.036,-14.078,-27.522,241.97,-8.515,-35.483,-36.923,-26.2,-44.192,-42.284,-38.436,-22.245,-26.065,-33.054,-35.176,-33.874,-35.391,64.842,-19.666,-21.726,-24.199,-39.083,-39.648,3.964,-55.217,-110.385
2.69984439999962,-16.123,-21.054,-115.211,-32.106,-18.162,-31.593,274.516,-21.826,-35.447,-40.985,-28.223,-50.296,-46.852,-44.545,-31.957,-29.625,-38.144,-36.677,-36.402,-38.941,63.752,-26.819,-24.778,-40.057,-6.256,-45.756,3.448,-65.408,-112.836
2.699905899999976,-5.86,-10.275,-97.165,-25.414,-9.947,-10.557,241.966,10.983,-21.067,-24.55,-19.485,-40.512,-35.022,-41.939,-27.314,-21.399,-31.958,-28.956,-30.217,-34.804,63.689,-19.107,-21.167,-25.672,-7.275,-37.001,6.518,-52.023,-99.916
2.716748800000005,-10.978,-9.752,-88.871,-21.29,-11.474,-5.423,221.744,22.243,-18.485,-18.377,-21.515,-40.471,-31.401,-43.434,-28.312,-20.865,-35.0,-34.562,-34.798,-36.306,42.62,-22.162,-25.757,-15.912,-39.543,-35.939,6.512,-50.434,-106.476
2.716815399999632,-34.021,-31.772,-113.373,-37.15,-29.906,-36.156,254.31,-10.054,-44.081,-47.561,-39.424,-59.899,-52.375,-56.198,-48.263,-39.287,-57.507,-61.168,-55.768,-56.25,11.327,-44.681,-45.199,-46.123,-55.897,-58.957,-10.401,-74.974,-132.497
2.730311399999664,-35.011,-34.302,-123.505,-42.236,-25.265,-42.78,228.953,-19.778,-47.111,-51.612,-39.385,-58.302,-55.396,-54.605,-44.117,-42.322,-60.011,-62.644,-55.2,-57.218,14.389,-42.588,-43.617,-53.761,-54.816,-64.021,-16.538,-67.214,-139.024
2.7303702999997768,-11.41,-4.041,-95.205,-19.652,-1.161,-9.95,196.448,13.029,-18.375,-18.772,-13.73,-35.19,-27.164,-36.62,-15.896,-18.713,-34.336,-30.818,-26.455,-26.935,38.454,-16.93,-20.519,-21.432,-50.151,-35.78,9.094,-34.36,-111.733
2.7449377999996614,-6.275,8.771,-75.642,-3.751,0.377,4.917,201.375,28.385,-12.721,-10.044,0.628,-26.445,-18.94,-29.923,-10.244,-4.862,-25.592,-20.541,-17.207,-16.149,36.878,-9.228,-12.302,-11.164,-32.17,-21.4,22.405,-34.325,-84.981
2.745003600000018,-19.077,-10.706,-87.35,-19.629,-13.968,-16.605,233.961,5.303,-29.615,-28.477,-13.205,-36.153,-36.851,-35.016,-24.579,-14.591,-40.423,-38.451,-32.559,-31.502,26.083,-18.44,-19.974,-26.522,-13.182,-36.235,5.989,-56.832,-92.069
2.759888599999613,-23.669,-27.089,-110.828,-44.712,-19.59,-34.519,266.515,-21.854,-38.294,-39.207,-30.61,-47.899,-43.987,-38.567,-29.677,-26.872,-46.018,-40.974,-37.138,-37.619,35.278,-27.643,-27.639,-36.23,-20.854,-46.445,-5.8,-64.46,-115.543
2.759957199999917,-23.133,-20.402,-118.915,-43.131,-17.009,-28.337,233.973,-15.685,-34.67,-37.119,-24.944,-46.827,-36.258,-36.992,-26.061,-23.259,-38.288,-27.613,-26.342,-30.921,50.1,-25.567,-25.562,-34.657,-36.715,-38.714,0.865,-51.076,-120.55
2.775834699999905,-19.011,0.111,-93.693,-15.423,-9.307,-6.791,201.464,17.119,-17.729,-17.614,-5.963,-30.899,-24.951,-25.684,-18.863,-6.33,-31.077,-18.876,-13.508,-19.107,55.685,-4.024,-8.118,-14.13,-27.456,-20.745,16.746,-27.458,-104.548
2.775904499999797,-9.77,5.746,-76.18,-7.723,-4.175,2.437,234.05,28.885,-6.953,-2.739,-0.834,-27.282,-17.242,-17.974,-15.77,-2.737,-31.046,-22.444,-9.396,-13.965,52.043,5.202,-1.45,-2.332,-18.207,-12.527,22.365,-26.406,-100.345
2.7900385999996615,-4.638,-12.19,-99.67,-27.695,-10.83,-9.861,266.604,5.802,-19.241,-17.081,-12.104,-39.037,-24.397,-33.325,-23.439,-16.054,-40.236,-36.766,-23.219,-27.271,41.745,-16.321,-19.891,-25.384,-32.534,-28.396,10.047,-52.508,-117.151
2.7901035999998385,-6.682,-20.887,-113.403,-30.741,-13.381,-13.95,234.062,6.308,-22.296,-25.774,-16.191,-39.511,-31.032,-45.587,-30.588,-18.6,-48.905,-45.438,-36.003,-33.904,38.63,-25.526,-29.093,-36.117,-41.723,-39.638,3.377,-59.627,-124.206
2.8050242999997863,-17.946,-10.62,-99.457,-20.977,-5.683,-10.862,246.123,6.302,-16.638,-19.6,-14.638,-36.397,-27.415,-38.881,-26.459,-12.434,-49.881,-41.294,-29.307,-24.136,39.103,-14.742,-20.867,-22.249,-31.435,-30.377,9.521,-46.76,-115.373
2.8199899999999616,-25.101,-10.097,-100.382,-26.591,-7.727,-18.023,278.665,-12.147,-28.405,-26.24,-16.672,-41.484,-30.462,-35.256,-17.723,-15.495,-47.782,-37.155,-24.667,-24.624,32.916,-11.653,-21.358,-26.837,-20.645,-28.298,10.024,-49.787,-112.696
2.8200471000000107,-8.169,-9.063,-98.233,-21.954,-12.842,-7.759,246.111,8.357,-23.253,-21.091,-7.434,-33.246,-26.845,-33.684,-10.533,-11.381,-37.488,-27.896,-20.544,-20.501,38.007,-4.469,-15.702,-25.786,-14.477,-24.683,15.649,-46.664,-114.12
2.835024599999997,8.745,5.291,-79.179,-3.489,-3.095,14.79,213.589,41.136,2.898,4.033,7.943,-21.942,-9.4,-21.355,-5.4,5.024,-24.131,-11.987,-2.593,-0.5,51.801,15.003,1.733,0.368,-13.95,-4.166,28.441,-26.125,-107.858
2.8390894999997727,-3.047,6.31,-84.735,-11.17,-0.018,4.017,246.163,21.115,-6.327,-3.143,-0.775,-31.141,-13.489,-18.772,-10.517,2.458,-27.18,-13.511,-1.053,-5.111,44.577,11.402,-0.831,0.88,-13.936,-3.137,24.827,-23.025,-103.652
2.851274299999659,-8.679,-7.016,-98.995,-32.163,-16.412,-22.115,257.7,-10.669,-32.96,-29.268,-20.241,-42.381,-35.504,-27.463,-22.802,-16.5,-39.449,-30.916,-25.131,-27.647,25.065,-12.176,-17.224,-18.077,-19.045,-25.676,11.482,-36.322,-108.159
2.8513441999998577,4.649,-7.521,-89.162,-29.057,-20.494,-18.506,231.315,-3.998,-28.316,-26.165,-16.635,-39.777,-35.981,-26.411,-27.39,-18.533,-37.872,-30.886,-30.229,-25.57,24.527,-13.701,-18.231,-12.935,-38.494,-26.162,11.983,-37.31,-111.637
2.8651300999999876,-0.478,2.22,-83.438,-15.708,-6.641,-0.045,203.419,14.961,-11.894,-10.257,-1.249,-34.102,-23.138,-20.749,-23.777,-8.268,-26.564,-15.998,-13.805,-13.249,32.7,0.658,-9.504,-1.652,-29.234,-11.792,17.094,-26.002,-111.013
2.8651958999998897,-14.822,3.242,-89.502,-13.131,-1.512,4.054,177.6,22.631,-10.858,-8.71,-1.76,-30.994,-20.041,-18.679,-17.605,-6.211,-23.463,-11.371,-10.205,-14.773,32.155,2.194,-5.908,-6.261,3.583,-11.267,16.564,-17.779,-109.365
2.8801105999996253,-7.123,-4.445,-92.486,-20.803,-5.609,-8.246,210.21,9.8,-21.605,-17.923,-9.443,-33.012,-27.193,-20.197,-12.464,-11.84,-31.124,-16.995,-17.879,-19.369,26.487,-5.493,-7.439,-10.353,0.506,-15.867,14.499,-23.909,-115.916
2.8801784999996016,-0.968,-14.687,-105.202,-31.54,-7.652,-24.119,242.787,-13.263,-31.83,-30.2,-14.044,-40.664,-36.9,-32.472,-19.112,-17.976,-40.827,-23.126,-26.058,-23.96,20.825,-12.147,-14.604,-12.904,-31.77,-19.437,7.824,-37.717,-129.632
2.8951756999999816,-14.799,-17.746,-110.22,-30.996,-9.182,-25.632,210.269,-13.25,-31.798,-33.244,-19.153,-43.697,-40.449,-40.637,-32.413,-20.519,-44.372,-27.201,-31.155,-26.498,20.292,-15.721,-18.175,-18.014,-25.078,-24.541,5.767,-38.704,-128.478
2.8992952999997215,-17.346,-4.921,-85.519,-14.059,-4.049,-10.749,177.784,10.842,-22.032,-20.403,-11.962,-35.456,-30.674,-25.739,-22.647,-11.277,-33.569,-21.538,-21.39,-16.738,30.518,-4.947,-8.423,-8.263,7.222,-15.295,19.081,-20.222,-111.956
2.9110601999996106,0.602,13.527,-71.601,-5.848,7.738,3.094,160.7,29.274,-14.326,-8.599,4.956,-26.199,-17.324,-8.295,-0.595,2.054,-21.753,-9.221,-1.901,-3.401,40.221,12.476,5.417,11.726,3.117,4.188,30.333,0.802,-106.208
2.9111275000000205,3.675,8.391,-88.948,-21.724,2.095,-1.008,128.264,21.56,-17.898,-13.714,0.34,-30.271,-20.893,-14.947,-6.229,-1.534,-27.879,-13.823,-2.924,-7.496,34.033,5.291,3.875,8.128,4.65,-0.427,21.593,-5.346,-114.811
2.9252749999996013,-16.821,-21.332,-106.789,-43.731,-23.01,-20.474,160.923,-9.712,-33.761,-30.094,-22.714,-44.073,-38.29,-31.326,-30.814,-16.39,-40.659,-27.642,-22.389,-25.419,19.655,-18.28,-14.572,-17.496,-4.064,-27.066,6.203,-37.616,-123.918
2.925337799999852,-20.39,-34.63,-115.904,-49.835,-28.623,-28.651,193.55,-28.658,-36.289,-33.65,-21.666,-44.542,-39.277,-28.22,-34.369,-17.91,-35.495,-21.466,-27.489,-28.98,20.147,-18.774,-21.73,-24.138,-36.335,-35.236,5.172,-52.948,-130.966
2.9401889999999185,1.659,-21.276,-117.838,-43.126,-5.028,-14.278,161.081,-10.186,-18.322,-17.735,-5.763,-31.177,-23.356,-12.823,-18.966,-7.134,-24.189,-7.612,-14.654,-16.656,33.447,-4.923,-10.949,-12.331,-20.929,-19.319,13.364,-39.062,-132.885
2.940249899999799,-0.904,-15.619,-109.523,-36.935,4.711,-4.53,128.644,13.902,-14.205,-13.619,-7.807,-31.658,-23.332,-17.421,-13.311,-7.127,-31.337,-15.802,-14.127,-16.639,32.389,-9.016,-9.914,-16.417,11.879,-16.226,11.301,-34.413,-131.215
2.9552134999999,-30.617,-24.825,-109.413,-36.898,-11.688,-14.771,106.487,10.815,-30.073,-27.95,-18.045,-45.459,-39.703,-33.285,-24.057,-17.878,-43.088,-30.643,-26.408,-29.942,22.111,-20.278,-19.638,-25.11,-16.309,-29.018,-1.006,-43.6,-140.305
2.958998199999769,-34.685,-27.362,-114.939,-41.472,-17.824,-27.052,139.168,-13.787,-37.215,-34.069,-20.076,-46.95,-41.712,-33.252,-31.717,-21.959,-40.996,-26.001,-27.919,-30.425,24.138,-17.696,-19.106,-22.523,-36.785,-31.038,-3.566,-43.044,-148.874
2.9710839999997916,-11.596,-25.797,-109.701,-48.603,-9.609,-30.099,171.816,-29.655,-37.178,-32.498,-18.519,-39.219,-34.498,-22.46,-27.075,-17.326,-31.221,-15.729,-21.231,-24.759,27.187,-14.093,-18.574,-22.501,-14.719,-25.884,2.585,-37.878,-142.065
2.9711474999999155,-10.047,-28.333,-113.178,-54.189,-15.235,-25.97,139.369,-13.231,-35.603,-32.466,-16.964,-40.204,-37.025,-14.753,-25.511,-16.284,-29.141,-19.812,-25.308,-27.296,22.549,-20.738,-23.167,-24.527,-25.975,-27.395,1.558,-37.327,-137.312
2.985297199999877,-28.993,-30.866,-129.971,-56.184,-16.756,-22.358,106.954,6.762,-30.957,-30.384,-16.947,-42.726,-40.575,-16.275,-29.584,-18.829,-36.796,-28.501,-28.869,-30.342,22.015,-24.816,-22.631,-23.478,-31.073,-29.929,-2.03,-40.364,-142.298
2.999441499999648,-27.939,-30.836,-128.304,-56.641,-3.42,-24.897,139.635,-5.028,-31.951,-32.403,-18.979,-38.072,-37.972,-29.067,-24.943,-21.372,-41.37,-26.424,-25.254,-29.799,23.017,-22.23,-22.609,-30.115,1.746,-27.85,0.534,-43.397,-142.668
2.999505699999645,-9.981,-27.731,-114.855,-53.51,-9.052,-25.384,172.283,-18.343,-32.943,-32.371,-16.399,-33.935,-35.885,-31.599,-19.283,-20.326,-34.669,-17.688,-23.692,-25.671,20.433,-18.109,-24.123,-31.622,5.843,-27.31,1.558,-37.206,-143.038
3.014331299999867,-10.995,-22.068,-115.765,-46.797,-25.949,-20.748,139.835,-9.103,-28.812,-25.678,-12.796,-36.975,-35.849,-20.297,-28.485,-18.769,-33.61,-19.207,-19.57,-22.059,21.437,-12.968,-17.951,-17.758,-26.438,-25.233,1.556,-29.485,-149.042
3.0143937999996524,-25.329,-21.533,-122.309,-39.577,-20.287,-18.166,107.42,0.128,-29.296,-25.653,-13.296,-39.5,-36.326,-22.326,-36.141,-19.774,-42.798,-27.385,-13.402,-24.599,20.903,-9.369,-15.884,-13.641,-38.195,-24.183,3.092,-33.041,-147.356
3.0312380000000303,-17.107,-19.463,-116.552,-33.902,-11.046,-13.537,140.101,7.3,-25.68,-24.602,-11.745,-34.85,-30.142,-24.865,-28.421,-19.755,-39.681,-25.821,-15.951,-22.525,20.882,-7.31,-18.43,-20.288,-13.054,-25.184,3.601,-30.447,-140.037
3.0313029999997525,0.329,-15.345,-103.115,-38.479,-18.207,-11.474,172.748,10.367,-15.921,-16.381,-9.172,-28.155,-20.89,-11.52,-22.757,-15.124,-32.469,-22.209,-19.008,-14.818,30.595,-5.766,-16.874,-15.657,-10.479,-21.06,5.646,-22.732,-137.335
3.044505399999707,-8.381,-23.526,-103.012,-51.761,-23.824,-19.147,140.3,4.721,-21.54,-22.0,-11.212,-29.151,-24.968,-15.607,-29.906,-15.621,-39.096,-26.285,-18.477,-19.926,32.614,-8.834,-17.882,-11.03,-18.153,-18.477,6.665,-30.906,-142.321
3.044570499999736,-21.18,-31.7,-116.741,-52.734,-21.239,-21.69,107.884,8.815,-28.178,-27.613,-12.226,-33.221,-31.603,-31.985,-35.512,-20.729,-41.619,-26.771,-22.045,-27.079,24.384,-12.411,-20.938,-19.216,10.554,-24.094,4.097,-37.023,-147.302
3.05947709999964,-11.425,-24.496,-116.625,-42.947,-24.291,-17.57,140.564,8.806,-20.978,-20.926,-11.701,-32.675,-25.423,-26.83,-30.865,-18.659,-35.942,-23.158,-22.535,-24.49,25.384,-12.911,-17.843,-23.296,34.622,-26.632,3.581,-26.227,-142.031
3.0595501999996486,-4.241,-20.373,-101.139,-43.929,-30.415,-20.626,173.211,-7.597,-21.982,-24.491,-15.275,-34.179,-26.423,-20.143,-28.785,-18.128,-38.98,-26.721,-21.488,-26.515,28.433,-14.435,-17.313,-16.612,2.312,-24.556,3.065,-21.59,-129.082
3.074507399999675,-9.36,-20.865,-97.964,-42.86,-24.237,-10.871,140.763,14.44,-23.497,-25.491,-13.211,-37.731,-33.056,-21.66,-30.294,-23.233,-36.892,-27.207,-21.979,-27.0,28.917,-12.884,-17.296,-9.936,-22.793,-22.482,2.549,-23.618,-127.416
3.07457549999981,-9.863,-15.721,-108.112,-33.084,-9.355,5.021,108.346,47.213,-11.178,-11.633,-6.538,-33.595,-25.851,-13.954,-29.239,-21.673,-29.17,-20.007,-18.883,-20.313,35.036,-9.285,-15.741,-14.024,-2.791,-20.923,6.645,-21.033,-139.071
3.0903358999999,-9.853,-25.951,-122.348,-47.395,-17.031,-17.526,141.026,14.891,-19.363,-23.405,-16.265,-34.586,-27.874,-14.964,-35.357,-22.163,-35.289,-24.598,-23.987,-29.002,30.39,-19.009,-26.484,-28.867,-23.792,-31.66,-0.534,-34.332,-154.301
3.0904023999996753,-15.991,-48.979,-136.571,-71.938,-40.58,-49.784,173.672,-17.4,-41.373,-45.923,-31.618,-42.748,-41.679,-21.097,-46.592,-30.338,-37.303,-30.209,-33.697,-39.219,19.601,-30.261,-35.167,-34.474,-56.044,-45.973,-18.976,-52.228,-164.906
3.104963399999633,-17.512,-40.733,-121.065,-61.62,-33.367,-30.266,141.223,15.405,-29.037,-26.921,-18.779,-34.509,-26.78,-3.658,-40.91,-21.086,-20.359,-14.809,-17.269,-20.225,33.926,-14.862,-18.226,-15.484,-23.2,-33.632,-14.346,-35.782,-152.445
3.105029999999715,-15.445,-12.515,-88.156,-37.993,-8.231,1.015,108.807,48.178,-5.954,-4.353,2.245,-19.617,-7.286,5.055,-24.476,-4.159,-14.191,-0.45,1.703,-4.835,52.335,4.621,-4.375,-1.636,9.611,-11.569,5.136,-7.569,-133.85
3.119560499999807,-16.454,-10.966,-85.506,-39.491,-16.419,-12.818,141.486,25.588,-17.218,-21.767,-10.053,-29.332,-23.672,-19.028,-27.013,-14.401,-33.645,-14.282,-13.668,-18.663,41.524,-6.142,-14.104,-13.93,-11.916,-17.193,3.081,-9.611,-140.376
3.119627000000037,-14.901,-21.201,-101.302,-44.575,-34.334,-27.662,174.132,0.459,-32.57,-35.065,-27.461,-42.11,-36.968,-30.792,-38.769,-29.756,-47.443,-28.1,-27.999,-29.403,34.31,-20.993,-19.726,-20.576,-44.179,-29.471,-10.242,-17.798,-136.137
3.1345461999999316,-9.763,-12.983,-87.881,-36.846,-21.492,-12.266,152.441,23.513,-20.755,-19.661,-15.138,-32.846,-24.124,-14.368,-35.144,-22.554,-38.174,-18.85,-19.261,-23.226,48.621,-16.361,-12.534,-9.284,-44.647,-25.855,-6.133,-12.145,-105.775
3.1496414999996887,-9.753,-8.359,-83.183,-35.272,-13.273,-6.106,165.608,28.612,-13.562,-16.055,-7.951,-27.178,-22.563,-12.816,-33.06,-17.92,-33.525,-17.807,-21.291,-25.252,46.523,-17.882,-17.132,-11.324,-41.529,-23.78,0.021,-16.744,-116.94
3.153673699999672,-15.379,-19.622,-105.641,-40.36,-29.141,-19.419,163.906,8.604,-27.381,-32.945,-25.362,-42.52,-39.959,-31.247,-44.81,-32.247,-47.324,-36.232,-38.176,-36.497,30.595,-30.159,-28.386,-22.584,-34.315,-29.392,-9.201,-25.436,-149.098
3.1665430999996715,-21.511,-18.065,-101.437,-35.196,-29.112,-20.425,131.467,17.304,-32.989,-36.498,-29.947,-47.601,-48.116,-31.728,-46.302,-38.875,-51.375,-37.733,-40.187,-39.534,33.638,-30.129,-30.406,-20.0,-38.892,-27.313,-14.315,-14.14,-139.215
3.166611699999976,-20.977,-3.702,-82.892,-26.964,-10.64,-8.621,141.069,30.607,-22.197,-21.605,-16.085,-35.77,-38.846,-15.814,-32.935,-29.102,-39.028,-20.789,-32.975,-34.884,42.826,-27.538,-27.815,-16.906,-63.956,-24.212,-6.103,-2.343,-108.338
3.179672099999607,-15.321,-6.773,-94.08,-30.011,-11.142,-10.149,173.716,17.256,-17.052,-15.948,-13.507,-32.148,-30.098,-15.799,-30.341,-22.925,-37.965,-18.719,-32.942,-32.8,39.197,-32.121,-29.324,-24.061,-60.818,-30.848,-4.56,-12.587,-118.988
3.1797373999997944,-13.256,-22.135,-105.769,-39.203,-17.791,-19.361,162.783,11.091,-20.621,-19.518,-17.592,-34.165,-31.605,-24.492,-32.36,-23.415,-44.075,-24.848,-31.372,-29.693,40.695,-24.916,-26.22,-28.648,-27.969,-33.891,-9.679,-23.332,-130.652
3.1946667999995952,-13.755,-23.65,-102.077,-45.824,-13.674,-15.755,130.345,21.839,-23.162,-17.962,-12.451,-31.057,-32.085,-20.369,-27.204,-19.805,-39.932,-20.212,-21.607,-23.004,48.339,-12.084,-17.997,-24.521,-22.306,-25.66,-3.009,-22.797,-117.201
3.194732099999783,-16.815,-19.015,-105.561,-51.925,-18.784,-10.104,100.501,19.255,-27.237,-18.456,-10.39,-31.026,-29.492,-15.738,-28.202,-20.298,-38.355,-17.63,-19.536,-23.493,45.216,-14.633,-17.467,-16.299,-50.973,-19.999,1.605,-20.212,-120.67
3.2096945999996933,-24.996,-22.583,-102.894,-50.849,-27.474,-22.389,133.188,3.867,-33.87,-28.684,-21.138,-34.581,-34.073,-16.234,-36.883,-28.474,-42.928,-20.686,-26.689,-31.154,37.999,-21.279,-22.06,-9.111,-61.681,-23.565,-8.643,-17.631,-137.968
3.213806199999908,-30.094,-21.535,-91.521,-40.552,-26.934,-34.662,165.843,-7.408,-37.422,-35.315,-27.777,-36.596,-39.674,-18.267,-41.457,-27.421,-41.86,-18.104,-28.199,-33.685,36.424,-20.745,-21.014,-11.663,-60.082,-26.103,-14.782,-11.978,-133.219
3.2268395999999484,-23.916,-14.854,-89.892,-36.413,-29.469,-29.505,168.751,-5.351,-32.774,-32.206,-23.65,-38.096,-37.585,-27.983,-44.489,-23.808,-41.306,-17.574,-23.56,-32.114,35.875,-21.236,-17.919,-16.775,-61.046,-24.028,-12.206,-10.429,-114.131
3.226904199999808,-16.72,-17.401,-90.827,-43.549,-23.292,-24.352,136.307,14.634,-24.032,-27.051,-20.553,-37.546,-36.523,-30.004,-43.42,-30.956,-43.314,-20.118,-25.586,-34.643,38.913,-24.801,-21.487,-19.832,-30.759,-24.516,-13.218,-17.078,-110.43
3.239779499999713,-18.752,-22.506,-93.298,-45.042,-7.387,-24.328,115.678,25.89,-22.983,-24.974,-23.094,-39.045,-38.024,-14.605,-37.229,-33.999,-41.734,-18.048,-33.757,-36.658,40.924,-27.85,-27.101,-28.009,2.059,-30.127,-14.742,-23.721,-126.714
3.239857999999913,-26.418,-20.434,-101.913,-40.386,-14.04,-21.23,148.35,14.594,-26.546,-27.511,-24.095,-42.08,-38.498,-14.59,-41.29,-31.403,-45.278,-21.104,-36.797,-38.158,33.71,-29.36,-29.635,-30.542,-30.218,-30.097,-15.24,-14.988,-137.858
3.2547417999999197,-32.027,-21.439,-99.25,-42.907,-29.395,-20.696,141.029,12.018,-27.032,-29.02,-25.608,-41.526,-41.021,-31.482,-47.909,-38.032,-52.917,-27.231,-35.736,-41.706,30.603,-27.281,-29.606,-18.729,-62.463,-27.505,-16.761,1.421,-130.035
3.2548063999997794,-27.384,-25.003,-93.003,-49.525,-23.73,-23.749,108.613,27.375,-23.931,-26.942,-26.607,-41.484,-42.517,-31.963,-40.176,-41.068,-52.864,-24.642,-34.675,-40.64,34.158,-25.717,-29.064,-15.636,-47.032,-29.527,-14.695,-4.216,-123.245
3.2696588999997402,-16.598,-18.831,-93.422,-44.352,-18.071,-16.041,130.021,34.007,-18.784,-22.304,-18.896,-40.93,-36.839,-23.222,-30.915,-30.781,-47.688,-17.957,-30.03,-32.402,37.198,-23.129,-26.985,-23.305,-27.005,-28.985,-10.07,-26.241,-124.147
3.2737991999997575,-12.483,-11.127,-90.767,-28.426,-20.614,-8.853,162.679,24.24,-17.229,-18.184,-11.705,-33.717,-31.679,-21.662,-28.834,-23.578,-46.616,-18.452,-21.803,-24.685,45.358,-14.397,-22.348,-20.208,-49.519,-24.345,-4.937,-26.727,-124.022
3.2854142999999567,-10.934,-15.727,-99.386,-29.935,-16.495,-18.065,154.319,7.822,-29.507,-22.776,-17.328,-31.122,-35.234,-22.664,-30.343,-26.628,-48.106,-19.97,-20.756,-25.685,49.923,-14.383,-21.301,-17.114,-53.056,-25.346,-4.419,-16.454,-135.682
3.2854794999998376,-6.824,-22.883,-115.68,-48.348,-18.528,-29.83,121.89,0.641,-41.773,-33.512,-24.996,-35.701,-42.371,-25.716,-32.361,-31.212,-46.521,-15.339,-24.834,-30.27,44.238,-21.028,-25.378,-26.318,-20.727,-31.98,-11.075,-23.61,-147.329
3.299739899999622,-9.891,-19.787,-105.319,-47.275,-27.731,-26.727,110.497,10.887,-33.534,-31.942,-22.922,-34.641,-40.791,-21.591,-31.304,-29.132,-37.253,-6.103,-20.711,-28.703,43.169,-18.446,-21.766,-24.755,-3.801,-30.924,-12.089,-23.074,-134.374
3.2998023999998622,-17.054,-14.644,-94.967,-32.883,-26.166,-22.601,133.44,13.95,-25.304,-22.688,-18.288,-31.533,-33.578,-11.836,-28.199,-24.492,-32.605,-3.535,-15.055,-23.551,46.2,-13.304,-15.085,-12.947,-12.506,-21.671,-7.978,-6.145,-125.53
3.3147117999997135,-8.84,-14.629,-108.704,-35.412,-16.919,-24.628,127.671,3.69,-30.914,-24.715,-15.196,-33.038,-31.495,-15.41,-26.122,-24.467,-39.233,-10.191,-14.015,-22.503,45.129,-11.754,-17.119,-8.323,-22.74,-13.965,-6.433,-0.504,-132.065
3.314774199999647,5.001,-6.93,-100.399,-33.327,-10.754,-16.919,103.465,10.858,-26.272,-21.104,-6.471,-27.37,-26.853,-15.907,-19.436,-22.393,-38.681,-6.083,-9.39,-18.895,53.281,-3.033,-11.979,-0.118,-17.594,-10.365,-0.279,-0.503,-116.051
3.3297218999996403,-0.639,5.372,-71.097,-10.752,-6.645,-2.045,102.85,31.852,-10.876,-6.226,2.757,-17.608,-15.556,1.527,-15.83,-16.736,-29.933,6.219,-5.282,-11.703,62.961,1.581,-3.257,11.665,-7.33,-8.818,6.381,9.744,-95.443
3.333649599999717,-11.909,11.515,-68.976,4.628,0.534,6.154,108.894,41.042,-6.255,1.465,4.803,-15.029,-9.905,6.649,-17.864,-14.157,-29.391,6.212,-8.351,-10.667,60.849,-4.056,-10.426,8.579,-11.421,-6.76,4.838,16.394,-100.47
3.345753699999932,-1.651,15.602,-74.543,3.086,11.804,9.734,141.573,39.976,-5.736,3.513,6.848,-13.99,-9.895,0.494,-9.649,-11.582,-29.362,4.157,-6.293,-8.607,62.837,2.608,-11.441,4.472,-11.41,-1.117,5.858,16.377,-100.882
3.345818099999633,9.109,13.024,-64.735,-6.651,6.669,3.577,174.219,27.128,-9.317,-0.077,4.279,-16.537,-15.52,3.055,-6.053,-12.595,-28.308,6.202,-1.676,-6.549,62.775,8.753,-4.257,4.98,-2.689,-4.19,5.852,11.238,-99.244
3.3597741999997197,-8.319,-1.845,-75.941,-19.964,-11.78,-12.821,141.77,15.831,-21.603,-15.446,-6.996,-28.304,-28.312,-7.194,-23.978,-24.878,-38.525,-5.075,-12.433,-17.301,48.88,-9.187,-18.597,-9.369,-18.056,-20.58,-6.449,-1.069,-126.81
3.3748022999998284,-20.606,-3.893,-95.332,-9.185,-5.621,-11.271,109.353,31.696,-20.044,-16.455,-9.038,-28.788,-28.796,-18.97,-27.54,-29.463,-42.585,-12.754,-19.593,-24.968,50.368,-16.35,-28.825,-17.045,-29.821,-21.584,-11.054,1.494,-136.417
3.374868299999889,-1.63,13.529,-81.917,12.853,13.34,3.597,142.031,43.448,-9.266,-1.582,2.754,-18.0,-18.521,-3.069,-7.02,-20.212,-30.76,0.578,-8.303,-13.16,66.199,1.085,-10.353,-2.683,2.997,-5.168,1.765,18.911,-103.493
3.3897492999999486,2.47,13.004,-62.88,3.106,4.105,-2.554,174.677,21.375,-20.015,-11.826,-0.323,-20.032,-26.187,0.52,-7.525,-22.754,-28.68,5.701,-5.733,-12.123,62.546,0.572,-4.707,-2.168,19.9,-7.725,3.3,13.769,-95.192
3.3898089999997865,-23.66,-2.379,-67.94,-13.803,-10.243,-19.458,142.227,7.009,-31.778,-28.208,-12.105,-28.721,-36.92,-18.436,-23.399,-28.366,-36.336,-3.526,-13.924,-21.844,52.238,-11.724,-15.461,-11.9,-12.395,-21.037,-7.974,-4.176,-118.663
3.405779999999595,-24.148,0.698,-71.97,-4.055,-4.085,-12.266,109.809,20.834,-22.012,-13.835,-3.896,-22.032,-26.124,-8.684,-18.765,-20.141,-29.639,6.211,-5.713,-11.576,59.87,0.071,-8.273,-0.617,-29.801,-12.819,-4.892,3.001,-113.934
3.4058470999998463,2.516,10.431,-66.775,5.17,2.579,5.165,138.901,33.621,-13.793,2.06,9.428,-11.764,-14.315,15.404,-6.451,-13.461,-16.29,25.672,7.1,1.755,69.032,13.903,1.469,8.605,-0.058,-2.56,5.871,13.244,-97.426
3.419885599999816,2.513,7.347,-73.881,0.042,3.601,7.209,106.486,38.711,-13.267,-2.041,5.832,-12.265,-13.789,7.704,-6.445,-14.472,-18.323,21.548,4.532,-4.394,68.963,8.254,-4.68,3.986,5.065,-6.144,5.865,6.058,-112.698
3.4199518000000353,-18.494,-0.858,-89.689,-8.667,-1.526,-6.118,139.168,24.327,-14.791,-12.285,-2.371,-17.888,-15.824,-6.137,-13.61,-14.97,-28.038,8.719,-4.182,-12.074,67.869,3.122,-9.799,2.957,-10.821,-10.236,-0.8,4.515,-125.393
3.4349459000000024,-18.988,-6.492,-89.599,-19.929,-11.258,-20.457,171.816,0.737,-22.973,-18.932,-6.979,-21.456,-24.517,-2.032,-21.281,-21.615,-31.084,10.247,-9.813,-13.599,69.338,0.558,-8.252,-1.657,7.12,-14.837,-1.824,7.585,-113.484
3.435015999999905,1.524,0.174,-67.992,-12.225,-3.05,-6.604,139.369,25.839,-16.802,-6.618,-1.337,-14.774,-21.419,3.606,-14.6,-22.106,-23.881,18.434,-3.144,-8.975,77.466,4.143,-2.096,0.907,30.679,-10.211,4.838,8.602,-108.248
3.4498744999996234,8.694,12.469,-61.777,6.743,8.736,19.018,106.954,58.601,-0.904,10.295,13.009,-6.05,-4.491,2.065,-3.315,-12.35,-21.808,18.928,4.544,-2.306,82.511,13.873,3.029,17.3,14.767,4.656,8.419,17.815,-119.41
3.449935699999969,-17.442,0.674,-91.429,-11.195,-10.74,-0.469,139.635,26.267,-19.346,-9.183,0.189,-20.901,-20.881,-11.257,-21.242,-22.584,-39.204,5.589,-11.854,-16.136,70.133,1.564,-9.781,7.548,-17.523,-4.058,-2.86,11.137,-131.586
3.4669903999997587,-31.769,-17.77,-111.83,-32.188,-27.124,-32.744,172.283,-6.035,-42.381,-34.79,-23.89,-38.811,-47.5,-23.541,-36.59,-41.004,-50.948,-4.151,-26.699,-32.001,59.817,-15.344,-23.604,-12.951,-24.678,-23.521,-10.542,-8.342,-134.529
3.4670609999998305,-5.097,-3.408,-90.713,-2.954,-7.116,-7.608,139.835,26.759,-16.723,-13.238,-6.448,-22.891,-26.448,-9.685,-12.987,-28.668,-34.503,9.686,-6.18,-14.039,74.102,3.627,-7.187,5.505,2.499,-9.153,4.325,5.499,-120.562
3.480381099999704,5.666,11.453,-66.032,13.442,3.137,24.675,107.42,59.52,9.421,11.366,15.588,-4.425,-3.368,1.595,-1.191,-13.27,-24.223,20.435,6.121,0.32,88.372,18.992,4.091,16.77,13.768,5.713,12.518,19.326,-109.17
3.4804441999999653,-18.93,-7.514,-78.773,-18.846,-16.846,1.084,140.1,31.284,-11.08,-8.113,-5.432,-21.839,-24.369,-19.411,-26.806,-29.138,-43.666,0.947,-16.426,-20.685,77.526,-4.593,-16.405,-10.399,-16.472,-17.347,-4.913,-10.92,-128.529
3.4950552999998763,-13.788,-17.24,-104.822,-30.098,-26.051,-19.409,172.748,2.051,-28.488,-23.474,-19.771,-35.649,-37.664,-31.175,-33.951,-39.867,-54.381,-11.862,-22.558,-28.349,67.714,-15.859,-25.098,-16.536,-29.776,-28.6,-11.568,-19.106,-150.942
3.5099710999998024,11.329,3.782,-99.082,2.207,-15.779,1.103,140.3,24.59,-11.553,-6.032,-0.284,-20.244,-20.721,-12.188,-17.011,-27.02,-35.371,8.642,-1.018,-7.828,81.991,7.723,-4.58,7.046,-4.643,-8.079,3.3,13.701,-137.983
3.510044099999959,0.046,11.462,-78.491,8.865,-11.665,10.835,152.455,37.373,-0.271,4.22,6.376,-11.515,-11.478,0.119,-16.994,-20.333,-20.991,27.077,7.692,-1.673,93.692,17.449,5.67,10.113,6.632,1.663,8.42,18.298,-121.452
3.510087499999827,-17.372,-4.431,-84.56,-18.809,-16.776,-5.569,185.09,15.307,-13.078,-8.592,-4.901,-21.237,-21.201,-1.93,-27.735,-27.485,-29.679,16.291,-3.586,-12.429,84.377,3.087,-4.581,-2.705,-3.108,-8.073,-0.297,-6.823,-140.798
3.5267093999996177,-3.522,-13.648,-102.406,-28.011,-18.296,-16.322,152.63,4.533,-26.385,-19.342,-10.019,-26.851,-32.963,-7.051,-26.683,-31.043,-37.334,2.955,-12.804,-17.028,82.756,-5.113,-11.749,-3.727,-13.351,-13.188,-4.908,-14.501,-155.002
3.526769499999773,8.776,-7.486,-96.156,-8.516,-12.642,-13.232,120.202,14.262,-23.285,-17.273,-7.448,-21.189,-31.393,-8.581,-19.996,-27.938,-31.149,14.735,-7.156,-9.838,95.993,4.626,-5.59,8.06,-17.436,-3.953,-2.341,-3.216,-127.182
3.540106999999807,-0.454,4.816,-77.617,8.911,-1.871,0.613,152.869,26.031,-4.818,-1.887,5.368,-9.385,-12.406,5.26,-14.341,-16.127,-15.237,37.774,8.733,4.004,103.069,19.478,8.76,20.347,12.807,10.396,8.932,16.767,-108.612
3.5401692000000367,-10.7,13.009,-74.978,10.439,5.815,14.445,140.933,40.35,9.531,11.435,16.121,-1.691,-1.123,15.501,-10.228,-5.865,-7.024,39.273,11.798,7.074,102.966,19.971,14.899,17.766,45.582,10.897,15.583,26.484,-131.045
3.555035699999735,-7.103,5.311,-83.099,3.257,1.711,8.795,108.517,41.846,-1.749,1.178,4.322,-11.423,-12.392,-5.519,-11.755,-16.105,-21.874,16.18,-3.071,-9.327,97.74,6.631,0.54,10.063,13.261,-2.433,4.809,8.015,-139.111
3.5701036999998905,1.101,-5.965,-87.115,-2.894,-8.537,-4.533,141.196,20.8,-20.191,-16.754,-8.49,-22.682,-25.7,-19.858,-17.891,-31.971,-37.222,2.844,-11.265,-18.54,92.007,2.014,-7.658,16.713,-19.027,-4.993,-2.881,-1.215,-119.504
3.5701728999997613,1.1,5.312,-74.732,5.306,-2.381,-0.431,173.843,21.804,-12.486,-10.078,0.227,-16.512,-23.113,2.703,-19.922,-25.279,-26.426,14.112,-0.495,-9.3,101.137,14.307,8.232,28.479,5.582,8.332,8.905,22.353,-118.872
3.5851206999996066,-0.438,20.676,-55.702,19.133,15.552,11.865,141.393,48.934,1.871,2.74,6.887,-8.811,-15.405,11.409,-14.267,-13.471,-17.178,21.782,3.091,-5.192,111.282,14.805,10.785,28.963,38.364,12.423,14.532,33.089,-120.802
3.5892831999999544,-2.487,3.236,-62.307,3.744,8.877,3.144,133.567,38.639,-11.963,-12.119,-7.464,-20.585,-24.611,-15.754,-17.326,-27.802,-32.018,6.904,-17.916,-21.58,96.313,-10.313,-14.329,13.053,15.272,-10.131,-4.951,6.928,-103.263
3.6019375999999284,-20.927,-23.407,-89.397,-25.973,-16.235,-20.937,166.221,6.325,-30.394,-33.624,-24.875,-35.934,-41.493,-24.96,-35.24,-48.266,-44.793,-10.01,-35.829,-40.002,78.799,-31.307,-29.172,-9.502,-0.625,-35.224,-24.926,-15.621,-112.894
3.6020048999998835,-36.275,-15.699,-95.967,-18.263,-18.78,-25.015,153.247,9.905,-23.704,-31.029,-23.314,-32.312,-40.939,-9.054,-38.791,-42.583,-38.601,-5.389,-24.01,-34.327,87.941,-17.956,-15.822,-5.906,21.918,-25.968,-17.216,-2.285,-141.47
3.6153816999999435,-20.358,6.858,-80.502,4.809,-4.417,-6.035,120.819,33.461,-12.409,-17.166,-6.897,-19.472,-26.553,-4.946,-21.334,-26.658,-27.804,13.06,-4.006,-15.337,102.198,4.604,0.587,19.203,30.605,0.698,1.757,23.845,-126.984
3.6154812999998285,-1.382,8.901,-70.175,2.243,0.198,4.218,135.043,35.477,-12.397,-11.513,2.332,-17.403,-19.354,-3.916,-11.066,-23.046,-19.579,22.268,-2.465,-10.198,101.584,3.574,1.099,21.745,18.791,3.259,3.804,27.92,-101.754
3.630170999999791,-8.553,1.72,-70.105,-3.395,-1.851,-0.397,148.228,30.831,-11.872,-10.989,-2.281,-19.947,-20.872,2.747,-17.203,-28.146,-18.023,17.635,-6.561,-16.336,98.92,-6.163,-6.074,9.94,16.723,-6.478,-3.372,14.059,-119.07
3.630238599999757,-21.864,-1.868,-73.109,-2.879,-7.997,-8.594,158.838,24.14,-13.397,-17.638,-12.525,-23.001,-26.999,-7.501,-27.432,-33.241,-23.64,10.445,-8.092,-18.881,99.334,-4.108,-8.118,14.029,11.583,-9.545,-5.93,4.824,-128.685
3.6451820999996016,-21.842,-9.551,-75.597,-15.172,-19.772,-19.344,174.561,16.431,-20.044,-26.842,-17.636,-28.101,-30.558,-16.715,-32.015,-35.257,-23.616,12.996,-11.67,-20.399,94.624,-3.079,-5.036,16.576,4.4,-13.122,-8.486,4.307,-101.917
3.6489960999997493,-15.673,-13.64,-80.132,-21.816,-23.339,-17.787,142.111,26.148,-17.462,-22.205,-14.032,-27.048,-26.941,0.72,-26.86,-30.098,-17.445,24.254,-11.658,-20.379,90.431,-7.687,-5.031,6.826,18.227,-15.67,-9.502,5.839,-103.352
3.6608484999997017,-15.657,-13.114,-92.86,-16.159,-24.34,-7.523,109.693,34.832,-14.371,-17.059,-12.993,-27.021,-30.501,5.33,-27.858,-31.093,-24.6,20.131,-16.769,-22.92,90.34,-15.364,-15.272,-4.452,22.82,-19.753,-8.98,4.297,-135.524
3.6609140999999,-23.838,-17.712,-105.063,-23.315,-29.951,-16.225,134.174,19.94,-25.627,-30.362,-24.763,-36.216,-44.815,-19.266,-43.199,-42.845,-40.457,-1.406,-33.659,-35.192,86.664,-26.107,-25.503,-14.693,1.28,-29.979,-13.582,0.706,-153.831
3.6752487999997356,-22.278,-15.132,-98.297,-25.341,-25.31,-26.967,166.828,8.137,-32.262,-40.066,-29.862,-37.717,-47.844,-25.907,-42.644,-42.802,-38.879,-3.454,-31.576,-35.157,86.065,-21.982,-16.256,-9.556,-2.819,-24.314,-14.081,3.267,-129.087
3.6753129999997327,-10.472,-3.847,-78.731,-8.41,-16.063,-14.133,179.469,19.399,-21.471,-29.78,-17.536,-25.384,-33.964,-7.95,-25.695,-30.976,-23.471,17.042,-9.003,-21.29,95.2,-1.98,1.691,11.459,9.479,-4.31,-5.87,9.411,-102.317
3.690213699999731,-11.486,-3.843,-72.505,-2.766,-19.633,-5.922,147.014,29.626,-15.302,-20.528,-9.322,-21.26,-27.27,-3.844,-24.132,-26.847,-18.325,24.197,-5.408,-20.244,98.691,4.682,2.202,20.156,13.055,-2.769,-1.253,10.427,-96.58
3.6902765999998337,-22.233,-12.036,-79.605,-12.497,-23.712,-14.625,114.591,24.986,-23.483,-25.631,-14.948,-26.874,-33.902,-9.988,-31.28,-29.381,-22.405,20.075,-15.136,-25.347,94.494,-1.983,-2.411,16.038,37.633,-8.401,-1.252,14.002,-108.266
3.7052351999996063,-18.625,-10.999,-88.747,-18.632,-24.201,-17.684,112.427,17.788,-29.608,-32.777,-22.105,-30.433,-40.016,-8.441,-31.249,-32.938,-25.456,21.592,-11.535,-23.784,91.326,-1.981,1.178,14.485,65.772,-2.757,-0.738,15.013,-121.99
3.7091968999998244,-7.336,-4.328,-91.22,-20.663,-28.275,-14.593,132.807,20.332,-21.893,-30.695,-21.571,-29.89,-36.39,-6.383,-33.267,-35.467,-26.968,15.935,-8.449,-24.785,90.21,1.607,1.689,14.983,45.727,-0.193,7.459,12.949,-123.918
3.7219350000000304,-4.767,2.849,-80.37,-9.371,-20.562,-9.967,165.462,30.046,-10.601,-18.369,-10.791,-21.151,-24.57,-2.278,-30.672,-26.21,-21.818,14.382,-9.466,-20.15,95.243,4.68,3.224,23.165,22.115,1.856,37.166,25.231,-115.597
3.721998199999689,-9.373,5.92,-70.556,0.372,-8.246,-0.736,157.1,30.528,-9.053,-10.154,-4.12,-16.519,-18.91,4.896,-22.445,-17.987,-13.087,26.663,-4.333,-10.396,101.295,6.212,7.319,29.289,21.068,9.027,69.916,33.403,-101.649
3.7353840999999193,-15.511,-5.869,-81.756,-16.022,-18.996,-2.272,124.667,21.788,-15.192,-16.292,-16.411,-28.286,-27.089,0.281,-28.058,-26.678,-17.684,24.075,-9.964,-19.094,92.997,0.058,1.677,19.014,10.288,2.358,77.019,19.025,-91.301
3.749331699999857,-15.496,-13.036,-85.773,-21.642,-33.322,-10.467,131.203,25.865,-13.64,-19.861,-22.03,-32.356,-30.648,-6.892,-35.714,-28.188,-22.278,12.78,-15.077,-23.686,88.293,0.058,0.138,14.896,28.721,-3.28,72.331,13.37,-94.284
3.7493947999996635,-10.869,2.346,-64.17,3.483,-22.53,-1.235,157.199,41.208,-3.38,-10.108,-9.201,-19.004,-20.371,-0.737,-27.994,-15.864,-11.497,21.989,-2.767,-9.318,97.426,9.279,10.384,26.664,61.48,7.994,83.017,27.702,-99.825
3.764376799999809,-15.982,6.442,-60.52,5.529,-11.749,3.377,162.165,40.142,-4.913,-11.122,-10.728,-22.059,-20.35,-5.86,-27.966,-19.435,-10.973,25.04,-2.764,-10.845,93.743,4.147,5.251,20.49,39.39,4.4,88.057,24.6,-100.749
3.7644375999998374,-27.236,-13.032,-84.025,-18.043,-19.935,-12.508,138.437,28.832,-19.253,-25.456,-24.55,-35.357,-37.236,-23.272,-37.159,-32.735,-27.868,8.109,-21.204,-27.741,84.427,-9.689,-10.124,4.076,7.075,-13.023,76.186,9.206,-109.87
3.781265799999801,-25.16,-15.068,-83.941,-15.463,-22.476,-11.983,106.023,34.438,-17.697,-21.332,-19.402,-27.124,-37.199,-14.54,-30.974,-26.555,-24.254,8.613,-15.548,-21.565,95.101,-3.532,-3.966,10.732,23.974,-8.911,75.085,11.246,-116.933
3.7813342999997985,-12.327,1.853,-67.976,0.434,-15.281,6.985,138.705,43.625,-3.335,-6.454,-6.575,-14.802,-19.743,9.553,-20.697,-11.159,-2.713,24.999,1.886,-6.175,104.74,9.279,10.382,21.992,56.738,4.93,85.769,24.043,-110.156
3.794462199999998,-6.679,6.462,-72.519,-2.641,-20.901,2.879,171.354,30.262,-2.819,-9.521,-8.618,-18.885,-16.65,7.494,-26.824,-9.611,-4.247,22.924,-2.214,-8.73,99.512,6.708,5.249,18.383,35.676,3.9,86.707,29.654,-109.021
3.794528899999932,-13.333,3.382,-77.569,-7.761,-30.614,-8.907,138.907,18.448,-10.501,-17.196,-14.757,-24.502,-24.318,-4.809,-33.458,-16.774,-17.051,10.606,-8.872,-15.381,97.364,2.091,-3.465,15.804,3.365,-0.202,83.035,28.088,-107.887
3.809444900000017,-16.905,10.551,-71.344,0.444,-22.899,4.934,106.493,32.774,-6.392,-8.47,-9.619,-21.404,-19.683,1.856,-26.252,-14.708,-8.837,14.182,-0.666,-10.243,100.852,9.261,3.71,19.886,16.682,5.433,87.562,24.986,-88.312
3.809507399999802,-9.716,17.713,-68.711,12.226,-6.995,16.713,139.174,42.475,-1.775,1.273,0.637,-13.185,-10.954,8.514,-17.516,-5.984,2.443,26.463,5.482,-4.085,105.362,16.936,12.416,24.989,49.453,13.113,93.11,27.522,-77.977
3.824477999999999,-6.12,15.133,-62.495,11.189,-0.328,7.474,171.822,32.699,-3.822,-1.802,0.636,-10.61,-14.017,3.383,-13.4,-5.978,-0.633,28.998,2.915,-5.105,106.282,15.383,9.842,31.112,54.526,15.661,91.992,33.13,-88.145
3.824539299999742,-17.385,7.434,-61.407,-3.166,-1.864,3.368,139.375,38.814,-4.331,-8.973,-7.561,-18.284,-21.175,0.306,-11.85,-12.632,-6.268,18.723,-4.26,-14.322,97.978,7.17,6.246,30.056,41.664,10.522,84.216,29.511,-94.205
3.8414883000000373,-27.101,1.279,-82.351,-6.749,-7.498,4.902,125.916,50.046,-2.277,-12.038,-11.14,-26.975,-25.252,-4.306,-16.961,-16.205,-12.922,6.921,-11.94,-24.041,90.196,-2.571,2.141,19.78,41.11,1.803,72.861,21.797,-105.894
3.841554499999802,-24.001,-0.26,-95.076,-3.156,-17.224,-5.349,158.577,27.455,-7.398,-16.124,-14.715,-29.51,-29.838,-13.01,-28.215,-20.8,-21.618,3.84,-19.101,-29.14,90.618,-8.716,-8.619,10.027,28.261,-5.372,66.128,20.75,-127.305
3.855604299999868,-22.952,-0.772,-83.71,-10.838,-20.793,-10.979,159.444,12.058,-14.563,-22.256,-18.799,-29.993,-30.832,-13.51,-32.798,-21.804,-19.035,5.373,-22.668,-29.111,91.552,-6.658,-11.685,8.992,1.593,-6.391,66.574,19.705,-126.153
3.8695708999998715,-29.589,-1.283,-78.503,-11.339,-17.186,-0.722,127.009,41.247,-10.45,-16.598,-13.657,-25.352,-23.629,-4.275,-27.129,-12.56,-7.233,11.516,-14.96,-21.91,98.12,0.009,2.159,16.155,13.887,2.837,69.069,13.537,-105.022
3.869636899999932,-25.461,-0.257,-81.499,-1.594,-20.755,1.84,159.669,48.378,-2.755,-7.36,-8.52,-18.667,-16.946,8.025,-26.59,-6.4,-2.103,22.775,-2.138,-13.691,106.731,3.595,7.793,23.311,35.39,7.445,70.025,10.45,-96.72
3.8696805999998105,-10.066,-0.769,-79.368,-10.302,-23.808,-7.383,192.297,16.055,-6.338,-12.476,-11.586,-20.697,-19.49,11.603,-30.662,-10.492,-3.125,25.314,-3.16,-13.165,101.502,3.079,-0.412,22.776,18.961,2.315,69.442,18.124,-104.82
3.8845619999997325,-6.47,3.33,-80.313,-14.39,-16.1,-3.277,159.83,19.625,-9.406,-15.025,-11.062,-20.677,-24.594,2.882,-29.094,-8.945,-3.122,21.702,-7.768,-15.201,99.351,4.1,-0.412,23.265,21.503,4.874,68.861,30.401,-112.4
3.884629700000005,-16.71,11.011,-73.573,3.555,-11.985,10.046,127.395,48.807,-3.761,-5.788,-4.903,-12.971,-20.471,0.83,-26.504,-1.764,-1.07,26.291,-0.075,-9.55,108.473,8.195,9.323,30.414,54.27,15.115,68.792,32.933,-108.189
3.9006368000000293,-19.767,7.414,-55.569,2.527,-20.682,4.401,160.055,41.073,-3.245,-5.782,-5.41,-13.471,-13.79,8.514,-25.965,-2.786,0.981,28.314,2.486,-5.442,107.852,12.285,12.387,36.532,45.506,13.563,65.137,23.678,-95.274
3.914635999999973,-8.989,-1.303,-57.562,-12.332,-25.785,-5.338,192.682,28.224,-7.34,-12.437,-8.991,-18.58,-17.875,4.919,-24.402,-5.857,-3.119,18.04,-4.689,-10.048,101.597,10.224,7.252,34.958,16.771,9.963,60.461,23.654,-89.031
3.9147023999998964,-1.807,5.359,-73.386,0.488,-16.538,5.426,160.214,49.201,-0.16,-8.326,-7.445,-14.463,-21.443,1.328,-21.304,-4.315,-4.653,15.972,-5.709,-11.062,108.668,5.603,5.707,34.923,23.415,16.101,61.937,36.438,-87.917
3.9296113000000332,-9.49,15.087,-70.751,12.27,-6.275,15.154,151.857,62.984,4.963,-4.731,-3.339,-12.399,-15.274,9.524,-20.258,-5.847,0.987,24.153,-4.678,-9.514,114.707,6.622,7.751,38.987,37.736,17.11,62.388,40.5,-82.194
3.9296745999999985,-15.116,2.264,-66.07,-6.185,-8.83,-0.23,184.493,38.842,-8.362,-15.485,-11.021,-21.609,-20.382,5.928,-23.824,-12.501,-3.624,17.982,-13.383,-17.702,104.858,2.004,1.595,34.337,42.309,4.797,50.542,25.091,-86.722
3.944574999999986,-13.564,-21.304,-83.422,-28.208,-22.654,-21.234,211.973,6.528,-30.383,-33.4,-27.916,-32.858,-40.854,-10.472,-35.583,-22.735,-19.502,-0.48,-26.689,-30.492,93.482,-14.904,-10.702,14.323,35.606,-12.114,36.659,3.036,-103.542
3.9446348999999827,-22.772,-25.381,-97.171,-33.303,-31.34,-23.775,179.486,2.936,-33.939,-37.978,-31.474,-35.386,-44.399,-14.56,-45.281,-30.397,-23.581,-4.577,-32.298,-35.072,90.315,-23.086,-17.863,3.038,3.295,-20.299,32.012,-6.188,-117.783
3.9596410999997715,-31.458,-13.061,-89.902,-25.073,-23.624,-11.455,147.031,32.646,-16.486,-23.083,-22.221,-27.666,-31.035,-12.496,-42.162,-23.707,-15.873,4.649,-26.118,-30.938,92.786,-14.866,-15.284,16.867,-18.225,-12.594,34.541,4.577,-120.739
3.9635873999995965,-14.521,-8.437,-79.053,-10.191,-11.818,-6.833,157.642,43.885,-7.76,-16.912,-19.125,-20.466,-29.979,-14.533,-32.386,-15.486,-12.783,10.279,-18.407,-26.297,97.304,-9.216,-6.559,28.633,13.557,-3.872,37.068,15.33,-102.687
3.9756273999996665,4.961,-7.916,-72.826,-6.595,-11.293,-10.925,188.736,26.935,-16.974,-27.654,-18.081,-21.471,-33.023,-7.858,-26.718,-19.057,-9.184,18.978,-16.852,-20.635,100.793,-6.645,0.62,30.654,42.745,-3.868,36.519,16.852,-70.309
3.975695299999643,-5.802,2.338,-67.118,-9.662,-15.893,-5.791,170.104,32.543,-16.445,-24.04,-10.378,-19.4,-25.305,5.47,-28.741,-15.451,0.559,28.693,-12.224,-14.979,102.742,2.071,2.668,34.721,40.14,2.796,39.556,22.471,-67.165
3.9898103000000447,-22.19,8.483,-69.1,-2.48,-17.926,0.363,189.401,43.269,-6.695,-14.794,-7.806,-14.257,-22.206,7.001,-32.81,-6.727,0.046,22.004,-11.7,-16.501,102.639,2.069,-1.433,30.076,41.637,6.379,40.541,29.62,-97.324
3.9898771999996825,-16.02,-1.771,-86.962,-5.039,-22.519,-9.884,222.0,19.147,-13.86,-24.513,-18.045,-22.44,-30.381,-5.301,-35.339,-16.454,-11.225,7.638,-20.397,-24.169,97.413,-10.229,-8.604,16.726,38.522,-6.947,31.279,22.418,-111.571
4.004696199999671,-7.807,-10.479,-101.22,-20.915,-25.57,-18.071,189.502,7.857,-23.068,-30.636,-23.662,-29.078,-33.424,-11.956,-39.402,-25.147,-12.238,8.143,-22.939,-25.17,92.193,-10.731,-7.571,19.783,14.917,-11.039,23.051,10.101,-99.677
4.004756199999974,-13.947,-5.345,-89.848,-16.796,-17.86,-8.319,157.037,32.953,-10.75,-18.823,-11.855,-15.729,-25.706,-1.185,-37.314,-11.801,0.582,16.844,-11.133,-14.898,97.736,2.088,1.659,31.546,10.803,1.78,25.077,9.066,-89.331
4.019728799999939,-17.007,-0.729,-76.438,-6.021,-7.596,-1.651,154.831,42.653,-2.542,-13.169,-1.085,-8.028,-16.971,8.037,-26.006,-4.105,6.216,19.388,-2.924,-8.223,106.347,6.696,3.706,28.441,21.039,3.315,24.028,11.106,-95.901
4.023729399999866,-10.33,-10.462,-94.804,-20.872,-4.002,-10.871,155.701,27.242,-16.372,-21.865,-9.793,-18.779,-23.614,-2.729,-22.393,-14.859,-5.573,12.709,-13.68,-15.9,100.093,-3.556,-8.593,13.043,2.062,-8.984,8.634,-1.2,-118.347
4.036558699999659,-15.443,-21.722,-119.813,-34.683,-9.122,-21.106,154.008,16.456,-28.651,-31.577,-21.567,-25.932,-39.472,-15.022,-31.08,-23.041,-13.764,3.987,-28.011,-26.642,90.772,-14.824,-13.707,2.272,-11.26,-14.098,-8.793,-14.007,-131.036
4.036626999999953,-26.186,-16.065,-106.885,-22.865,-17.309,-21.597,186.642,13.366,-24.524,-32.057,-18.471,-23.345,-39.433,-10.396,-33.611,-19.432,-8.627,3.983,-19.786,-24.566,93.755,-9.686,-2.423,9.954,21.539,-7.936,-18.518,-5.284,-113.487
4.049819599999864,-22.061,-8.877,-79.114,-10.547,-14.73,-19.526,199.263,15.401,-21.425,-30.488,-16.916,-21.784,-33.246,-4.75,-31.016,-17.876,-5.545,8.59,-9.52,-17.882,96.735,-3.016,2.703,20.703,46.621,-4.854,-29.77,5.48,-101.59
4.049885199999608,-11.793,-19.114,-84.67,-15.147,-12.154,-26.679,166.788,14.361,-32.162,-42.241,-27.145,-28.423,-43.459,-14.479,-36.62,-27.08,-15.273,-0.128,-27.954,-28.11,88.441,-17.87,-11.645,8.899,15.836,-19.706,-53.306,-7.333,-117.37
4.064850899999783,-10.244,-25.755,-104.053,-22.817,-23.413,-34.337,199.409,5.125,-36.741,-50.396,-31.216,-34.542,-51.612,-24.199,-41.706,-32.176,-22.43,-9.862,-41.758,-37.816,87.328,-27.586,-18.293,-1.869,-16.455,-28.908,-70.672,-15.523,-123.913
