Timestamp,Cz,Fz,Fp1,F3,C1,C3,T7,C5,CP5,CP3,CP1,P1,P3,O1,CPz,Pz,Oz,O2,P4,P2,CP2,CP4,CP6,C6,T8,C4,C2,F4,Fp2
0.0,33.339,65.46,29.566,57.704,39.833,57.503,-13.753,47.706,37.746,45.442,35.731,20.88,24.144,310.732,22.823,42.925,22.531,46.202,39.446,34.97,51.384,44.752,45.494,54.522,6.831,77.406,42.167,34.339,46.104
0.004549799999949755,27.671,70.517,62.325,66.355,45.941,62.057,-32.695,53.293,35.659,41.811,37.744,16.76,22.07,319.642,32.022,44.419,27.12,49.23,37.357,33.91,52.87,42.145,40.838,52.418,39.099,74.255,42.637,55.821,78.846
0.016813400000046386,20.471,61.225,72.508,56.043,30.013,36.379,0.125,20.965,16.668,25.375,27.46,8.547,10.265,308.564,14.571,32.079,20.945,34.836,30.66,24.655,49.743,41.591,37.723,50.316,17.031,67.008,37.471,44.495,111.555
0.01687420000007478,35.819,80.632,105.224,70.844,37.155,44.028,-6.023,24.017,23.824,37.645,36.654,22.37,21.526,323.113,20.192,40.757,29.633,44.535,44.974,38.462,63.526,57.943,55.104,72.807,19.063,87.946,51.266,65.967,144.231
0.030061100000239094,57.813,111.29,137.906,92.802,61.709,75.747,-38.292,56.781,48.391,62.198,60.696,36.693,44.046,343.794,46.3,63.257,45.485,67.032,62.347,60.965,83.442,73.254,66.319,98.35,51.832,110.912,70.17,98.689,176.874
0.030126200000268,59.804,109.641,131.108,81.438,49.864,71.06,-18.274,46.99,45.268,57.013,58.074,30.508,38.366,332.18,40.618,60.633,42.366,63.891,56.649,55.781,84.383,68.058,60.618,101.326,36.923,108.239,64.977,99.615,164.914
0.04505310000013196,47.449,98.261,98.702,73.16,28.81,56.644,-31.063,37.21,32.928,46.71,45.721,27.404,25.008,328.774,24.184,49.814,37.2,54.606,50.445,47.016,80.713,62.867,60.557,99.687,6.148,101.983,56.715,92.855,132.474
0.04511559999991732,44.328,103.286,70.426,84.358,41.076,65.297,-31.032,47.931,38.53,53.835,52.335,33.524,34.717,347.4,31.844,56.424,44.335,59.674,60.128,56.191,87.292,71.513,67.157,101.125,38.929,107.517,64.855,102.496,114.411
0.060081800000261865,48.894,93.449,45.253,60.195,46.158,59.084,1.787,29.44,31.832,47.122,49.721,26.831,32.633,344.491,36.423,52.269,38.656,53.979,55.97,52.549,87.717,66.831,59.405,85.142,71.678,101.774,60.18,86.512,86.632
0.07608870000012757,42.698,64.666,14.469,27.859,30.743,36.483,-30.49,12.504,13.869,29.656,32.765,16.558,10.059,334.413,25.116,38.384,27.858,40.093,39.008,36.102,80.969,50.883,47.05,69.687,39.331,84.253,43.213,54.15,54.782
0.07615250000026208,33.946,58.454,0.622,23.733,35.323,41.058,-62.735,36.57,24.101,39.36,37.855,23.201,15.684,344.325,27.14,45.518,37.052,49.274,45.629,43.238,89.085,58.516,56.737,81.913,18.799,87.755,47.781,44.875,34.747
0.09013619999996081,41.596,67.104,-21.92,48.812,45.534,58.435,-36.033,53.44,41.496,51.616,47.551,27.789,33.599,346.542,35.31,53.67,43.163,59.471,57.878,52.929,99.242,69.216,67.951,91.053,37.736,99.963,55.93,53.539,9.097
0.0902046999999584,45.141,52.18,-54.174,35.956,32.681,46.081,-3.209,30.845,27.11,31.585,31.622,16.49,17.172,333.9,26.053,39.784,28.263,43.018,43.988,37.507,91.459,55.315,52.001,76.105,5.423,87.055,42.042,31.968,-15.503
0.10509120000006078,29.214,37.784,-72.562,8.255,22.914,26.567,19.848,11.859,12.738,20.282,22.369,11.351,2.81,336.128,14.244,34.621,27.21,36.827,32.161,29.785,89.318,43.476,39.654,67.832,-5.341,71.599,33.803,6.321,-33.418
0.10515209999994113,20.988,42.869,-80.687,15.419,31.088,36.275,7.021,21.068,23.484,39.217,37.716,22.61,20.738,347.575,20.377,47.906,41.015,51.647,39.814,40.513,103.061,48.556,47.299,66.227,27.452,75.114,41.454,12.462,-64.635
0.12010929999996733,31.725,37.703,-112.882,23.601,34.643,45.972,-25.262,26.683,26.022,42.252,38.703,22.587,25.328,340.567,26.504,45.809,33.289,43.911,36.7,38.936,107.056,46.458,40.592,55.915,19.228,71.965,38.338,17.573,-96.846
0.12016720000019632,36.305,20.759,-140.433,-1.526,28.973,27.483,-21.65,10.262,13.188,22.742,23.295,10.782,9.421,322.296,21.355,31.419,18.911,25.424,24.88,28.651,99.777,39.239,27.231,53.81,-13.067,61.134,28.566,2.186,-110.069
0.13639310000007754,30.121,19.714,-132.608,-18.431,24.333,19.771,11.159,8.715,17.273,24.256,24.296,12.82,9.924,320.436,17.747,33.436,23.503,30.522,28.441,27.085,103.263,40.225,37.962,57.854,-9.468,64.147,29.562,-6.013,-105.349
0.13647089999994932,23.943,23.792,-133.5,-8.678,19.698,33.584,-21.128,29.711,29.039,35.503,28.883,17.418,12.988,328.313,17.217,39.038,25.017,34.077,29.95,25.521,108.795,38.648,41.51,48.062,23.329,63.57,31.069,-10.105,-108.829
0.15020869999989372,22.382,21.207,-156.933,-8.67,15.068,30.989,-53.382,33.267,21.325,24.709,19.632,8.692,4.266,324.398,12.077,32.339,17.307,25.846,19.674,21.397,104.076,31.437,29.174,43.916,8.961,53.773,23.866,-18.292,-132.799
0.15027180000015505,22.359,23.747,-166.51,-15.833,10.442,21.224,-20.541,14.791,12.595,19.049,17.563,7.658,7.335,320.488,6.942,29.233,21.9,32.993,22.728,21.888,102.435,33.967,35.292,54.118,-1.806,56.793,19.744,-14.688,-145.474
0.16523030000007566,13.628,24.236,-161.22,-8.645,11.968,26.326,12.268,4.53,18.218,28.251,22.669,15.847,14.5,327.34,6.935,31.765,26.489,36.546,28.853,22.379,107.968,37.519,41.404,54.576,24.323,60.835,20.236,-8.525,-127.398
0.16530890000012732,5.93,17.552,-161.059,-8.124,25.277,25.275,-20.02,8.112,18.712,24.124,18.036,12.758,8.338,320.352,10.002,27.123,15.704,19.603,17.041,20.307,111.446,31.334,28.555,45.813,24.299,51.04,17.142,-15.177,-128.807
0.18023140000013882,17.194,19.583,-165.509,-18.362,33.448,20.639,-52.276,19.374,14.082,18.465,17.505,9.671,4.231,303.638,18.189,25.047,11.078,15.997,12.413,20.799,110.822,27.716,27.502,44.742,-8.001,49.964,15.588,-15.674,-159.417
0.18028970000023037,18.714,21.101,-173.028,-17.832,24.193,26.253,-19.436,22.429,15.093,25.619,22.098,13.76,5.764,304.871,19.707,29.632,18.239,24.691,22.135,23.34,108.662,32.299,32.598,44.697,-21.313,55.038,20.696,-15.146,-164.893
0.19673039999997854,-2.821,8.784,-183.101,-21.912,12.898,19.567,13.372,6.012,7.393,17.908,13.879,8.111,-2.439,311.227,4.831,24.992,21.295,23.641,18.014,19.218,105.992,27.144,20.27,35.943,-8.996,45.249,17.089,-34.598,-150.896
0.19680220000009285,-2.306,2.116,-182.406,-34.698,9.299,7.252,-18.917,-4.24,-3.885,6.108,5.669,0.418,-8.584,308.354,-2.859,18.819,21.273,22.593,10.824,12.539,104.861,18.92,15.639,25.661,2.796,37.519,6.826,-44.81,-155.355
0.2113764999999148,18.701,13.896,-173.514,-24.417,9.29,16.979,-51.174,8.572,3.291,17.372,12.323,6.053,1.671,312.656,9.44,25.46,28.424,28.206,20.547,17.137,110.904,25.049,28.431,33.833,8.429,45.678,12.966,-23.248,-162.885
0.21145620000015697,12.022,20.543,-170.779,-6.974,8.256,24.646,-18.335,10.101,11.997,22.99,16.921,10.145,10.378,316.954,11.479,31.583,34.544,33.301,24.112,23.267,116.941,29.122,31.476,46.606,-1.826,48.706,24.224,-13.491,-159.648
0.2253218000000743,-7.458,5.153,-182.391,-20.8,-6.609,6.179,14.471,-11.939,-1.847,2.475,2.56,-0.623,-5.001,304.854,-9.024,19.256,24.263,31.218,5.645,10.437,107.603,12.187,16.588,30.166,-34.099,33.288,11.905,-39.093,-162.562
0.22539319999987129,2.283,-11.246,-192.967,-37.173,-15.824,-8.172,-17.819,-21.148,-17.215,-8.286,-12.812,-11.893,-23.952,292.254,-18.749,4.379,9.382,20.429,-6.656,-3.406,97.761,1.416,7.862,13.23,-41.75,21.472,-2.964,-56.472,-156.764
0.24032500000021173,15.601,1.573,-174.331,-21.254,1.61,4.644,-50.076,-3.196,-5.927,4.018,-2.553,-4.709,-13.682,293.499,-4.898,13.597,16.545,21.945,7.695,9.917,111.496,20.882,23.736,37.807,-8.92,35.795,9.846,-36.436,-136.627
0.2553100000000086,5.339,20.014,-147.517,-3.302,11.342,21.545,-17.238,8.078,12.01,15.284,16.405,10.665,4.775,300.378,3.304,30.489,32.41,44.977,29.205,27.326,126.753,42.891,42.155,59.799,23.876,55.227,25.206,-11.296,-134.954
0.25922880000007353,3.285,11.797,-160.177,-9.959,1.085,21.011,-10.049,-1.152,11.998,15.269,14.852,10.142,0.672,299.565,0.227,26.36,28.791,51.592,31.737,23.2,120.479,39.262,38.527,46.931,5.409,51.073,21.082,-14.359,-151.213
0.2720463999999083,23.774,5.126,-180.509,-15.584,12.355,20.478,-42.314,-1.663,9.937,20.377,13.812,9.619,0.671,296.704,11.497,24.285,24.152,39.757,28.119,23.689,124.969,35.124,34.39,46.884,-15.601,48.461,21.061,-27.665,-146.451
0.27211250000027576,30.41,21.514,-171.619,-7.371,30.273,35.315,-22.804,9.097,19.148,30.603,28.143,22.93,18.089,301.018,23.269,39.63,34.374,46.378,36.8,36.473,140.726,46.872,44.089,61.182,-6.876,62.757,31.286,-25.588,-136.058
0.28540819999989253,13.986,19.444,-174.522,-7.876,18.972,37.328,-8.949,2.94,15.031,26.986,25.041,20.345,13.972,294.569,12.999,37.541,32.802,50.43,37.788,31.314,135.974,44.776,39.434,46.776,-2.258,57.059,30.743,-24.025,-157.951
0.28547340000022814,8.849,-1.068,-191.766,-23.238,8.195,15.774,-41.216,-14.481,-1.89,12.102,7.597,2.394,-6.022,269.171,6.326,21.109,15.863,28.862,21.356,15.913,123.543,26.8,24.026,27.262,-9.941,39.071,19.441,-36.297,-180.335
0.3011123999999654,18.061,-2.092,-187.475,-29.875,9.723,6.537,-8.387,-26.762,-4.45,7.991,7.078,2.392,-6.016,256.095,8.369,22.113,7.651,12.952,13.65,17.434,124.956,23.7,22.465,31.845,-26.837,42.106,17.372,-42.408,-173.495
0.30117139999993014,19.068,4.058,-185.239,-23.185,-2.07,16.264,24.409,-27.76,1.702,13.107,14.243,11.611,0.65,261.474,-3.422,29.775,10.717,13.964,20.809,24.077,129.442,33.922,28.078,35.912,-59.085,46.162,22.478,-38.779,-167.686
0.3153517999999167,21.098,4.566,-191.713,-12.403,-2.58,24.957,-7.89,-2.629,9.385,23.852,18.327,15.186,5.261,262.749,-4.956,34.356,16.854,20.61,25.399,26.102,138.534,36.962,29.586,37.413,-62.613,44.579,26.042,-34.13,-168.543
0.32025049999992916,32.348,13.271,-175.64,-0.608,20.477,38.765,-40.158,25.55,25.257,36.123,31.116,20.293,19.088,266.585,15.029,43.543,25.034,30.835,26.911,30.686,150.179,35.901,32.118,38.4,-29.762,52.219,30.114,-24.874,-159.665
0.33197389999986626,30.779,14.282,-168.804,-2.144,22.505,42.312,-7.33,9.643,23.183,31.989,30.061,19.249,19.069,268.88,15.526,42.988,23.472,26.706,23.81,27.07,144.393,31.766,29.012,26.066,-4.117,44.482,28.547,-28.435,-164.116
0.332036600000265,15.891,-1.101,-187.079,-20.585,4.552,18.703,15.219,-22.13,-1.431,14.026,10.051,7.958,2.143,247.606,-1.395,29.625,12.178,8.236,13.54,15.259,134.003,23.025,18.737,19.38,-36.388,27.019,16.736,-51.461,-174.198
0.3453180000001339,11.777,-1.612,-183.818,-29.786,8.134,7.926,-17.072,-20.57,-2.455,12.475,7.991,5.901,1.117,233.527,-1.906,25.497,8.579,7.715,11.477,13.707,136.942,23.514,16.669,26.533,-68.627,35.189,13.645,-55.508,-164.802
0.3453834000001734,18.937,12.221,-171.339,-15.411,23.495,26.361,15.733,-4.156,15.991,25.27,19.766,10.506,9.825,244.564,6.805,31.619,15.231,20.003,17.101,18.304,141.416,29.639,22.8,23.945,-35.771,45.912,22.341,-33.423,-161.564
0.3603443000001789,20.455,17.845,-175.266,2.023,22.447,36.581,5.983,8.144,15.463,29.344,19.747,8.959,8.79,243.295,8.847,34.661,21.876,20.495,16.572,17.774,142.812,28.584,24.314,21.36,-11.144,38.694,25.904,-26.73,-172.673
0.3604095000000598,19.922,21.413,-166.894,8.681,16.277,39.106,-26.298,22.48,13.91,29.314,22.288,11.511,10.318,232.805,10.888,37.188,27.489,24.061,20.141,21.854,150.354,29.068,26.339,34.658,-31.626,44.291,27.928,-30.801,-164.303
0.37533280000025115,26.562,26.515,-159.554,5.086,18.822,45.215,6.516,20.408,21.581,34.408,29.438,18.16,14.919,239.745,12.414,40.225,32.585,33.771,28.318,29.517,155.326,36.724,31.948,40.259,-29.545,53.468,35.072,-21.549,-155.942
0.3792278000000806,27.048,22.39,-171.178,-0.042,22.389,36.973,39.297,-2.666,12.338,30.275,21.212,12.506,9.269,239.505,11.889,34.549,26.404,25.54,21.117,24.877,149.536,30.539,24.232,24.849,-13.634,42.144,28.889,-17.941,-172.692
0.39212010000028386,12.676,15.195,-159.224,2.007,18.268,28.226,6.983,-6.249,2.592,19.486,11.969,0.711,2.087,217.749,5.73,24.268,13.058,9.121,4.702,11.532,141.189,13.603,9.351,10.992,-32.575,30.319,14.516,-27.657,-169.958
0.3921871000002284,7.028,16.717,-134.474,7.64,13.639,38.957,-25.3,19.372,13.86,24.078,16.568,1.222,2.597,206.772,-4.01,24.244,12.533,13.722,3.161,9.471,142.073,15.638,14.464,17.129,-44.838,32.85,16.55,-27.117,-137.513
0.4054092000001219,23.415,25.409,-140.487,11.731,20.286,47.627,7.513,29.087,21.018,34.812,22.699,9.418,6.693,215.787,-0.932,32.417,22.766,26.516,11.354,21.245,150.127,29.967,26.745,31.456,-24.301,42.039,29.342,-19.406,-129.691
0.4054753000000346,32.101,27.945,-158.277,11.207,26.413,39.895,40.293,6.516,12.8,28.63,22.164,10.433,5.662,220.694,6.241,31.36,22.231,22.904,11.343,23.785,149.977,26.863,20.059,26.814,-18.641,46.607,28.8,-20.411,-149.541
0.42037340000024415,19.261,18.696,-161.193,1.462,16.14,31.146,27.445,-11.421,6.64,17.842,17.019,3.25,-1.004,207.154,-1.962,23.644,13.5,11.61,3.135,13.003,140.606,15.566,10.817,12.955,-28.869,36.315,19.037,-23.464,-162.199
0.4204327000002195,7.971,16.628,-152.835,-4.175,8.44,32.139,-4.857,0.886,11.244,23.972,15.465,3.76,1.046,198.237,-7.083,24.132,16.56,14.672,4.156,12.478,143.027,21.185,17.978,21.139,-29.865,31.668,19.018,-15.756,-161.012
0.43544040000006135,13.086,32.493,-132.702,7.612,20.727,45.939,-26.882,24.451,24.04,37.781,27.233,14.514,15.902,212.896,7.781,33.842,28.839,31.052,19.521,26.81,153.13,34.484,28.207,34.95,-23.175,47.005,32.319,-2.933,-148.044
0.45259759999999005,20.246,36.046,-126.421,14.777,24.292,52.041,-24.293,27.5,27.09,39.792,32.329,17.574,19.985,219.855,15.458,38.419,32.908,39.217,26.674,30.881,151.44,35.474,26.642,28.768,-12.905,53.106,38.435,-7.028,-131.502
0.4526630999998815,16.127,19.617,-148.324,3.491,6.337,35.595,-20.683,10.054,11.182,28.481,18.976,7.31,6.645,200.168,4.684,29.159,25.191,30.981,14.864,20.092,143.604,25.705,19.443,21.054,-26.213,39.22,25.589,-27.001,-133.419
0.4654669000001377,8.938,11.912,-160.471,1.439,7.868,29.924,-52.938,5.433,5.023,24.355,15.883,6.278,2.027,187.672,3.142,24.519,20.555,25.315,12.8,19.047,146.534,27.216,20.448,24.619,-48.728,36.107,18.903,-29.023,-155.827
0.46553610000000845,14.565,22.659,-151.602,15.782,32.963,46.288,-83.623,25.92,21.412,36.113,30.724,17.542,11.759,194.657,17.484,36.79,25.657,29.388,24.571,30.299,152.535,35.898,27.6,26.132,-16.916,42.731,30.155,-10.039,-170.529
0.4804807000000437,23.26,27.247,-150.425,17.303,30.881,45.729,-50.752,27.944,23.952,36.077,28.644,15.988,12.26,193.438,20.028,36.753,28.193,25.772,19.935,26.17,146.235,29.202,21.937,20.47,13.327,38.078,31.149,-9.517,-163.186
0.4805463000002419,13.502,12.875,-156.423,-4.743,-1.426,24.679,-17.913,-0.261,4.972,14.524,10.173,2.14,-0.56,184.023,-0.997,18.786,22.017,17.55,1.472,9.75,134.818,15.341,10.132,11.228,-18.962,27.281,17.798,-32.049,-150.727
0.4954645000002529,0.681,-0.458,-160.365,-20.62,-11.67,19.019,-35.314,-12.044,-0.156,7.85,8.113,2.137,-3.634,180.253,-16.878,17.23,21.483,21.118,-0.066,10.253,133.146,15.838,12.683,8.655,-51.218,25.205,17.268,-44.824,-156.212
0.495524800000112,8.365,4.153,-163.278,-11.378,10.371,26.172,-67.554,-2.298,8.554,21.162,15.79,9.82,7.641,183.146,-5.59,28.996,27.609,26.733,12.229,19.464,136.599,20.945,19.33,13.257,-18.379,29.79,22.886,-39.656,-175.011
0.511460900000202,20.14,12.346,-164.139,2.466,24.705,30.757,-79.782,5.901,13.156,27.288,17.823,9.81,13.781,187.574,9.273,28.454,30.143,25.681,17.34,17.908,138.512,20.412,17.262,11.707,1.107,32.322,19.789,-33.981,-179.447
0.5115263000002415,16.534,17.457,-160.389,1.951,20.069,38.411,-90.461,18.191,17.241,27.773,21.904,12.362,10.693,180.214,4.14,29.451,27.552,24.631,16.811,23.013,141.447,26.027,17.757,10.159,-31.17,32.802,22.843,-33.435,-167.997
0.5255928999999924,10.882,24.1,-154.593,-0.1,15.951,39.909,-59.632,19.709,16.712,28.258,24.444,16.448,9.146,162.615,-0.475,35.057,22.913,20.508,17.306,31.699,142.843,30.612,19.788,15.784,-38.311,35.843,29.993,-32.889,-163.218
0.5256622000001698,15.994,22.538,-151.877,-1.125,12.349,29.111,-26.784,-2.34,5.424,19.52,16.734,12.333,5.55,158.866,3.624,28.361,19.304,15.877,14.215,23.47,137.064,24.433,16.182,10.645,-5.485,34.27,25.352,-31.32,-171.764
0.5405448999999862,15.978,11.245,-157.361,-8.296,-2.008,23.959,-59.033,-7.46,-2.266,13.353,11.082,9.247,-1.115,162.806,-3.552,22.698,22.871,14.324,8.565,13.713,129.243,18.773,13.092,2.95,5.279,26.039,19.179,-29.239,-178.764
0.540606999999909,7.253,9.185,-160.79,-8.288,-7.642,29.57,-91.249,9.453,2.347,19.488,15.682,11.287,-1.114,153.934,-13.282,23.187,25.41,13.285,7.532,18.822,128.089,21.316,13.079,13.193,-26.489,26.525,22.234,-33.308,-174.487
0.5555435999999645,12.881,13.274,-152.944,-1.107,7.735,30.053,-58.37,6.882,6.443,21.517,18.74,10.763,3.498,147.632,-3.023,22.652,22.31,17.37,9.574,21.365,128.985,23.856,13.578,21.889,-46.443,32.134,23.236,-43.009,-155.357
0.5556009000001723,28.749,8.65,-147.668,-5.717,12.338,24.387,-25.524,-4.395,3.875,15.348,14.623,10.24,1.957,149.534,4.153,23.654,25.362,26.574,8.54,18.27,127.832,21.271,15.614,14.695,-27.953,25.954,19.114,-45.527,-140.857
0.572646000000077,24.11,6.592,-152.131,-11.859,-1.506,19.752,-57.774,1.244,-0.227,13.796,10.51,8.693,-2.143,139.651,-10.196,24.655,27.386,20.4,6.994,17.739,125.655,18.176,14.574,12.119,-18.704,22.342,18.583,-37.285,-158.135
0.5727150000002439,11.79,16.832,-151.467,-2.625,2.081,26.393,-89.992,10.977,3.872,21.467,14.086,9.197,0.421,129.265,-12.747,22.069,20.698,11.67,9.036,19.259,128.603,22.769,15.584,19.279,-19.71,30.517,25.224,-25.465,-175.395
0.5861064999999144,18.951,20.913,-141.581,4.55,20.01,37.637,-63.774,12.503,10.528,28.105,22.781,15.335,4.006,134.771,6.221,24.608,19.141,17.294,11.589,21.801,131.548,29.406,19.667,21.309,1.827,33.56,29.81,-19.291,-160.875
0.5861675000001014,26.104,7.572,-145.026,-4.164,16.404,29.915,-30.923,2.244,3.857,20.392,18.147,12.758,-2.145,133.611,8.264,21.51,18.097,14.203,4.405,18.193,123.732,20.155,12.987,12.066,10.022,24.817,21.583,-28.494,-158.665
0.6006548999998813,16.857,-2.169,-158.713,-10.308,1.018,15.028,1.896,-9.541,-2.807,9.614,6.346,2.499,-8.291,118.109,-9.675,12.779,10.394,3.43,-4.309,9.465,114.387,8.352,4.777,5.906,-13.042,14.546,12.852,-40.248,-184.634
0.6007195000001957,15.303,8.592,-150.358,-0.051,4.091,23.722,-15.524,2.764,6.418,16.264,9.926,1.985,-4.184,113.892,-11.715,15.84,12.433,9.062,0.819,10.993,119.908,17.052,13.482,15.634,-30.447,15.556,18.475,-33.548,-180.351
0.6156776000002537,27.071,22.415,-130.74,12.756,20.993,38.555,-47.784,21.204,13.071,27.518,21.699,6.593,1.968,123.0,5.715,22.996,21.642,14.176,10.552,20.716,130.034,29.331,22.177,26.889,-35.54,30.398,28.19,-19.682,-153.531
0.6157369000002291,25.507,19.831,-138.294,10.694,30.706,34.418,-26.732,12.986,10.497,24.929,22.19,8.636,4.015,118.266,14.931,26.047,18.035,9.039,11.054,24.281,127.855,25.715,19.081,21.739,-17.574,35.49,26.113,-20.175,-157.476
0.6317478000000847,7.038,8.541,-155.061,-2.124,19.917,28.748,-39.513,5.801,9.462,22.343,15.507,8.627,4.523,104.315,5.695,24.997,11.357,10.567,4.895,17.597,119.53,16.98,15.988,8.397,6.01,18.037,15.841,-31.938,-169.101
0.6458031000001938,1.908,-1.202,-150.296,-10.831,4.015,27.183,-71.749,17.578,3.817,19.759,6.27,3.496,-3.678,100.113,-6.094,13.701,10.321,11.581,-4.332,4.772,111.726,7.742,10.337,3.266,-26.271,6.235,7.116,-44.713,-162.784
0.6458695000001171,16.763,1.361,-141.948,-9.796,7.085,23.057,-39.914,18.073,0.227,12.567,1.141,-0.094,-10.334,103.086,-6.088,5.49,12.872,8.495,-7.913,1.693,109.053,4.66,7.253,9.41,-58.52,12.889,9.158,-41.595,-156.986
0.6607613000001038,20.845,14.167,-141.806,-1.589,14.25,26.62,-7.086,7.808,12.522,17.165,9.337,7.591,1.459,100.422,-3.008,16.243,21.056,12.073,-1.246,12.45,115.091,12.853,14.418,18.11,-25.674,20.049,16.321,-23.11,-156.317
0.6608242000002065,9.553,12.616,-140.64,-1.075,6.551,30.18,-38.33,11.387,18.657,24.32,12.401,9.12,5.556,91.612,-8.128,16.739,20.522,11.036,-2.781,11.413,118.05,9.254,9.793,13.994,-1.058,16.955,12.718,-24.112,-160.771
0.6757548000000497,9.544,-0.716,-143.061,-12.345,0.397,25.026,-70.567,19.06,9.417,19.173,4.704,1.939,-7.257,86.91,-9.145,3.915,11.28,2.828,-11.488,-0.894,109.735,-3.051,-2.512,2.197,-33.332,10.278,5.021,-43.555,-172.394
0.6758236999999099,16.194,0.309,-151.115,-13.357,3.471,26.026,-37.709,12.893,6.334,16.592,7.261,6.547,-6.225,90.921,-5.549,8.522,15.368,1.801,-8.402,2.693,108.088,2.587,4.15,0.658,-34.323,7.194,9.627,-42.487,-179.394
0.6907446999998683,5.419,2.358,-156.599,-5.147,-2.168,24.975,-4.883,-3.001,5.815,16.063,10.328,11.152,0.953,91.855,-14.765,15.685,19.963,1.287,-6.857,9.35,110.542,7.196,8.244,2.194,-13.797,4.625,10.129,-38.346,-185.874
0.6947613000002093,-8.418,-8.403,-154.905,-11.289,-10.875,12.143,-37.154,-8.634,-1.363,7.338,-0.953,1.407,-9.294,84.591,-24.997,6.96,11.234,-0.251,-14.023,0.119,102.747,-3.57,-2.522,-1.907,-34.787,0.522,-0.127,-56.239,-184.151
0.7071340000002238,-1.238,-5.833,-142.967,-15.376,-1.643,12.131,-69.392,3.158,-1.362,7.843,-0.953,0.893,-10.822,85.018,-12.164,7.466,15.833,9.995,-6.836,1.144,104.181,0.532,2.091,6.804,-47.56,4.107,4.996,-56.695,-160.401
0.707198999999946,12.596,12.104,-131.554,0.008,14.24,25.438,-84.692,12.889,8.373,19.106,12.881,12.675,3.022,90.057,3.217,18.217,29.65,17.157,4.954,14.975,116.372,15.388,16.946,21.142,-34.193,17.423,19.848,-29.486,-150.507
0.720895400000245,9.509,12.092,-137.058,0.008,11.152,25.413,-60.529,5.191,6.828,16.525,11.331,12.15,-1.08,78.696,-6.007,15.125,21.423,9.968,-3.76,12.399,112.669,7.688,10.781,13.949,-31.085,16.381,15.218,-27.919,-167.775
0.7209625999998934,-4.332,-4.827,-147.167,-19.459,-4.74,14.117,-48.173,-6.597,-4.449,2.164,-2.513,2.916,-15.423,62.223,-20.858,5.376,9.619,5.347,-16.564,-1.446,104.36,-5.127,-4.086,-1.435,-26.443,-2.078,2.395,-54.531,-170.681
0.7359356000001753,-5.353,-7.383,-145.483,-16.878,-3.711,10.517,-37.878,-6.078,-4.957,0.625,-3.535,3.938,-13.359,61.649,-15.202,5.883,18.318,8.928,-11.937,0.092,110.915,1.026,-0.496,2.153,-16.683,-3.101,5.979,-52.94,-169.998
0.7359962000000451,1.825,4.919,-144.312,-2.517,8.076,17.678,-41.939,2.637,3.757,8.309,3.129,8.033,-6.173,66.71,-5.965,13.561,22.911,10.968,-3.728,7.264,112.854,8.197,9.75,12.397,-26.4,11.247,12.12,-28.296,-184.173
0.7508763000000727,-2.788,0.304,-148.267,-17.371,-3.203,13.562,-74.172,-3.001,-5.468,-5.019,-4.047,1.877,-15.389,55.373,-17.742,9.449,10.08,1.736,-12.946,-1.452,103.007,-2.057,1.031,6.749,-50.964,2.527,1.862,-36.977,-175.791
0.7549619999999777,-6.371,-18.652,-145.045,-34.773,-15.495,-4.382,-71.537,-24.002,-21.857,-23.97,-17.875,-8.371,-28.181,37.386,-30.532,-5.417,-0.176,-12.098,-27.278,-14.771,99.83,-13.326,-14.339,-5.553,-57.573,-17.456,-6.849,-63.58,-159.222
0.7666712999998708,3.882,-11.973,-136.703,-17.319,-0.111,-1.816,-39.702,-19.368,-10.564,-11.65,-11.709,-3.752,-20.468,36.324,-21.792,-0.288,6.484,-9.525,-20.078,-9.12,108.44,-4.091,-5.615,-0.424,-28.314,-7.192,0.33,-55.832,-171.358
0.7667363000000478,2.853,4.432,-134.517,2.678,7.062,17.653,-60.155,8.829,3.791,3.218,-0.427,4.961,-10.201,43.46,-16.135,10.983,11.601,2.268,-7.763,1.135,114.991,6.671,9.247,10.335,-9.843,7.159,4.941,-38.87,-178.871
0.7809946000002128,-12.519,-5.818,-142.067,-9.62,-12.925,8.926,-69.828,3.185,-10.557,-14.203,-13.234,-7.339,-25.048,36.757,-28.927,-3.885,2.88,-2.857,-19.026,-9.112,108.216,-4.094,-2.033,3.664,-38.522,-6.68,-5.823,-48.565,-172.032
0.7810617999998613,-10.457,-12.472,-142.437,-18.832,-17.523,-3.89,-36.971,-17.823,-19.256,-19.825,-20.906,-14.504,-31.171,30.06,-31.459,-12.078,3.389,-4.904,-26.691,-16.276,104.522,-11.262,-11.252,-3.512,-54.877,-13.846,-8.891,-48.004,-175.446
0.7959813000002214,4.41,3.934,-126.925,-6.518,-4.698,14.044,-69.209,-2.436,-3.355,2.737,-2.442,3.441,-8.598,42.838,-14.522,8.938,21.829,14.569,-8.221,-0.89,117.737,2.582,3.616,7.25,-25.621,3.074,1.364,-32.074,-169.636
0.796049099999891,3.893,3.93,-125.774,-8.56,-8.792,17.617,-83.997,4.226,-2.327,1.709,2.684,10.098,-2.954,50.992,-9.384,16.102,28.979,22.751,0.496,9.357,123.767,8.727,10.785,9.805,-7.665,6.145,3.412,-40.752,-159.22
0.809964200000195,-5.844,-14.005,-150.751,-27.507,-19.029,-8.016,-51.125,-28.053,-19.743,-18.272,-13.713,-3.745,-22.419,37.109,-22.695,4.303,17.167,7.872,-12.312,1.151,115.447,-2.04,-1.009,-0.964,-26.612,-8.718,-3.251,-52.494,-177.504
0.8268696000000091,-0.203,-11.941,-161.871,-25.431,-14.912,-9.033,-71.566,-33.148,-19.211,-14.668,-13.699,-3.229,-22.396,23.752,-28.82,2.761,11.515,2.741,-16.398,-2.437,116.868,-5.625,-3.057,-1.475,-48.103,-8.197,-4.785,-41.171,-189.622
0.8269381999998586,16.191,0.366,-145.315,-7.474,-7.212,14.03,-103.77,-0.328,-6.897,-1.333,-1.39,3.434,-8.029,25.777,-20.082,6.857,17.139,10.423,-7.673,1.664,124.948,3.603,6.167,5.699,-46.518,3.594,-0.17,-38.568,-167.403
0.8401191000002655,16.687,3.439,-133.387,-7.979,-4.643,16.577,-70.879,7.87,-4.328,0.717,-0.876,1.382,-6.997,29.337,-13.402,8.899,17.634,7.851,-4.591,3.199,128.409,10.771,9.747,9.279,-20.856,6.665,4.954,-43.14,-154.94
0.8401871999999457,-2.285,-0.15,-136.84,-22.316,-9.762,1.192,-38.02,-15.704,-10.472,-3.894,-7.023,-0.669,-13.65,21.111,-21.585,5.817,6.345,-8.039,-14.32,-3.976,128.793,3.588,2.565,5.684,-8.539,-0.514,2.9,-38.999,-171.691
0.8551243000001705,-2.795,-5.273,-140.801,-23.318,-16.924,-0.347,-70.258,-15.176,-13.023,-8.501,-11.627,-3.23,-19.784,1.622,-30.785,-3.923,-4.419,-19.814,-25.065,-11.657,127.128,-8.711,-6.147,-3.543,-33.634,-8.711,-5.813,-45.107,-180.741
0.855185800000072,20.262,-0.145,-140.148,-8.95,-9.735,16.048,-102.463,7.38,-3.276,-2.345,-3.418,-1.69,-15.153,-4.015,-18.459,-0.333,2.757,-14.671,-14.281,-2.936,135.197,0.519,-1.53,2.095,-52.556,-4.091,-0.684,-46.599,-169.802
0.8700518000000557,21.778,11.638,-136.422,1.817,9.23,22.692,-69.573,9.935,9.535,8.928,9.905,8.558,-0.793,13.408,-2.047,13.5,15.05,-1.336,2.127,11.412,149.919,15.376,10.767,18.487,-38.159,11.282,11.612,-26.572,-157.849
0.8701132999999572,1.264,10.09,-135.773,-4.845,12.295,11.91,-36.715,-7.494,3.378,4.821,7.846,11.624,-0.28,22.104,-6.143,8.875,14.01,2.763,-5.56,6.79,148.744,11.774,8.707,15.395,-29.923,14.345,9.039,-23.472,-163.326
0.8869493000001967,2.287,3.42,-139.224,-12.524,-0.013,12.411,-68.954,-5.949,-3.798,1.23,0.666,4.952,-6.428,12.86,-9.723,0.67,9.386,-1.338,-13.239,-0.902,142.96,7.152,1.014,3.596,-45.263,7.158,2.882,-38.305,-176.483
0.8870154999999613,9.458,2.392,-136.523,-8.413,-7.185,21.62,-101.16,8.401,2.354,7.889,2.715,1.873,-5.397,4.65,-5.615,3.231,9.376,-4.923,-9.127,1.148,147.428,5.095,-1.549,-0.506,-43.168,-0.022,0.83,-39.292,-174.257
0.9001980000002732,-5.409,-2.734,-131.776,-8.405,-13.326,9.815,-68.272,-4.415,-6.87,0.196,-7.022,-2.74,-14.101,-2.527,-20.466,-6.507,6.805,-7.991,-19.876,-7.05,145.744,-9.254,-8.72,-11.264,-16.485,-13.854,-8.904,-42.326,-164.349
0.9002623999999741,-5.403,-3.243,-131.644,-9.421,-19.972,2.121,-41.563,-16.706,-16.085,-8.001,-13.163,-5.298,-20.746,-2.012,-33.254,-12.648,10.897,-2.348,-23.955,-9.604,148.16,-8.22,-9.223,-10.74,-24.666,-15.377,-6.846,-49.456,-165.21
0.9152084000002105,13.557,7.006,-128.438,3.396,-6.12,21.074,-73.797,9.438,2.887,6.352,3.244,2.904,-6.381,10.285,-14.777,2.222,21.132,7.9,-3.951,3.213,164.405,8.694,3.081,9.763,-56.916,2.569,5.968,-40.185,-168.631
0.9152794999999969,0.736,-0.685,-132.921,3.905,6.181,15.418,-77.309,9.941,0.834,1.222,-1.37,-0.173,-12.522,0.541,-7.078,-1.879,13.426,1.745,-10.607,-4.987,159.63,-2.586,-3.582,2.069,-60.958,-3.581,-6.333,-43.731,-175.634
0.9301939000001767,-26.929,-24.251,-149.694,-20.69,-15.854,-16.873,-44.444,-22.344,-31.442,-30.03,-30.57,-15.542,-41.711,-30.198,-35.76,-28.005,-7.592,-18.237,-38.261,-28.548,140.003,-26.149,-25.095,-26.623,-32.72,-33.291,-27.331,-66.229,-191.852
0.930254800000057,-16.144,-19.104,-150.569,-22.718,-30.183,-15.832,-11.612,-35.642,-27.824,-27.95,-28.49,-12.452,-34.497,-28.631,-43.921,-27.464,-9.121,-20.78,-32.587,-23.397,149.084,-18.951,-18.41,-18.911,-30.638,-30.184,-19.107,-66.163,-189.099
0.9469960999999785,1.291,1.92,-134.024,1.383,-8.636,16.972,-43.876,-2.818,3.967,1.791,-5.408,1.392,-8.848,-4.011,-19.799,-12.58,6.77,-5.903,-19.747,-7.492,165.329,-6.636,-2.51,0.063,-33.681,-10.686,-5.768,-51.24,-167.905
0.9470599999999649,-15.104,-3.205,-134.403,1.894,-6.578,19.004,-76.108,14.603,-0.648,0.765,-9.501,-4.245,-18.06,-6.569,-22.853,-19.227,6.763,-6.921,-33.56,-16.193,157.991,-18.413,-15.827,-12.745,-36.209,-21.946,-15.496,-56.824,-171.324
0.9606541000002835,-26.872,-22.157,-141.953,-18.088,-30.137,-8.68,-43.244,-6.416,-19.603,-21.777,-26.397,-16.536,-37.51,-29.616,-46.396,-29.967,-8.613,-22.796,-43.26,-27.448,152.198,-27.104,-30.668,-25.54,-58.714,-38.831,-25.727,-68.038,-191.645
0.9607163999999102,-12.501,-23.16,-134.639,-21.144,-23.96,-12.769,-10.413,-22.804,-20.095,-25.342,-27.396,-17.031,-34.398,-34.197,-41.227,-25.838,-9.117,-20.212,-36.044,-23.322,158.706,-22.466,-23.465,-18.854,-51.996,-34.181,-22.115,-74.63,-184.793
0.975279700000101,-10.439,-18.013,-128.869,-16.512,-9.591,-7.121,-7.329,-21.244,-20.588,-19.169,-22.245,-15.477,-30.266,-24.941,-30.427,-22.226,1.651,-6.871,-33.447,-19.713,161.109,-21.419,-19.344,-15.762,-22.23,-31.073,-21.58,-80.191,-164.116
0.9903067000000192,-27.847,-16.971,-133.863,-17.52,-23.926,-8.139,-30.887,-9.952,-20.567,-16.588,-20.174,-14.95,-30.748,-29.015,-39.618,-22.716,1.649,-8.914,-32.901,-21.742,161.46,-19.348,-22.91,-15.746,-38.089,-34.116,-23.096,-71.913,-173.173
0.9903754000001754,-24.745,-10.294,-133.217,-10.843,-29.025,0.066,-43.664,-4.819,-11.325,-9.399,-15.543,-8.787,-22.52,-37.695,-34.455,-18.595,0.623,-14.028,-25.696,-19.159,167.446,-11.644,-16.74,-9.07,-63.666,-26.909,-17.95,-57.497,-193.492
1.0053047999999762,-3.204,-2.086,-130.522,-0.586,-9.528,10.313,-28.251,-7.376,-6.703,0.856,-6.818,-3.655,-14.301,-29.461,-13.929,-11.917,9.332,-4.28,-17.986,-10.943,177.013,-2.923,-6.477,2.21,-45.672,-13.562,-10.759,-55.39,-177.93
1.009074000000055,-0.127,-4.134,-130.391,-1.61,-4.396,7.741,-43.592,0.316,-6.184,1.88,-1.688,-2.115,-12.237,-18.673,-15.964,-6.782,17.007,3.921,-12.332,-4.784,184.52,4.764,-0.323,8.355,-14.376,-7.913,-7.162,-55.847,-154.186
1.0203679999999622,-10.373,-7.716,-130.261,-7.756,-10.027,2.098,-70.189,6.464,-3.616,-2.22,-5.785,-0.576,-11.2,-24.289,-26.706,-5.75,16.478,3.405,-11.295,-6.829,183.311,2.198,-2.884,-0.362,4.082,-14.566,-8.18,-53.742,-166.327
1.0204372000002877,-7.801,-4.122,-130.643,-9.797,-7.968,3.12,-46.552,-3.277,-6.174,-1.706,-8.853,-2.112,-11.701,-29.9,-24.63,-8.818,15.436,4.426,-17.432,-9.383,181.078,-8.563,-11.59,-11.12,-15.902,-20.699,-11.758,-52.664,-178.968
1.0353602000000137,-1.133,1.005,-127.951,-9.275,-13.083,7.215,-34.21,-4.81,-9.242,-0.167,-4.746,-4.159,-12.714,-26.284,-26.143,-7.272,17.47,7.496,-18.439,-7.325,184.996,-6.505,-12.091,-1.888,-48.162,-14.018,-9.184,-47.488,-158.297
1.0354287000000113,-8.304,-0.02,-121.675,-6.192,-23.316,10.282,-51.595,3.392,-6.159,0.858,-2.692,-3.13,-13.726,-28.82,-31.24,-2.654,16.94,3.39,-11.248,-5.268,186.348,2.723,-4.394,5.799,-29.158,-9.393,-4.565,-44.367,-148.405
1.0503383000000213,-15.981,-2.069,-120.529,-2.087,-20.219,9.759,-24.903,0.314,-4.616,4.443,-6.787,-2.615,-13.2,-34.426,-24.036,-2.139,14.362,-2.761,-7.651,-3.726,188.211,3.745,-1.316,-3.941,3.659,-11.945,-8.146,-49.958,-168.749
1.0504055999999764,-4.694,4.08,-123.482,-0.548,-7.903,13.336,7.909,-0.198,-0.512,9.562,-1.658,-0.051,-6.527,-34.904,-16.327,1.961,17.421,2.364,-3.545,3.962,199.806,9.377,4.321,0.161,-26.571,-3.736,-5.576,-45.809,-174.728
1.0653666000002886,12.729,16.372,-119.26,3.038,0.814,25.106,-9.517,13.634,10.247,18.774,11.664,8.146,4.238,-35.381,-10.676,11.693,22.015,11.584,5.681,12.668,206.778,21.663,14.05,18.092,-41.914,9.075,9.286,-34.493,-156.622
1.0694468000001507,13.741,24.04,-109.919,13.282,1.326,37.376,-41.783,25.916,16.384,31.05,17.288,12.237,6.795,-35.346,-2.468,16.292,23.017,10.035,9.773,15.729,208.108,23.178,15.061,18.586,-9.084,11.115,14.4,-33.434,-146.219
1.081499200000053,8.604,24.528,-105.711,23.002,-3.286,39.9,-38.155,28.452,16.88,33.069,17.271,9.663,4.739,-32.749,-5.027,16.276,26.068,4.902,7.202,16.225,212.511,20.081,14.021,13.445,-7.538,12.129,10.799,-28.277,-146.073
1.081566500000008,13.719,20.917,-109.704,19.393,-4.82,34.225,-5.329,18.177,14.814,25.351,18.79,5.555,3.71,-36.815,-12.707,16.26,26.554,7.459,6.683,14.16,214.348,18.012,12.47,14.456,-39.806,9.555,10.276,-21.076,-148.489
1.0954326999999466,16.779,16.798,-111.643,7.591,-3.278,28.555,22.853,2.277,7.114,20.715,14.161,4.012,0.632,-44.975,-8.596,13.682,19.356,10.013,5.139,8.51,212.596,13.383,4.773,6.244,-33.618,0.324,7.192,-35.912,-155.512
1.0955048000000716,12.664,15.757,-109.995,6.046,-2.763,26.99,-9.445,4.836,3.009,23.256,11.585,5.033,0.632,-45.442,-5.001,13.668,21.385,11.027,2.572,9.527,216.994,14.907,5.281,4.189,-19.24,0.324,5.136,-52.783,-156.894
1.1105682000002162,11.114,14.716,-117.569,7.577,0.314,27.987,-41.711,16.615,3.518,21.695,14.647,4.003,0.631,-41.298,-8.07,16.216,30.586,11.529,2.57,12.591,221.901,17.453,11.423,8.283,-20.246,2.885,6.667,-49.656,-160.835
1.1106393000000025,6.492,4.455,-128.723,-1.652,1.338,21.299,-47.305,10.45,-5.195,8.866,3.874,-5.735,-13.202,-50.991,-10.623,5.441,20.309,0.759,-5.118,0.283,215.019,5.14,1.165,-6.582,-15.615,-8.901,-0.512,-50.631,-176.044
1.1254579000001286,-2.223,-4.258,-122.446,-9.335,-8.909,11.544,-31.888,3.268,-13.386,2.709,-9.962,-10.852,-24.972,-67.334,-20.346,-6.347,2.87,-13.587,-18.945,-12.013,208.144,-6.136,-8.057,-13.748,-29.431,-15.552,-9.733,-59.289,-173.306
1.129476699999941,-3.758,0.869,-106.954,-4.715,-18.122,15.631,-3.679,8.387,-4.664,10.391,-4.317,-6.743,-15.725,-63.168,-28.011,-2.755,9.015,-8.45,-17.901,-4.316,212.546,-2.031,1.685,0.098,-46.308,-7.34,-7.161,-54.619,-151.616
1.1426476999999977,-6.316,1.893,-115.044,-2.149,-20.153,17.152,29.112,-0.33,-1.073,11.406,0.811,-7.248,-8.537,-52.346,-22.86,0.322,19.764,2.829,-10.199,0.299,217.457,0.02,1.683,-5.025,-32.942,-9.894,-3.056,-50.979,-162.735
1.1427293000001555,-11.945,-6.306,-137.983,-8.294,-20.133,4.328,37.28,-15.187,-9.781,1.66,-8.412,-9.29,-16.213,-61.003,-22.837,-3.265,14.109,-4.346,-13.775,-8.923,216.727,-3.566,-9.59,-18.852,-21.638,-18.081,-5.614,-56.563,-186.651
1.1555539000000863,-9.372,-4.763,-136.308,-7.774,-17.039,5.86,4.967,1.222,-3.624,3.708,-8.403,-5.182,-17.734,-70.676,-24.351,-1.212,8.46,-12.539,-16.322,-7.889,218.047,0.024,-3.432,-11.661,-29.301,-16.014,-6.121,-56.506,-172.12
1.1705418000001373,-8.338,0.877,-120.803,-1.106,-14.973,18.662,-27.313,22.738,5.601,10.876,-2.247,-4.153,-13.105,-67.019,-21.765,0.838,11.013,-9.965,-12.208,-2.246,221.415,3.098,4.256,-8.575,-41.567,-13.948,-6.627,-52.352,-161.189
1.170609300000251,-10.891,-5.271,-121.707,-6.74,-20.593,14.032,5.502,9.395,-4.138,7.279,-7.368,-7.735,-12.58,-70.026,-29.94,-1.724,11.514,-6.368,-15.269,-9.416,220.169,-2.029,-5.995,-19.325,-50.747,-19.57,-9.182,-54.348,-179.471
1.1706546000000344,-6.269,-7.827,-128.245,-18.517,-21.597,4.285,38.284,-15.205,-10.282,3.686,-8.898,-7.215,-11.543,-71.493,-34.521,0.327,13.552,-3.8,-17.815,-11.456,218.412,-5.1,-11.624,-17.769,-38.913,-18.013,-6.611,-55.319,-170.582
1.1855147999999645,-9.849,-3.209,-125.555,-16.961,-12.354,6.33,36.709,-14.677,-4.124,5.219,-5.815,-5.67,-13.58,-67.323,-23.728,1.863,17.124,-3.284,-11.65,-4.785,220.243,-4.071,-4.952,-12.628,-24.017,-14.922,-6.605,-56.288,-149.919
1.202527800000098,-22.647,-4.743,-130.553,-7.21,-10.292,6.323,4.397,1.731,-6.169,3.165,-11.957,-7.202,-18.178,-71.867,-25.241,-0.188,16.595,-5.843,-10.614,-6.829,223.609,-4.579,-6.484,-18.251,-38.338,-20.542,-10.696,-59.818,-168.725
1.2025982000000113,-15.452,-3.713,-135.033,-2.08,-11.819,5.292,-27.883,10.951,-7.187,3.674,-11.945,-7.195,-12.524,-69.745,-26.753,2.886,19.14,-0.714,-10.603,-7.334,226.459,-1.5,-8.527,-19.257,-52.644,-21.034,-8.124,-55.147,-182.901
1.215624299999945,-2.116,2.951,-122.09,0.996,-6.684,10.41,4.933,9.915,-0.52,5.719,-2.199,-6.675,-9.438,-57.893,-10.332,5.957,22.707,5.435,-6.494,-1.692,228.282,1.063,-2.883,-13.603,-45.932,-13.328,0.081,-46.895,-163.25
1.2156929000002492,-14.41,1.923,-112.747,0.483,-5.653,12.449,5.44,8.369,-4.106,4.689,-3.734,-6.156,-16.601,-68.593,-11.347,2.365,17.049,-3.28,-12.635,-3.227,229.591,-1.5,-4.93,-15.638,-38.713,-15.364,1.105,-48.898,-157.964
1.2306389999998828,-23.617,-1.665,-119.294,-8.739,-12.307,8.85,7.484,2.725,-8.2,6.734,-8.853,-4.613,-16.072,-80.82,-26.704,1.851,12.933,-7.887,-19.283,-6.298,229.873,-4.06,-11.072,-25.357,-38.162,-24.57,-4.019,-56.021,-172.15
1.2307063000002927,-8.224,-1.151,-124.298,-14.878,-11.783,9.354,39.752,-4.963,-4.606,10.313,-5.258,-4.608,-8.883,-70.493,-20.53,5.947,18.556,1.342,-12.603,-2.705,229.643,-1.494,-6.45,-23.282,-49.907,-22.496,-3.503,-56.99,-167.367
1.2456468000000314,1.518,2.436,-121.099,-4.105,-2.037,21.127,10.51,7.338,-2.039,13.377,2.432,-1.53,-5.801,-62.226,-6.165,12.089,23.148,8.513,-1.832,2.933,235.049,6.704,3.802,-6.353,-48.32,-9.666,6.747,-49.76,-146.195
1.2457122999999228,-6.68,11.143,-116.368,8.194,5.137,31.865,-11.017,26.798,3.086,21.56,12.676,6.669,1.378,-64.213,-2.06,19.249,28.248,14.14,6.879,11.127,245.06,17.968,10.971,0.314,-15.484,-2.484,15.962,-42.538,-142.463
1.261675700000069,-11.284,7.033,-124.448,-5.134,1.034,20.562,21.782,10.377,1.546,17.952,10.614,4.613,-0.161,-71.321,-6.669,14.619,28.22,14.126,5.335,8.042,241.741,12.827,6.349,-13.006,-19.055,-9.654,10.823,-47.619,-167.424
1.2617433000000347,-8.199,-10.392,-142.767,-27.67,-11.263,2.099,31.494,-14.736,-10.239,1.028,-10.914,-10.761,-17.579,-89.692,-17.421,-1.789,12.31,-5.868,-12.601,-8.872,228.692,-5.629,-8.002,-21.703,-51.311,-21.94,1.078,-59.354,-184.675
1.2757111999999324,-10.24,-7.308,-135.452,-18.421,-16.374,9.269,-0.813,2.185,-7.155,3.589,-12.952,-11.775,-18.586,-93.189,-21.502,-3.324,7.687,-14.06,-16.175,-9.376,228.463,-3.574,-6.457,-13.484,-47.162,-20.381,3.639,-56.733,-159.899
1.2757789000002049,-14.841,8.581,-115.336,5.676,-9.186,25.141,-14.645,27.286,7.197,18.955,4.992,0.02,-4.223,-79.263,-15.845,9.999,20.999,1.324,1.26,5.491,238.481,14.36,8.406,-4.761,-14.327,-8.577,12.857,-43.869,-142.833
1.2907273000000714,-12.264,7.548,-126.492,4.646,-5.59,23.579,-2.847,18.549,4.116,15.862,3.45,-1.005,-7.292,-81.746,-13.78,13.575,17.904,1.835,-0.278,2.411,237.218,11.784,4.812,-7.318,-18.923,-9.081,12.331,-38.702,-167.793
1.2907952000000478,-11.228,-1.681,-135.587,-10.728,-12.245,11.772,16.624,2.137,-7.671,5.087,-9.361,-7.664,-17.531,-90.885,-15.815,5.365,5.079,-13.536,-17.696,-7.837,227.759,-3.084,-10.05,-14.995,-16.855,-19.831,6.684,-49.422,-172.236
1.3057675000000017,-24.024,-8.852,-118.033,-20.451,-21.454,-0.535,49.395,-8.624,-13.299,-1.065,-14.475,-9.705,-21.1,-90.795,-25.021,-3.862,6.611,-15.572,-23.826,-11.416,221.896,-10.766,-16.188,-25.739,-10.691,-30.569,1.042,-71.914,-149.523
1.305834600000253,-30.148,-15.503,-126.112,-26.066,-28.093,-7.194,72.399,-19.374,-18.921,-7.724,-20.096,-15.843,-28.251,-98.901,-36.267,-10.519,0.969,-18.63,-26.364,-18.576,221.162,-17.927,-20.782,-31.861,-42.955,-36.174,-2.033,-82.6,-162.693
1.322965700000168,-15.261,-8.315,-146.478,-19.893,-27.552,1.01,40.051,-8.596,-18.39,-7.204,-19.051,-18.389,-29.76,-107.511,-30.083,-7.946,-7.742,-24.759,-24.288,-19.583,224.014,-15.348,-18.712,-23.12,-75.188,-29.99,5.653,-65.612,-177.9
1.323035400000208,-9.61,-0.11,-130.962,-13.213,-27.525,9.206,7.736,13.954,-12.736,-0.537,-12.885,-10.686,-24.607,-105.354,-22.368,-3.84,-0.049,-20.124,-17.604,-11.366,226.864,-3.037,-8.447,-11.826,-42.325,-20.739,12.308,-51.201,-154.668
1.336209300000064,-22.408,-10.356,-122.634,-22.933,-36.206,3.561,40.516,7.28,-15.285,-2.586,-20.044,-12.725,-27.144,-108.323,-35.666,-8.959,-0.561,-22.153,-23.734,-14.941,222.539,-6.108,-8.951,-16.425,-9.495,-26.353,10.759,-61.909,-152.976
1.3362741999999344,-18.287,-10.346,-135.319,-21.886,-38.219,2.021,73.263,-9.121,-11.683,-0.534,-20.536,-15.273,-24.555,-106.165,-36.142,-9.463,-4.147,-22.643,-24.223,-16.975,222.829,-9.176,-9.455,-18.458,-7.948,-25.302,37.9,-65.433,-170.754
1.350928500000009,0.174,7.595,-123.401,-1.372,-24.861,14.826,71.653,3.184,-0.401,12.787,-6.171,-2.963,-12.748,-94.788,-16.639,1.305,11.739,-5.202,-3.194,-1.589,230.29,7.74,3.875,-0.508,-9.99,-8.883,70.65,-48.461,-150.603
1.3509969000001547,-4.437,8.612,-113.031,-1.37,-22.787,18.91,39.306,14.451,-3.987,14.311,-7.19,-0.398,-12.735,-97.767,-17.134,3.353,19.411,1.463,0.395,5.073,229.036,11.318,3.359,6.152,-28.935,-8.362,101.83,-45.851,-138.67
1.3657797000000755,-16.728,1.431,-130.337,-14.177,-35.06,14.793,47.463,4.703,-10.13,11.223,-13.842,-7.57,-13.234,-98.694,-26.339,0.788,13.757,-5.711,-10.876,0.457,223.683,1.061,-6.379,-6.149,-41.201,-20.649,97.117,-55.027,-160.048
1.365840400000252,-6.977,14.238,-125.083,0.695,-30.926,27.073,80.204,15.969,7.298,26.068,0.516,3.196,3.685,-82.202,-16.066,8.472,22.964,3.517,1.43,7.116,228.583,8.744,2.849,0.004,-11.446,-13.456,100.606,-41.652,-149.129
1.3817281000001458,0.714,24.47,-104.466,14.526,-20.137,41.903,47.848,37.982,21.123,36.801,7.688,8.316,10.854,-84.169,-8.878,9.488,25.503,4.538,9.626,11.208,230.404,15.395,7.97,11.275,11.619,-4.221,112.289,-25.729,-126.951
1.3959522999998626,-12.606,4.465,-120.755,-10.079,-32.924,22.393,54.46,14.891,-0.927,15.759,-12.3,-8.086,-8.113,-104.577,-23.213,-3.841,7.034,-16.471,-10.876,-2.636,218.902,-0.502,-8.432,-6.667,-14.52,-19.074,102.443,-46.708,-151.415
1.3960172000001876,-23.864,-17.056,-150.861,-36.709,-46.724,-7.855,87.193,-17.4,-28.079,-9.36,-26.632,-17.3,-27.06,-107.546,-39.584,-14.084,1.904,-19.529,-24.185,-11.342,212.023,-8.698,-16.108,-19.98,-46.781,-34.424,85.946,-76.375,-171.243
1.4108801000002131,-17.693,-4.231,-144.562,-22.328,-32.332,1.887,55.343,-9.185,-19.341,0.896,-14.822,-9.086,-22.422,-99.242,-32.885,-8.946,14.198,-4.14,-11.353,0.964,221.545,3.606,-5.334,-1.517,-51.345,-21.069,93.545,-68.614,-151.092
1.410942999999861,-8.454,19.851,-121.364,5.872,-13.857,34.16,23.012,23.612,7.83,27.535,5.172,0.657,-2.932,-97.605,-11.847,5.407,23.405,3.036,6.077,15.308,230.033,14.873,4.918,14.366,-29.777,-1.068,108.309,-47.028,-141.72
1.4258648999998513,-10.494,11.634,-122.779,-0.794,-18.966,34.126,55.777,28.711,11.921,26.483,3.118,1.681,0.145,-102.631,-10.811,6.939,19.283,-1.577,3.509,8.12,219.044,10.248,0.302,6.155,-34.87,-9.777,98.466,-53.641,-151.824
1.4259216999998898,-21.755,-8.357,-139.05,-25.897,-34.316,10.526,88.509,-3.593,-7.046,6.989,-16.353,-8.567,-17.786,-116.361,-29.755,-8.95,1.846,-16.433,-14.938,-7.257,203.456,-5.132,-15.58,-12.807,-43.032,-31.284,79.925,-74.08,-150.648
1.4409500000001572,-20.196,1.385,-130.714,-19.723,-28.647,12.052,88.421,-12.299,-11.65,9.031,-13.263,-8.558,-18.281,-118.293,-30.238,-9.453,1.844,-19.49,-14.41,-3.151,207.863,-3.59,-12.49,-15.868,-10.202,-26.642,83.943,-66.321,-142.3
1.4450228999999126,-3.27,22.901,-97.796,6.424,-7.101,34.069,56.057,19.989,6.805,26.953,8.78,7.844,1.718,-99.732,-9.715,10.024,24.896,-0.515,7.633,13.758,217.389,18.443,11.088,7.714,-4.044,-3.049,97.692,-36.029,-128.325
1.4580343000002358,-3.266,22.365,-77.718,10.516,-4.533,37.621,23.725,37.9,14.483,25.901,6.209,6.3,-0.333,-97.583,-8.681,6.94,22.822,-2.052,6.089,12.72,207.438,18.937,11.589,21.539,-36.315,-1.509,92.983,-28.82,-100.02
1.4581011999998736,-19.657,13.121,-69.956,5.383,-15.287,20.165,33.948,21.468,-1.414,10.506,-10.703,-9.588,-17.239,-117.978,-23.529,-12.534,0.77,-22.542,-16.459,-0.613,193.911,-2.087,-9.427,2.562,-28.082,-19.95,78.033,-43.136,-77.891
1.470043600000281,-18.613,20.281,-38.635,16.648,-12.197,12.973,66.701,0.954,-10.121,7.422,-8.131,-7.529,-15.685,-120.934,-23.506,-9.448,4.867,-16.884,-16.442,-1.637,191.668,-4.646,-10.954,-10.761,4.734,-25.566,76.931,-33.359,-61.931
1.4701143000002048,-7.836,39.216,-5.809,36.099,-5.525,21.669,99.422,-5.194,1.672,16.123,0.587,0.163,-7.472,-113.128,-10.674,1.32,15.109,-6.621,-2.594,6.049,190.451,6.117,-0.697,2.058,-0.906,-14.27,83.514,-1.563,-29.082
1.485048900000038,-8.34,58.132,26.985,56.043,-3.983,37.017,67.048,16.328,11.404,25.841,6.734,4.261,-3.879,-116.601,-3.491,4.392,12.532,-13.274,3.557,12.191,191.286,13.795,9.55,22.548,-8.59,-0.935,87.016,14.833,3.735
1.485117100000025,-6.795,67.295,53.598,67.258,11.39,50.812,34.705,46.025,14.979,34.012,18.51,13.478,5.347,-115.972,1.635,10.536,20.204,-6.601,11.75,19.863,196.217,26.077,24.397,39.431,8.325,11.361,91.028,13.281,33.957
1.500061100000039,1.409,53.908,56.106,51.821,17.014,44.613,67.458,32.147,14.452,31.417,16.442,12.953,6.878,-112.27,4.195,10.013,24.282,1.09,13.275,19.331,188.336,25.539,19.762,34.269,-1.93,8.276,86.838,4.046,24.702
1.504138900000271,-2.179,34.386,23.774,27.691,-2.983,24.076,100.178,-0.161,3.166,17.553,-2.017,0.644,-8.498,-118.306,-5.031,-4.854,11.45,-14.792,-4.669,4.967,170.217,-0.615,-5.873,9.132,-32.154,-14.786,66.259,-10.815,-7.598
1.5171003000000383,-19.083,36.914,-0.84,28.176,-10.152,26.102,67.803,11.11,-4.009,13.949,-4.577,-0.893,-12.588,-117.675,-14.759,-8.948,7.34,-22.462,-18.497,-3.747,159.289,-12.909,-13.04,1.438,-30.072,-26.555,48.774,-19.513,-23.985
1.5171659000002364,-24.699,42.0,4.284,38.394,-0.92,40.42,35.46,29.03,2.655,19.571,1.063,2.694,-7.964,-111.922,-13.72,-4.328,12.968,-12.194,-15.404,-1.182,155.543,-5.212,-6.367,6.56,-1.865,-22.43,32.844,-25.641,-8.079
1.530180499999915,-14.428,24.027,-14.676,22.986,-10.141,25.523,68.212,7.996,1.115,12.379,-7.135,-1.408,-13.08,-118.982,-15.756,-9.959,8.857,-14.231,-12.315,-2.717,148.215,-9.305,-14.045,-6.767,-4.937,-29.579,8.733,-43.547,-24.465
1.5302513000001454,-12.364,5.048,-46.937,-4.702,-22.938,2.956,37.918,-2.258,-10.157,1.608,-13.275,-4.992,-19.214,-126.548,-24.961,-14.048,7.311,-20.876,-14.864,-4.252,138.333,-16.468,-17.617,-19.056,-37.208,-40.308,2.064,-55.798,-56.716
1.545138599999973,-20.549,5.042,-71.993,-12.381,-19.329,5.514,5.604,10.04,-12.196,2.631,-9.163,-6.012,-19.195,-126.934,-29.035,-10.96,11.915,-18.806,-13.825,-0.661,131.535,-7.742,-8.378,-12.377,-44.343,-35.145,15.894,-54.206,-80.737
1.5452115000002777,-11.819,7.599,-62.187,-10.832,-13.162,6.533,38.386,-3.29,-12.696,1.091,-8.13,-7.543,-21.225,-131.93,-23.37,-11.461,12.415,-15.714,-5.614,2.413,130.379,3.024,-2.222,-1.606,-18.171,-23.839,16.391,-46.979,-66.824
1.5601047000000108,4.074,11.69,-61.613,-13.383,-13.149,1.404,71.136,-19.681,-12.171,-1.471,-6.585,-3.949,-19.155,-131.798,-15.15,-9.913,14.452,-13.649,1.052,6.509,131.273,9.168,2.904,10.179,-26.35,-14.081,14.325,-35.149,-73.418
1.5760728999998719,-8.738,17.826,-73.846,-8.759,-14.673,10.112,38.789,-2.755,-7.036,5.19,-1.967,0.153,-16.574,-120.908,-16.16,-6.317,16.999,-12.61,-2.023,8.552,126.019,10.184,4.438,16.316,-27.348,-10.993,22.508,-38.7,-79.492
1.5761399000002712,-26.66,11.148,-82.482,-5.164,-17.22,10.614,6.475,8.006,-14.201,4.673,-5.551,-2.408,-21.68,-116.688,-25.877,-11.946,15.957,-11.573,-9.194,0.859,114.11,-2.634,-5.301,1.443,5.467,-23.278,15.313,-66.326,-61.994
1.5902218999999604,-11.264,1.403,-85.985,-11.306,-16.178,0.869,39.256,-6.346,-22.384,-1.48,-11.694,-5.48,-21.659,-120.67,-25.851,-16.032,19.527,-7.976,-10.721,-3.753,106.823,-11.341,-9.394,-7.267,2.388,-36.062,1.978,-75.994,-70.641
1.590291900000011,6.166,2.939,-83.85,-11.295,-15.649,6.504,72.005,-7.877,-10.578,3.645,-8.608,-5.987,-16.514,-123.623,-18.653,-11.918,21.045,-8.992,-8.661,-0.675,105.179,-6.206,-4.261,-2.649,-29.89,-32.952,6.074,-60.548,-102.846
1.605149800000163,-6.136,-0.651,-92.476,-10.259,-21.269,10.596,58.1,-2.746,-6.981,4.154,-7.063,-7.518,-20.084,-127.086,-25.807,-14.467,12.827,-20.766,-11.727,-6.822,100.976,-8.761,-8.868,-14.43,-30.372,-32.919,4.019,-65.099,-110.94
1.605222799999865,-14.839,-12.433,-115.437,-23.569,-25.859,-3.759,63.165,-12.989,-20.807,-7.634,-16.277,-11.096,-27.236,-132.594,-38.076,-23.162,5.129,-31.504,-20.936,-16.037,91.653,-16.437,-17.568,-25.174,-55.957,-42.62,-9.305,-87.063,-113.903
1.6200592999998662,-5.09,-20.105,-127.105,-34.816,-30.444,-9.903,69.25,-20.149,-20.274,-10.188,-22.408,-16.208,-29.77,-139.121,-36.501,-26.725,0.514,-36.596,-27.575,-16.533,82.852,-16.933,-17.551,-15.415,-85.103,-45.652,-10.833,-101.32,-132.744
1.6201162000002114,-11.233,-26.233,-127.49,-33.757,-35.024,-7.332,73.791,-16.542,-13.593,-8.64,-21.874,-18.754,-34.863,-142.056,-38.514,-27.211,-1.536,-37.584,-28.572,-16.517,75.597,-21.015,-19.07,-20.523,-52.23,-47.655,-12.871,-106.854,-136.198
1.636093399999936,-25.054,-24.67,-131.973,-31.161,-30.378,-6.812,75.767,-13.964,-18.19,-12.218,-21.852,-15.661,-37.39,-133.205,-45.648,-24.622,6.15,-28.837,-27.007,-15.988,71.936,-26.117,-24.686,-36.384,-24.513,-54.78,-18.494,-98.551,-127.352
1.636161599999923,-8.635,-11.325,-129.28,-27.032,-21.126,4.465,43.416,-4.729,-13.562,-5.546,-16.195,-8.473,-28.643,-125.899,-35.868,-16.913,16.39,-16.0,-21.857,-6.75,75.962,-18.918,-18.514,-24.564,-56.764,-50.114,-13.864,-84.62,-128.762
1.6502531000001,13.915,-5.678,-119.929,-22.906,-16.494,10.609,39.786,-4.724,-9.962,2.144,-7.469,-4.878,-23.492,-132.434,-25.586,-12.797,15.861,-14.96,-14.663,-2.133,76.911,-12.239,-10.811,-12.244,-39.289,-40.33,-13.338,-87.609,-126.072
1.6503170000000864,3.655,-10.283,-122.37,-24.42,-16.99,-1.697,69.972,-22.65,-24.296,-5.03,-7.974,-4.873,-29.616,-134.863,-33.245,-14.834,12.259,-20.068,-11.574,-3.668,74.272,-9.666,-10.288,-17.867,-19.27,-40.802,-24.596,-93.157,-116.724
1.6652807999998913,-8.644,-4.638,-123.273,-18.76,-12.875,1.89,55.046,-18.017,-22.735,-1.951,-5.917,-1.282,-24.976,-128.068,-30.138,-8.159,19.419,-11.338,-3.366,5.558,79.833,4.176,-1.056,-7.603,-51.526,-30.515,-27.133,-84.354,-113.533
1.6653528000001643,3.66,6.638,-113.928,-7.983,-2.103,18.795,66.774,2.494,-4.782,13.932,4.848,5.379,-12.143,-125.89,-13.202,2.608,23.498,-5.179,7.396,15.798,85.389,16.468,9.704,7.261,-61.72,-12.042,-28.642,-75.048,-115.469
1.680239000000256,3.144,-0.029,-124.572,-17.197,-3.638,10.067,99.494,-17.489,-15.535,4.185,-1.305,0.763,-23.402,-138.06,-20.361,-6.616,6.569,-25.666,-4.907,2.975,71.471,1.082,-3.626,-8.628,-28.871,-25.35,-52.18,-80.096,-128.161
1.6803017000002,-15.814,-17.96,-148.014,-36.647,-21.565,-13.51,67.12,-43.599,-40.111,-19.898,-22.821,-15.12,-48.994,-154.316,-39.809,-25.565,-10.344,-44.596,-30.517,-17.008,53.981,-25.047,-25.652,-33.21,-34.99,-56.063,-84.403,-101.533,-138.792
1.6962398000000576,-10.675,-17.429,-138.644,-34.561,-20.007,-10.935,34.777,-23.575,-33.411,-17.317,-22.798,-15.617,-45.871,-155.186,-35.67,-21.953,-0.088,-31.232,-28.95,-13.405,59.563,-27.583,-26.651,-34.713,-67.23,-57.544,-95.59,-114.752,-124.821
1.6963134000002356,11.365,-2.555,-115.964,-18.645,4.092,7.007,61.382,-3.572,-14.934,3.193,-1.258,2.33,-22.771,-140.174,-17.192,-0.927,16.306,-14.294,-8.941,6.076,73.848,-9.625,-14.841,-22.896,-51.794,-40.58,-91.395,-99.268,-110.351
1.7113623999998708,8.279,-2.552,-128.144,-20.676,6.649,8.025,94.109,-17.913,-17.481,3.19,3.354,6.938,-21.724,-136.96,-12.564,2.148,9.63,-21.452,-9.444,8.631,69.675,-3.468,-12.777,-21.336,-42.521,-40.539,-104.112,-91.484,-121.511
1.7114360000000488,-5.561,-13.308,-148.508,-35.0,-6.677,-3.766,79.67,-26.604,-28.734,-10.646,-10.994,-3.315,-36.046,-148.094,-21.773,-8.613,-1.65,-34.238,-19.681,-4.697,58.847,-12.686,-18.912,-28.999,-72.192,-48.183,-125.012,-105.225,-132.661
1.725408900000275,0.592,-4.586,-132.478,-28.817,1.526,3.41,64.733,-14.282,-24.607,-6.024,-6.885,-0.238,-32.424,-148.458,-23.288,-3.993,3.474,-30.618,-11.977,1.968,64.424,-7.038,-14.282,-21.285,-73.144,-37.889,-123.35,-92.824,-124.843
1.7403841000000284,13.911,13.35,-110.316,-5.222,13.82,21.849,66.205,-4.534,-12.799,9.863,12.59,11.545,-20.096,-141.137,-10.457,10.868,12.18,-18.292,1.355,20.409,75.118,11.925,1.101,-3.846,-40.283,-20.433,-112.469,-69.165,-108.837
1.7404523000000154,12.873,9.238,-121.476,-5.217,9.708,16.704,95.341,-15.8,-16.885,3.706,10.016,7.948,-24.687,-145.094,-6.348,8.295,7.557,-21.348,-1.207,12.191,68.895,10.376,2.637,-9.99,-29.485,-22.462,-121.578,-87.539,-105.142
1.755399000000125,2.614,-4.091,-139.286,-27.241,9.698,2.343,128.033,-32.178,-29.163,-10.13,-4.851,0.255,-32.859,-153.659,-16.588,-1.447,-0.647,-36.183,-11.452,-1.653,59.092,-6.541,-9.661,-25.349,-61.731,-36.784,-133.751,-103.845,-123.992
1.7595319000001837,3.124,2.06,-131.462,-21.578,22.496,11.05,95.63,-21.388,-20.937,1.151,4.375,6.915,-23.093,-150.431,-14.522,5.727,6.013,-32.561,-9.392,9.107,62.107,-3.46,-8.627,-21.225,-63.718,-36.235,-132.593,-80.175,-128.991
1.7721331000002465,13.879,12.817,-118.523,-1.577,22.473,25.384,63.259,2.2,-6.059,19.08,18.716,16.13,-8.725,-137.985,-2.212,14.943,19.327,-14.085,-0.161,17.295,66.143,4.74,-0.933,-13.519,-35.477,-26.977,-129.899,-74.972,-100.686
1.7721968000000743,11.304,5.632,-119.941,-13.358,5.033,17.161,95.471,-9.586,-14.25,11.377,8.451,11.503,-11.278,-133.749,-7.333,10.829,17.259,-13.559,-2.21,9.593,59.417,-2.949,-7.592,-17.092,-59.008,-31.048,-133.867,-98.463,-95.974
1.7854373000000123,-4.077,-6.669,-123.92,-34.349,-5.219,1.263,128.163,-37.753,-27.044,-4.516,-2.316,2.782,-24.586,-142.324,-21.158,6.72,8.532,-24.304,-10.917,5.997,51.161,-7.557,-13.22,-20.661,-91.224,-37.677,-140.906,-99.389,-123.543
1.7855138999998417,-3.048,-9.224,-129.431,-31.241,0.422,-2.325,112.666,-36.178,-24.967,-6.049,1.272,2.779,-30.71,-146.28,-22.673,5.689,10.573,-26.329,-12.955,4.966,51.11,-5.5,-8.596,-26.276,-58.346,-37.64,-144.351,-93.655,-123.931
1.8004243000000315,12.836,-5.629,-139.548,-23.013,4.008,4.85,80.278,-18.724,-21.356,-1.944,2.808,7.899,-28.63,-137.425,-15.991,4.146,15.686,-22.204,-10.381,5.986,53.62,-7.032,-9.1,-32.397,-25.5,-36.065,-141.133,-99.709,-110.488
1.8004859000002398,17.434,1.549,-138.384,-15.818,12.713,15.091,79.685,-13.069,-16.724,2.668,6.391,11.99,-21.941,-132.677,-4.192,12.339,18.744,-16.546,-3.71,16.739,56.64,4.246,-6.529,-21.094,-57.749,-26.807,-137.406,-87.826,-120.111
1.8154420999999274,10.757,8.207,-125.438,-6.58,27.557,20.199,97.536,-7.421,-5.437,11.887,18.168,17.613,-14.234,-138.179,2.985,23.085,22.823,-11.919,10.126,23.382,62.219,19.611,6.797,-5.703,-80.233,-12.948,-132.145,-70.832,-117.942
1.8192321000001357,9.209,5.125,-126.337,-13.746,18.308,19.667,67.725,-1.266,-3.894,14.949,18.662,19.645,-12.683,-134.967,-7.777,18.451,22.801,-10.882,14.214,20.285,61.645,12.931,9.864,-10.309,-47.365,-16.009,-128.427,-82.544,-106.553
1.83084400000007,11.761,-6.663,-141.58,-28.589,-3.739,14.012,53.312,-9.974,-17.21,3.151,6.348,11.428,-20.355,-132.271,-18.015,9.723,18.679,-12.921,2.929,16.678,49.8,2.672,-3.466,-20.544,-59.101,-29.313,-136.495,-98.343,-120.791
1.8309054000001197,8.164,-7.681,-144.512,-29.585,6.51,6.313,83.485,-19.698,-22.828,-3.0,2.243,9.368,-25.97,-142.385,-9.8,10.226,15.075,-19.056,-2.709,11.538,45.139,5.231,-6.024,-17.45,-91.317,-27.747,-142.507,-92.097,-126.818
1.8455794000001333,7.643,0.012,-134.121,-25.97,23.922,6.819,105.943,-15.067,-15.121,3.663,6.339,16.018,-21.846,-145.316,-2.618,12.265,14.547,-24.672,0.367,9.99,54.316,7.275,2.692,-11.797,-65.098,-17.985,-133.655,-79.71,-115.42
1.8456466000002365,15.32,-1.525,-141.672,-26.968,7.505,7.837,130.94,-20.175,-17.155,0.586,5.821,12.929,-23.873,-136.974,-10.812,10.716,17.094,-21.061,-1.17,12.542,52.212,5.731,0.64,-16.908,-32.245,-22.578,-130.96,-80.142,-130.674
1.8605271999999786,17.354,-7.159,-154.85,-29.503,-7.36,2.706,163.597,-36.549,-25.847,-5.562,2.741,7.28,-28.46,-140.423,-16.437,11.217,17.077,-17.454,-4.243,8.943,41.914,4.188,-6.533,-25.601,-40.922,-30.752,-140.05,-88.771,-138.228
1.8605931000001874,10.164,-1.517,-136.252,-29.986,13.652,8.338,132.695,-28.828,-15.063,5.202,5.812,15.982,-16.649,-145.406,-8.736,15.817,14.498,-21.023,1.909,9.959,48.532,7.258,1.158,-20.964,-56.763,-22.013,-137.349,-92.269,-105.302
1.8755049000001236,10.666,5.145,-120.747,-27.394,30.545,20.113,100.287,-9.331,-4.289,12.369,9.393,18.528,-7.923,-140.137,-4.116,16.826,16.533,-23.563,6.518,16.609,54.631,12.886,7.304,-9.673,-63.366,-12.257,-129.527,-90.639,-89.828
1.879457099999854,20.39,-3.57,-150.34,-29.928,9.509,12.921,67.911,-13.933,-16.068,0.061,1.699,6.726,-23.796,-142.046,-13.846,8.1,12.93,-25.076,-2.198,8.395,42.281,7.238,-2.437,-14.274,-82.258,-22.491,-137.082,-92.598,-122.013
1.8923364000002039,23.443,-12.788,-169.657,-33.997,-10.48,4.199,100.631,-22.628,-23.737,-5.062,-3.938,5.695,-32.994,-146.515,-22.541,3.993,7.282,-26.588,-7.831,1.214,38.653,-1.991,-6.533,-22.969,-73.467,-32.202,-142.068,-94.042,-141.871
1.892405399999916,16.76,-5.09,-141.311,-27.303,2.85,10.854,133.318,-15.945,-15.004,5.701,2.725,14.911,-19.129,-137.147,-17.396,12.698,15.472,-21.439,-0.138,12.484,48.348,3.134,2.695,-18.335,-45.216,-23.973,-132.192,-89.338,-114.065
1.9056091000002198,18.792,6.186,-121.702,-19.079,18.729,16.479,126.013,-14.392,-14.989,8.77,9.895,15.92,-15.523,-131.375,-6.62,18.833,26.215,-15.269,6.522,19.644,47.787,9.279,6.791,-13.706,-50.807,-14.727,-127.449,-83.613,-95.507
1.905688000000282,30.556,10.79,-130.801,-18.547,20.247,16.975,125.374,-17.452,-14.974,8.248,10.91,15.392,-21.143,-135.342,-1.49,15.741,20.553,-15.767,4.978,13.989,45.69,8.757,5.247,-13.692,-64.588,-14.2,-130.395,-73.795,-108.732
1.9205692999998973,23.866,9.755,-138.867,-19.041,21.252,16.958,158.037,-19.484,-9.323,11.314,8.85,13.84,-17.024,-139.817,-6.1,13.676,13.873,-25.485,0.363,9.364,45.132,8.236,1.656,-13.166,-62.474,-16.748,-129.24,-68.599,-120.919
1.9355756999998448,3.862,0.011,-144.876,-27.219,16.107,10.281,149.682,-26.124,-16.486,4.643,1.156,6.654,-19.056,-146.85,-14.29,10.076,11.81,-34.168,-7.835,4.744,37.915,-0.481,-5.518,-22.375,-60.875,-23.903,-132.185,-79.801,-112.088
1.9356344000002537,8.981,-8.698,-145.756,-32.827,5.845,8.221,117.257,-23.537,-23.642,-3.559,-0.894,5.622,-26.722,-148.24,-11.202,8.529,8.724,-26.45,-8.339,7.301,37.877,-4.579,-5.512,-29.012,-52.105,-27.465,-135.639,-82.795,-105.829
1.9524159000002328,21.78,-2.542,-136.389,-22.548,9.425,10.262,147.878,-19.415,-17.983,-1.506,5.254,12.277,-23.109,-139.895,-4.531,13.643,11.277,-14.64,3.452,17.027,45.524,10.282,4.227,-16.688,-44.88,-19.241,-130.38,-71.954,-116.994
1.9524829000001773,13.561,8.219,-132.666,-19.964,11.978,5.129,180.518,-34.764,-19.502,0.545,6.786,16.363,-18.987,-141.292,-10.674,19.777,20.487,-18.212,11.133,19.059,44.966,21.543,11.907,-4.888,-48.934,-12.049,-124.102,-74.955,-116.877
1.9657114999999976,12.523,9.748,-130.997,-27.629,5.306,10.759,148.062,-29.607,-18.97,5.667,11.39,18.908,-18.968,-148.323,-9.127,22.319,19.442,-21.779,12.659,18.528,44.408,21.009,13.432,-2.322,-38.639,-7.427,-121.929,-81.54,-96.78
1.965776300000016,25.83,8.714,-127.792,-21.453,12.473,27.142,115.638,-0.375,-9.218,14.371,18.039,16.328,-14.851,-146.125,3.178,21.272,10.713,-20.733,12.647,20.046,46.413,19.451,10.857,-1.295,-48.334,-3.833,-120.782,-72.237,-96.171
1.9807393000000957,19.657,6.656,-138.935,-22.456,20.657,18.918,148.31,-7.547,-16.381,5.135,7.774,7.602,-18.934,-148.028,-1.948,15.616,9.678,-28.397,3.925,12.342,36.633,11.747,5.211,-11.027,-80.561,-11.002,-125.272,-69.091,-117.591
1.9808089000002838,8.367,0.502,-150.067,-38.828,9.878,0.456,180.95,-32.131,-28.147,-7.678,-2.479,6.058,-28.649,-151.979,-14.242,11.501,13.254,-32.979,-5.813,6.182,28.912,3.026,1.107,-25.361,-55.378,-22.261,-131.295,-79.781,-121.06
1.9957204000002093,12.969,-6.159,-142.232,-38.277,6.282,5.579,148.493,-20.828,-19.41,-2.035,3.158,9.125,-26.571,-150.29,-7.568,12.515,12.216,-27.311,-5.295,6.175,32.469,1.998,-1.455,-25.335,-22.534,-25.825,-129.626,-89.947,-112.23
1.9957827000002908,16.542,-1.542,-127.233,-19.795,23.694,22.992,116.069,1.735,-9.657,7.189,8.278,11.678,-17.835,-150.139,6.785,17.113,13.229,-22.673,0.858,8.219,35.51,5.582,0.083,-15.576,-54.787,-20.164,-123.861,-87.296,-109.556
2.0116613000000143,14.476,14.853,-116.347,-2.869,34.429,34.752,101.096,9.418,-8.11,13.842,13.905,17.814,-10.133,-145.378,15.487,26.317,22.437,-14.966,8.542,16.92,35.475,14.798,11.354,-2.241,-69.589,-6.311,-116.565,-67.228,-105.348
2.0117334000001392,6.265,15.351,-125.452,-9.526,18.513,22.422,133.783,-8.01,-14.762,8.705,7.744,12.161,-17.295,-145.233,5.225,20.656,17.804,-17.512,0.336,10.755,25.706,11.197,5.707,-6.849,-36.732,-8.867,-120.035,-63.575,-110.878
2.025831299999936,-8.086,-15.915,-157.602,-41.792,-3.535,-9.876,166.437,-40.278,-38.826,-19.993,-23.002,-9.881,-44.943,-163.019,-23.981,-4.98,-5.268,-43.622,-29.89,-16.92,4.675,-16.991,-23.5,-36.044,-68.971,-40.621,-142.456,-95.787,-127.673
2.025896399999965,-7.566,-31.781,-166.666,-58.144,-1.482,-20.625,160.635,-55.607,-48.521,-29.707,-28.615,-12.432,-51.045,-165.929,-28.568,-9.586,-9.361,-53.313,-37.545,-17.416,3.134,-26.195,-29.624,-45.229,-101.177,-53.388,-149.998,-111.572,-129.595
2.040825600000062,7.299,-6.646,-137.81,-27.348,14.913,12.184,128.199,-22.763,-21.832,-0.476,1.64,9.609,-23.33,-142.71,-3.949,13.989,13.702,-32.255,-13.429,7.192,22.086,-3.115,-5.516,-22.643,-68.288,-29.768,-130.381,-79.698,-119.219
2.0558507999999165,5.755,7.705,-124.865,-10.414,17.972,27.028,96.308,0.313,-9.515,11.82,7.274,15.747,-15.622,-141.03,1.178,19.611,16.762,-25.05,-8.805,6.161,23.088,2.523,-2.437,-14.935,-35.432,-21.029,-122.053,-67.323,-114.489
2.055919200000062,-5.522,-7.672,-136.523,-26.285,12.831,8.046,128.487,-17.618,-26.924,-4.073,-8.103,2.924,-35.586,-159.332,-10.606,5.759,-0.673,-37.833,-23.141,-7.678,7.184,-9.775,-14.218,-22.093,-66.648,-34.328,-132.178,-85.186,-111.301
2.0559628999999404,2.681,-13.812,-138.948,-33.431,9.232,3.427,96.083,-18.625,-30.995,-9.192,-6.558,-1.69,-39.649,-159.173,-12.132,2.679,2.914,-37.795,-17.482,-3.059,1.029,-8.228,-6.519,-17.46,-76.315,-33.782,-135.119,-86.638,-114.776
2.071754900000087,12.412,-7.138,-131.124,-29.3,4.1,10.084,120.578,-13.483,-20.718,-6.109,-3.477,1.898,-32.949,-148.767,-16.731,6.775,16.231,-26.486,-5.681,3.091,4.614,-3.097,-0.877,-12.832,-63.431,-26.063,-133.447,-74.256,-122.345
2.086291699999947,0.616,-8.668,-130.993,-25.684,3.583,5.463,153.245,-24.74,-22.747,-6.616,-7.06,3.433,-35.478,-147.594,-20.3,8.818,13.141,-22.361,-8.237,3.6,6.659,-5.655,-8.561,-14.356,-59.781,-27.574,-134.851,-71.108,-118.125
2.0863579000001664,-5.532,-10.708,-137.01,-24.121,8.191,0.334,126.452,-31.888,-32.458,-11.22,-7.565,4.454,-38.004,-153.594,-12.083,7.784,7.493,-27.974,-13.352,3.085,4.09,-6.162,-8.04,-20.489,-45.889,-31.133,-132.667,-75.135,-116.47
2.086399600000277,7.794,-4.55,-136.873,-28.708,7.158,4.945,94.05,-24.171,-36.012,-13.77,-7.558,4.45,-34.892,-161.637,-8.997,4.19,6.973,-37.68,-14.363,0.008,2.037,-5.643,-3.421,-27.129,-44.306,-30.589,-128.948,-80.183,-118.915
2.100959100000182,11.372,2.115,-125.978,-26.118,9.2,13.649,72.439,-7.753,-25.729,0.076,-0.378,6.495,-27.173,-157.89,-8.476,8.797,8.503,-34.569,-9.226,3.081,8.183,-1.027,-1.881,-14.294,-55.021,-23.387,-123.696,-74.98,-107.013
2.1158918999999514,1.114,-0.449,-128.925,-18.407,11.752,15.172,105.154,-7.746,-14.433,8.273,5.258,11.611,-22.022,-143.387,-2.832,15.448,12.593,-23.776,-5.631,8.201,9.712,4.097,-0.342,-1.984,-43.182,-20.802,-122.035,-65.171,-108.442
2.1159551000000647,6.236,-11.207,-151.85,-31.196,3.543,4.399,137.837,-32.841,-24.665,-7.105,-5.506,6.989,-31.222,-144.268,-6.928,7.236,10.019,-31.437,-14.846,0.509,-3.106,-3.079,-7.514,-20.937,-45.189,-32.564,-129.598,-74.84,-140.609
2.130890299999919,15.452,-20.417,-158.359,-45.51,-4.657,-2.778,105.423,-37.419,-35.911,-13.758,-12.673,-1.727,-40.924,-161.03,-16.655,-1.993,-2.287,-51.385,-24.053,-8.713,-10.275,-14.859,-17.24,-35.261,-77.419,-38.679,-136.128,-93.72,-150.203
2.1351947000002838,1.092,-28.082,-151.028,-49.05,-9.775,-6.361,73.043,-26.623,-35.363,-13.744,-15.221,-3.775,-42.42,-171.628,-24.323,-4.553,-9.969,-60.043,-27.103,-13.828,-12.826,-21.504,-21.321,-31.127,-105.006,-42.226,-140.09,-101.823,-131.609
2.1481023000001187,-7.619,-36.763,-157.025,-64.883,-17.45,-21.212,105.757,-48.626,-44.549,-30.636,-28.014,-7.357,-50.063,-167.358,-31.983,-10.696,-7.91,-56.909,-33.736,-19.962,-22.547,-31.217,-28.472,-42.367,-100.802,-58.578,-147.635,-110.431,-139.675
2.1481650000000627,10.832,-25.968,-154.818,-64.818,-9.748,-19.654,138.439,-56.774,-45.529,-25.995,-22.351,-3.764,-47.451,-152.333,-26.316,-5.562,3.369,-41.483,-30.628,-12.257,-20.476,-30.673,-27.419,-50.009,-80.209,-57.495,-143.389,-106.222,-151.318
2.161059500000192,20.043,2.235,-133.659,-31.966,10.242,13.154,106.025,-23.929,-16.794,6.819,4.824,16.22,-20.764,-138.861,-9.895,16.473,22.321,-18.388,-8.568,7.223,-2.524,-6.052,-7.412,-26.905,-47.854,-27.724,-125.315,-74.865,-129.138
2.1611410999998952,12.338,14.016,-125.841,-12.978,19.965,34.145,97.21,-4.438,-1.408,19.107,14.041,26.45,-7.935,-134.111,-2.713,24.141,32.032,-7.611,6.297,17.462,2.089,11.885,6.94,-6.899,-25.777,-12.327,-114.943,-50.712,-117.225
2.1759704999999485,18.473,6.83,-136.985,-29.359,18.921,22.84,129.901,-22.877,-14.727,11.916,9.928,16.69,-17.661,-127.317,0.363,17.457,23.803,-15.288,3.217,15.907,-6.622,5.725,4.372,-8.429,-36.509,-19.487,-115.853,-52.71,-129.916
2.176032899999882,22.553,-2.911,-142.484,-38.551,14.291,7.448,126.185,-31.563,-27.52,0.633,4.795,6.939,-25.84,-132.825,-2.711,11.804,10.459,-29.617,-10.106,5.645,-15.837,-6.576,-5.879,-17.129,-68.748,-29.201,-124.959,-64.953,-119.54
2.189987199999905,2.551,-13.154,-132.095,-43.636,7.104,-3.83,95.32,-39.216,-36.714,-19.347,-12.628,2.321,-36.573,-154.209,-19.102,-0.503,1.227,-38.809,-24.441,-9.217,-29.654,-16.303,-18.68,-28.895,-86.098,-39.93,-136.104,-79.745,-106.1
2.1939210999998977,-8.723,-14.165,-120.692,-50.764,8.634,-5.876,98.811,-41.738,-37.701,-20.865,-18.763,0.27,-44.733,-152.518,-19.595,-6.65,3.275,-36.209,-22.367,-9.72,-33.21,-15.774,-17.637,-29.891,-60.909,-39.89,-133.407,-80.69,-125.462
2.206185099999857,10.242,-3.393,-124.67,-34.32,16.822,11.036,82.318,-18.643,-19.733,1.698,0.723,7.442,-31.881,-132.898,-0.62,7.188,13.006,-31.049,-6.463,3.609,-19.345,-2.951,-2.25,-17.566,-28.06,-26.018,-121.49,-63.19,-131.484
2.2062487000002875,19.965,1.221,-131.205,-20.453,13.732,21.272,110.925,-15.55,-16.639,5.794,6.87,11.533,-23.14,-138.913,-0.107,14.866,13.505,-32.555,-4.408,7.704,-18.813,-0.899,-1.736,-12.937,-30.594,-24.455,-122.393,-59.541,-109.323
2.2201202999999623,2.527,-6.977,-129.025,-37.851,-1.651,4.856,143.602,-41.662,-37.115,-10.605,-10.555,1.787,-35.412,-151.582,-20.599,4.605,3.246,-36.621,-14.649,-2.55,-30.577,-13.705,-15.054,-22.658,-61.814,-38.263,-132.005,-72.802,-112.288
2.220187100000203,-5.673,-16.191,-137.093,-52.67,-11.383,-10.518,111.183,-47.256,-42.713,-20.329,-21.815,-3.337,-44.598,-149.381,-32.362,-1.547,-4.442,-42.22,-20.27,-10.232,-32.084,-21.889,-19.137,-33.906,-77.634,-44.885,-136.484,-75.29,-135.742
2.235099999999875,7.141,-21.811,-154.374,-51.593,-7.274,-9.482,78.796,-40.036,-36.523,-20.821,-19.744,-0.26,-43.017,-157.941,-26.694,-1.546,-6.487,-46.276,-22.811,-10.734,-30.515,-21.867,-20.143,-37.971,-79.605,-43.303,-135.323,-77.264,-141.241
2.2351684999998724,7.134,-23.838,-156.269,-58.714,-2.143,-11.522,111.505,-48.193,-40.073,-18.751,-17.675,-0.772,-42.461,-162.906,-21.544,-3.594,-4.431,-42.131,-26.887,-11.235,-34.583,-23.382,-23.709,-35.884,-82.599,-45.821,-133.65,-87.945,-140.588
2.2500946999998632,-11.317,-28.425,-150.478,-68.389,-8.289,-18.683,122.152,-55.83,-44.131,-21.293,-23.805,-4.358,-43.956,-151.984,-33.306,-7.688,-5.964,-40.04,-30.446,-17.372,-38.646,-31.555,-25.734,-39.946,-75.857,-56.534,-137.615,-94.005,-139.423
2.254208899999867,-14.892,-31.983,-146.741,-69.857,-10.33,-19.177,89.754,-46.552,-43.062,-25.883,-26.855,-5.89,-44.936,-153.882,-37.883,-9.73,-10.056,-45.635,-31.44,-19.916,-42.194,-37.671,-26.221,-47.591,-57.338,-61.088,-144.137,-93.911,-129.549
2.2660667999998623,0.493,-22.729,-132.762,-60.054,0.951,-7.374,122.452,-27.55,-33.798,-15.611,-14.533,-2.298,-37.207,-156.289,-17.865,-1.523,0.712,-36.368,-22.187,-9.137,-36.516,-21.752,-16.461,-33.711,-47.547,-44.633,-135.796,-80.497,-126.858
2.2661348999999973,5.103,-7.849,-122.383,-43.088,5.049,6.978,155.118,-18.814,-21.468,-2.787,-4.272,6.926,-27.948,-138.202,-10.675,8.724,14.544,-18.913,-8.845,3.679,-26.234,-1.751,-4.149,-12.673,-52.11,-27.17,-121.316,-55.826,-128.781
2.2802166000001307,-2.075,-7.842,-129.945,-42.02,-3.153,2.872,122.687,-34.676,-29.644,-12.518,-12.465,5.382,-36.629,-139.089,-25.522,3.08,2.746,-24.018,-13.447,-0.935,-34.404,-9.946,-10.805,-20.857,-63.329,-31.754,-123.756,-54.233,-126.603
2.2802832000002127,-2.072,-10.908,-132.889,-48.638,-3.662,-11.988,90.289,-39.253,-47.545,-25.314,-21.162,-9.481,-52.474,-160.467,-25.496,-8.194,-12.626,-43.461,-27.266,-12.205,-44.616,-23.768,-21.04,-35.693,-79.659,-40.431,-130.292,-68.524,-134.161
2.2951554999999644,3.565,-3.212,-126.096,-36.806,5.051,-3.266,57.923,-16.159,-40.837,-19.141,-18.067,-8.959,-49.348,-160.818,-14.712,-6.136,-6.465,-47.516,-25.702,-10.144,-37.912,-16.572,-17.945,-28.997,-84.19,-36.292,-123.502,-61.795,-136.588
2.310656999999992,1.512,-1.672,-130.069,-33.695,6.07,10.057,90.653,-16.143,-24.915,-9.388,-14.462,4.37,-37.003,-150.411,-15.722,1.042,0.201,-36.71,-18.504,-3.986,-34.288,-13.482,-16.903,-21.796,-61.564,-32.67,-121.329,-57.635,-116.471
2.310801000000083,-8.223,-16.527,-143.258,-58.765,-2.645,-4.81,123.35,-48.402,-31.038,-13.477,-15.985,4.366,-34.917,-150.261,-17.755,3.603,-0.824,-32.575,-17.973,-3.469,-41.426,-22.177,-18.423,-24.848,-48.183,-37.76,-129.405,-78.582,-111.232
2.328948400000172,-10.264,-25.732,-147.726,-66.391,-9.302,-17.101,90.951,-54.502,-41.765,-21.148,-18.53,-1.786,-41.03,-148.062,-21.836,3.599,1.739,-36.641,-15.906,-2.954,-43.946,-21.643,-14.306,-26.36,-62.992,-42.845,-127.226,-86.7,-129.564
2.3290114999999787,-2.569,-22.12,-140.406,-49.418,-9.805,-4.276,58.585,-21.66,-36.088,-19.078,-19.537,0.777,-44.575,-147.401,-28.987,0.522,1.737,-36.092,-13.328,-4.488,-44.414,-18.035,-13.267,-26.334,-65.49,-42.803,-120.951,-74.83,-140.705
2.3402678000002197,-1.542,-26.197,-138.729,-50.906,-13.382,-6.321,91.314,-12.929,-32.978,-19.571,-22.591,-0.761,-46.067,-155.963,-32.032,-4.602,-5.95,-38.618,-24.586,-14.729,-51.542,-28.775,-24.012,-35.529,-58.252,-49.932,-130.052,-80.903,-150.81
2.34033270000009,-13.324,-42.564,-153.447,-73.909,-24.127,-33.467,124.011,-45.191,-49.339,-36.97,-37.425,-12.543,-55.243,-160.93,-41.733,-14.843,-15.165,-52.411,-42.492,-28.547,-61.737,-47.19,-39.87,-52.912,-67.416,-67.813,-143.242,-102.339,-163.98
2.355207000000064,-18.433,-44.059,-164.564,-77.933,-24.103,-41.63,152.064,-75.884,-62.61,-46.154,-44.56,-16.116,-63.384,-156.158,-47.327,-20.976,-18.224,-53.896,-49.109,-34.154,-65.773,-52.778,-47.515,-60.544,-71.959,-73.893,-140.025,-105.311,-147.934
2.3552644000001237,-12.267,-25.059,-151.592,-50.703,-10.759,-19.559,119.636,-43.021,-48.715,-26.64,-28.634,-7.391,-52.05,-148.318,-28.837,-10.197,-7.959,-38.473,-40.351,-25.923,-58.535,-39.405,-37.221,-46.139,-73.424,-59.474,-130.663,-84.201,-120.634
2.3702265000001717,-10.206,-18.374,-132.997,-33.234,-8.699,-3.658,87.241,-10.19,-29.198,-12.269,-17.335,-0.724,-37.654,-142.534,-21.123,-0.453,2.807,-33.823,-28.015,-16.163,-52.841,-27.583,-25.913,-32.26,-88.72,-52.243,-128.996,-72.846,-127.173
2.3702836000002208,-12.757,-31.164,-132.352,-50.107,-17.911,-11.339,119.942,-21.963,-30.706,-24.04,-29.1,-5.334,-44.788,-143.928,-35.447,-8.137,-2.831,-40.45,-29.012,-19.733,-57.399,-32.678,-28.449,-41.449,-86.069,-59.875,-130.404,-82.507,-151.124
2.385310799999843,-11.72,-37.792,-141.441,-65.426,-20.455,-27.722,152.609,-39.36,-45.02,-38.36,-40.854,-16.599,-58.063,-159.154,-36.436,-16.326,-15.636,-48.606,-42.303,-27.91,-63.489,-42.379,-36.105,-56.777,-80.86,-64.426,-133.859,-93.183,-157.121
2.3853792999998404,-7.61,-31.607,-146.423,-48.454,-17.361,-27.182,120.181,-32.148,-48.049,-39.347,-39.789,-19.144,-59.03,-167.704,-32.301,-16.822,-20.743,-59.828,-45.335,-27.37,-64.451,-41.825,-36.069,-51.597,-92.563,-64.874,-136.799,-92.577,-152.865
2.400328400000035,-1.967,-17.231,-137.567,-25.352,-13.757,-4.613,87.786,-12.136,-35.193,-23.426,-25.404,-7.342,-46.163,-148.581,-37.392,-8.608,-12.526,-55.158,-32.481,-18.633,-56.702,-31.537,-25.274,-36.689,-61.732,-57.124,-126.929,-78.14,-140.929
2.400391900000159,5.72,-6.967,-120.011,-18.667,-12.207,8.199,120.486,-8.025,-22.863,-7.009,-11.547,1.375,-30.748,-129.477,-34.793,4.721,2.344,-35.635,-23.227,-8.368,-47.936,-23.308,-16.027,-36.14,-28.882,-45.796,-119.117,-61.668,-124.907
2.415369400000145,4.69,-14.645,-116.305,-26.845,-18.854,-5.129,148.542,-24.923,-29.5,-17.248,-20.757,-4.774,-36.865,-140.618,-32.196,0.617,0.804,-36.111,-28.327,-11.434,-55.572,-27.383,-24.72,-40.714,-61.129,-52.411,-128.22,-72.365,-129.905
2.4154342000001634,-7.098,-26.926,-125.41,-37.576,-21.909,-15.37,116.118,-25.923,-37.667,-31.063,-34.568,-7.331,-51.685,-151.748,-37.287,-10.654,-9.955,-45.809,-32.91,-23.206,-64.738,-32.479,-32.38,-35.551,-93.343,-60.043,-131.165,-92.785,-146.681
2.4303242000000864,-11.189,-20.751,-126.309,-36.514,-13.178,-8.695,130.859,-15.651,-29.945,-20.786,-26.849,0.873,-43.436,-145.961,-34.688,-3.471,-8.408,-40.128,-28.778,-19.596,-53.915,-27.324,-20.053,-33.466,-60.462,-48.2,-121.3,-77.323,-142.436
2.4303843000002416,6.24,-7.41,-123.109,-30.33,-6.505,-3.051,163.516,-20.758,-22.743,-12.056,-15.551,6.508,-31.61,-148.377,-24.92,6.266,-2.252,-35.989,-17.991,-5.744,-41.053,-19.099,-10.811,-33.945,-45.544,-39.954,-115.544,-55.729,-127.437
2.4463064000001395,24.165,-1.255,-117.863,-23.64,-0.351,8.736,131.077,-7.418,-20.671,-7.433,-8.364,10.6,-29.529,-142.593,-14.649,10.359,4.923,-31.343,-3.629,5.02,-33.328,-6.272,-8.239,-18.029,-75.213,-34.791,-106.719,-57.21,-118.088
2.4463746000001265,10.308,1.308,-108.011,-11.321,6.309,20.51,103.793,12.058,-16.039,3.845,-0.671,14.687,-22.327,-121.446,-10.536,19.57,14.652,-20.04,-0.551,9.113,-26.634,0.906,-4.644,-9.814,-51.571,-23.998,-98.415,-52.03,-112.847
2.460838800000147,-15.83,-8.428,-112.514,-20.531,-4.968,-1.54,136.477,-20.23,-29.855,-11.015,-15.527,4.939,-31.526,-129.009,-27.431,9.816,2.342,-29.754,-18.481,-5.753,-34.805,-19.075,-16.935,-30.297,-34.101,-37.806,-114.711,-53.514,-124.517
2.4609043999998903,-9.666,-22.764,-125.722,-43.564,-20.332,-23.567,153.759,-50.436,-48.781,-32.521,-33.954,-7.361,-50.45,-152.958,-37.65,-10.686,-14.567,-46.631,-29.221,-21.628,-44.504,-34.425,-29.213,-40.0,-66.343,-58.261,-126.891,-74.978,-138.737
2.4754495000001953,12.885,-9.421,-117.399,-26.102,-5.455,3.608,121.33,-17.598,-28.24,-9.435,-14.965,2.892,-32.469,-140.51,-17.12,4.182,1.841,-34.801,-12.286,-5.213,-28.578,-15.947,-13.815,-18.956,-83.182,-38.735,-106.784,-64.144,-129.377
2.4904458999999406,9.798,13.642,-103.449,4.662,16.068,29.732,113.524,15.208,-1.059,13.116,5.542,19.283,-11.432,-122.951,-6.345,26.719,14.647,-23.495,1.559,11.186,-14.717,-2.612,0.031,-10.228,-60.558,-20.253,-94.382,-33.342,-123.612
2.490509600000223,-1.482,2.87,-110.006,-10.199,6.318,9.21,146.198,-17.083,-18.477,-10.463,-11.369,10.554,-31.913,-139.222,-19.658,11.323,-0.737,-37.304,-14.837,-6.244,-25.461,-19.003,-12.264,-29.173,-41.542,-42.775,-110.169,-46.628,-135.272
2.5054706000000806,1.081,-17.113,-117.068,-35.292,-8.545,-11.291,142.978,-40.632,-41.512,-28.896,-27.24,-6.875,-49.812,-154.452,-22.712,-6.107,-13.031,-48.025,-33.265,-22.631,-35.681,-33.841,-24.035,-40.414,-36.889,-61.175,-121.33,-76.296,-132.062
2.509404800000084,-3.531,-10.436,-109.266,-27.572,-2.901,-3.083,110.56,-28.296,-34.811,-17.084,-21.577,-4.306,-40.54,-148.15,-19.616,0.56,-12.506,-41.83,-28.621,-15.949,-32.572,-28.684,-20.425,-29.615,-60.931,-51.38,-117.11,-71.096,-124.246
2.5218902999999955,-13.774,1.358,-105.571,-13.712,1.712,6.654,109.425,-19.046,-25.554,-6.821,-15.408,5.944,-33.84,-138.78,-21.645,8.244,-6.858,-31.542,-16.297,-7.736,-26.391,-16.872,-13.232,-17.29,-85.461,-41.082,-111.358,-53.094,-130.781
2.5219584000001305,-5.051,-1.717,-112.638,-11.649,-0.339,9.721,99.582,-9.293,-23.992,-6.814,-12.318,6.451,-32.269,-131.981,-14.452,9.26,4.932,-27.924,-14.744,-4.654,-21.242,-15.831,-13.219,-20.347,-70.006,-40.529,-108.172,-50.992,-132.188
2.535577800000283,5.713,-5.302,-115.599,-14.199,7.859,10.224,67.207,1.474,-21.406,-10.393,-13.843,4.395,-32.237,-132.874,-7.777,8.738,3.39,-33.531,-20.364,-5.674,-20.196,-22.475,-20.378,-30.06,-53.542,-44.587,-109.089,-56.577,-131.543
2.535645299999942,-7.613,-6.321,-111.897,-18.283,10.925,3.041,99.927,-7.236,-24.459,-15.506,-20.489,3.366,-37.84,-139.401,-13.917,3.094,-6.859,-38.109,-22.393,-11.304,-19.151,-20.403,-19.845,-30.543,-52.976,-47.104,-110.517,-57.032,-140.633
2.5506937000000107,-17.339,-8.876,-113.322,-24.925,-2.406,-8.745,132.615,-32.332,-34.68,-21.638,-24.055,-1.248,-43.437,-138.749,-20.051,-1.52,-4.803,-37.558,-21.858,-13.854,-15.546,-17.309,-13.165,-24.364,-41.653,-42.958,-109.894,-48.266,-137.931
2.5507618000001457,-7.588,-6.818,-115.258,-32.073,-9.064,-13.859,100.207,-41.521,-42.843,-28.276,-27.105,-2.784,-48.005,-136.049,-19.006,0.531,-3.262,-38.545,-24.398,-15.377,-16.555,-24.976,-16.738,-24.852,-40.074,-39.329,-111.833,-40.021,-121.399
2.5656073000000106,-7.068,-4.762,-109.507,-31.016,-1.883,-9.235,67.831,-19.963,-40.751,-26.711,-28.615,-0.732,-49.494,-138.474,-18.987,1.043,-6.332,-37.482,-27.96,-19.972,-16.539,-26.488,-20.82,-21.754,-49.256,-41.851,-114.283,-43.055,-113.593
2.569774800000232,-20.381,-9.368,-109.398,-25.862,-4.442,-8.713,100.551,-14.82,-37.124,-20.537,-26.537,-3.805,-45.346,-138.848,-23.067,-1.52,-4.277,-35.395,-28.444,-19.952,-11.399,-23.9,-19.262,-17.634,-45.108,-43.346,-113.144,-54.282,-121.164
2.5827029000001858,-15.75,-10.383,-116.461,-28.397,-10.586,-12.29,133.238,-35.81,-39.648,-23.59,-24.973,-1.752,-42.226,-136.66,-21.507,0.531,-4.272,-38.434,-24.83,-12.76,-6.264,-24.388,-18.219,-20.177,-55.309,-42.278,-110.469,-54.74,-138.461
2.5827720000002046,3.734,-0.639,-112.246,-21.709,2.745,-0.495,100.83,-20.917,-32.436,-18.956,-18.288,9.008,-33.987,-131.4,-7.14,10.777,0.855,-33.272,-15.583,-3.526,1.426,-13.093,-10.516,-15.034,-60.889,-32.502,-100.625,-36.755,-145.495
2.5956888000000617,2.193,-0.126,-113.671,-10.417,7.865,7.702,71.527,-0.916,-24.207,-10.74,-13.147,8.487,-28.318,-128.195,-6.621,12.815,7.002,-25.554,-11.982,-4.035,3.474,-5.908,-7.431,-7.847,-32.139,-25.81,-95.914,-30.57,-139.714
2.5957541000002493,-17.789,-21.131,-137.123,-31.411,-21.344,-18.945,104.243,-33.19,-42.113,-30.709,-32.601,-6.378,-45.196,-138.825,-33.254,-4.104,-5.813,-36.287,-24.265,-20.937,-10.874,-26.394,-25.867,-24.233,-28.521,-42.69,-112.724,-56.155,-148.796
2.6106551000002582,-20.845,-33.917,-142.621,-52.896,-36.18,-32.759,71.864,-43.403,-51.293,-42.461,-43.84,-7.909,-53.348,-138.174,-42.955,-11.272,-10.93,-45.473,-31.413,-28.6,-14.961,-36.102,-30.964,-38.041,-59.743,-57.504,-122.857,-73.005,-155.307
2.610717200000181,-7.505,-12.879,-113.789,-27.74,-5.405,0.062,39.517,-10.572,-25.114,-9.631,-17.668,9.005,-27.166,-110.372,-20.37,10.256,12.135,-28.521,-13.963,-7.055,4.009,-12.499,-9.929,-18.535,-57.122,-37.979,-102.755,-51.928,-135.684
2.6256458000002567,-2.886,6.09,-97.794,-9.782,12.019,18.505,72.265,-5.951,-16.892,4.723,-6.38,15.656,-15.356,-101.04,-7.03,21.004,18.27,-17.734,-6.777,2.174,9.64,-5.827,-6.845,-6.734,-43.232,-23.597,-90.869,-36.506,-132.987
2.6297558999999637,-10.056,-8.261,-110.504,-34.363,-9.51,-11.74,104.98,-38.22,-37.367,-22.946,-27.89,2.833,-37.37,-127.579,-19.318,3.053,-1.728,-34.11,-25.725,-19.345,-3.689,-26.826,-23.744,-27.731,-51.898,-42.528,-103.586,-51.839,-153.859
2.6427076999998462,-13.632,-21.573,-120.64,-42.525,-19.747,-24.536,85.408,-42.281,-37.842,-30.096,-32.473,-3.318,-43.993,-138.722,-29.545,-7.197,-8.386,-44.834,-34.409,-26.498,-6.247,-34.996,-26.794,-40.511,-43.649,-54.269,-108.605,-61.009,-148.582
2.6427859000000353,-10.544,-12.842,-122.568,-26.601,-12.042,-7.093,53.047,-14.061,-27.046,-14.696,-23.731,1.296,-32.166,-126.288,-24.905,-0.529,-4.28,-42.228,-24.641,-15.713,-3.167,-27.276,-24.718,-32.786,-29.773,-44.481,-100.812,-50.189,-137.163
2.65579549999984,-8.485,-10.268,-124.495,-30.673,-19.203,-2.987,20.718,-9.437,-31.117,-13.145,-25.245,0.783,-32.646,-122.063,-19.245,1.52,-4.788,-40.649,-21.542,-16.21,-6.238,-24.687,-25.718,-30.192,-48.187,-40.85,-98.149,-49.115,-150.858
2.6558617000000595,-5.914,-14.356,-119.76,-37.302,-21.745,-8.107,18.136,-8.915,-27.5,-12.619,-22.658,1.807,-32.101,-121.941,-21.275,4.593,-0.172,-33.948,-18.447,-12.608,-2.133,-19.54,-16.983,-25.039,-67.094,-38.76,-93.953,-50.602,-152.244
2.6707381999999598,7.411,-5.632,-111.443,-21.896,-3.28,2.659,43.733,0.316,-15.689,-2.361,-12.389,10.514,-21.31,-119.257,-20.229,13.81,5.464,-23.668,-7.158,0.725,6.066,-7.737,-6.72,-10.157,-64.465,-23.864,-83.613,-35.695,-138.259
2.6857379000002766,17.138,0.009,-113.893,-11.628,5.945,13.415,71.866,1.852,-15.674,2.765,-7.253,12.04,-18.727,-123.237,-11.499,14.82,4.433,-23.132,-5.101,0.212,4.523,-4.655,-7.226,-11.683,-55.179,-20.767,-81.48,-28.487,-143.244
2.685799599999882,3.801,-9.725,-117.365,-18.789,-5.844,7.254,104.582,-7.883,-16.17,1.738,-5.197,8.442,-19.733,-116.966,-9.439,13.269,8.015,-20.548,-12.781,-5.424,0.42,-13.872,-14.391,-26.529,-41.804,-36.627,-87.034,-44.34,-149.249
2.7027258000002803,-11.06,-17.4,-111.613,-26.454,-6.863,-2.487,123.433,-11.974,-12.568,-0.313,-8.266,9.971,-16.64,-100.455,-15.577,16.329,14.155,-12.842,-16.866,-1.32,2.469,-21.543,-20.012,-29.064,-31.516,-43.763,-87.971,-55.054,-149.099
2.7027901000001293,-2.34,-16.358,-114.063,-30.014,2.365,1.101,91.034,3.407,-13.58,-1.85,-13.893,9.448,-17.648,-100.867,-17.61,15.288,14.653,-16.928,-15.313,-2.855,1.954,-19.472,-19.992,-23.912,-37.12,-35.522,-85.834,-46.802,-163.295
2.7158410000001822,6.372,-16.342,-123.682,-28.959,0.314,4.174,85.308,9.551,-15.616,-1.848,-13.367,4.316,-20.704,-109.987,-15.544,12.712,12.589,-23.571,-14.785,-7.976,-2.659,-16.891,-18.947,-23.888,-57.063,-31.901,-86.261,-41.632,-164.156
2.7159074000001056,-4.393,-13.764,-116.386,-20.734,-5.322,-0.953,118.01,-5.827,-16.625,-3.896,-11.304,6.361,-19.146,-107.316,-15.016,14.236,11.04,-24.572,-17.332,-4.894,-0.095,-20.461,-21.49,-26.938,-73.912,-35.967,-87.199,-48.763,-142.987
2.7308603000001312,-10.536,-7.602,-104.999,-13.028,-0.194,5.708,85.617,2.888,-16.608,-1.33,-10.78,9.941,-18.615,-106.184,-15.513,15.246,10.004,-28.646,-16.802,-1.815,7.078,-18.391,-17.882,-30.497,-67.178,-36.956,-83.526,-48.202,-151.041
2.73092940000015,1.257,-6.57,-113.091,-14.552,-1.73,15.948,53.256,21.84,-15.567,1.745,-10.257,8.394,-19.109,-113.25,-13.961,14.719,9.994,-30.667,-10.125,-2.326,8.608,-9.663,-11.717,-29.442,-57.377,-32.308,-77.807,-36.371,-176.506
2.745827499999905,8.428,-11.174,-119.638,-19.661,-16.585,4.149,85.99,-3.285,-19.137,-4.917,-11.784,8.385,-19.602,-113.649,-13.434,14.704,9.984,-25.513,-5.504,-0.786,7.575,-7.092,-11.192,-19.166,-59.881,-25.104,-75.167,-32.748,-161.472
2.7459139000002324,-0.802,-10.138,-109.784,-18.104,-17.594,-6.101,118.692,-21.724,-21.68,-6.961,-12.797,9.402,-19.582,-113.023,-18.544,13.152,7.925,-24.975,-4.987,1.264,8.079,-6.573,-7.083,-11.462,-38.304,-20.98,-76.117,-34.764,-135.183
2.761747699999887,-7.461,-6.03,-108.65,-16.037,-4.256,6.2,86.298,7.499,-17.047,-0.806,-13.809,2.732,-20.075,-121.619,-19.038,9.041,3.818,-32.122,-9.08,-4.885,2.436,-8.615,-8.1,-21.697,-17.261,-27.619,-81.164,-33.705,-147.856
2.7618145999999797,-2.33,-12.684,-117.251,-21.656,-6.813,6.194,53.936,16.201,-19.592,-7.978,-20.967,-3.931,-24.153,-126.621,-12.359,1.347,-1.821,-39.775,-21.879,-16.151,-6.276,-21.927,-25.511,-37.045,-49.52,-39.887,-88.255,-43.405,-170.249
2.775995800000146,-4.377,-19.843,-117.133,-26.758,-15.516,-8.669,86.67,-10.456,-25.208,-16.679,-24.02,-1.877,-27.203,-118.81,-12.859,-1.216,-0.794,-39.223,-28.517,-19.209,-7.294,-29.077,-31.121,-34.446,-81.745,-43.945,-90.728,-50.534,-170.591
2.7760628999999426,-15.644,-15.725,-117.529,-22.632,-11.914,-6.099,93.243,-15.056,-20.572,-10.515,-17.848,0.686,-22.565,-108.957,-18.994,2.371,4.842,-33.036,-23.365,-15.603,-5.238,-22.388,-20.331,-24.678,-55.024,-41.852,-88.076,-40.75,-171.445
2.790899999999965,-14.091,-15.709,-124.071,-21.585,-9.853,0.567,60.875,-1.209,-21.063,-10.504,-20.904,-2.389,-23.567,-108.848,-18.975,-1.217,2.275,-35.052,-25.903,-17.125,-7.282,-23.902,-24.921,-32.338,-42.673,-43.86,-87.476,-40.197,-177.422
2.7909598999999616,-7.417,-19.28,-118.824,-22.588,-11.892,-1.482,43.395,6.989,-23.092,-15.617,-24.982,-2.898,-29.179,-113.862,-15.369,-3.265,1.249,-38.603,-31.513,-16.083,-6.762,-29.514,-29.507,-37.941,-45.704,-44.328,-85.339,-46.817,-169.047
2.8059846999999536,-17.656,-7.99,-104.873,-12.319,-7.27,5.179,76.14,15.692,-13.335,-5.355,-14.711,2.74,-20.44,-113.236,-14.842,5.96,8.932,-27.294,-22.26,-7.87,-1.632,-22.312,-16.158,-20.997,-20.556,-34.038,-79.106,-29.351,-156.07
2.8060577000001103,-26.859,-1.322,-105.28,-6.672,-11.361,4.662,108.851,8.504,-16.395,-5.35,-15.208,1.712,-18.883,-114.147,-20.462,2.88,3.288,-28.803,-19.676,-11.448,-4.704,-22.29,-18.703,-18.926,-26.171,-32.467,-79.539,-20.1,-158.988
2.8229747000000316,-19.66,-21.813,-120.544,-25.108,-24.669,-14.298,130.259,-18.145,-37.896,-25.837,-35.173,-11.097,-41.406,-125.304,-31.713,-17.103,-14.646,-53.878,-36.05,-26.294,-16.483,-37.124,-37.64,-42.986,-58.42,-50.365,-88.681,-48.769,-168.563
2.82303950000005,-19.128,-36.136,-131.182,-38.403,-26.694,-21.456,119.371,-23.762,-40.932,-31.446,-38.724,-17.234,-49.561,-130.814,-38.853,-22.209,-15.656,-59.459,-40.625,-27.804,-17.491,-40.161,-36.065,-49.091,-58.874,-57.487,-93.203,-67.164,-171.981
2.83642540000028,-26.282,-20.73,-120.292,-22.995,-17.958,-6.066,86.976,-0.684,-22.448,-14.509,-22.804,-6.97,-31.069,-120.949,-34.204,-9.891,-3.345,-36.858,-25.727,-18.555,-4.666,-24.752,-21.685,-30.598,-39.347,-41.548,-84.401,-46.092,-166.686
2.836500899999919,-15.497,-4.828,-98.143,-6.578,-8.719,10.334,54.613,25.956,-6.544,0.875,-14.072,4.82,-16.693,-109.558,-23.411,-0.66,5.879,-25.551,-14.431,-12.389,3.023,-12.944,-17.564,-20.834,-29.574,-29.211,-73.558,-19.918,-152.687
2.8500213000002077,-4.211,-5.335,-92.922,-9.646,-5.636,13.91,59.17,34.127,-3.976,3.948,-14.058,4.303,-17.189,-105.35,-19.289,-1.172,8.435,-31.673,-14.929,-9.815,-1.59,-16.005,-19.596,-21.838,-21.86,-31.743,-73.997,-17.337,-152.022
2.864991100000225,-13.428,-13.015,-110.247,-15.784,-16.901,2.625,91.898,11.039,-17.292,-7.839,-20.704,-4.411,-24.856,-111.392,-27.979,-8.343,0.742,-36.764,-22.598,-16.977,-7.224,-25.723,-26.237,-26.939,-38.744,-38.884,-80.583,-30.127,-174.923
2.8650495000001683,-18.538,-18.637,-120.895,-18.33,-25.081,-11.722,124.594,-16.636,-32.643,-20.126,-32.978,-10.554,-32.516,-117.941,-38.197,-16.019,-8.992,-39.289,-31.797,-24.645,-9.266,-31.332,-29.796,-34.597,-56.124,-41.919,-80.502,-37.782,-177.822
2.880040200000167,-6.736,-17.082,-114.115,-19.848,-14.81,-12.222,117.809,-12.009,-29.537,-18.057,-32.945,-11.056,-31.971,-113.724,-34.573,-16.003,-4.885,-41.811,-30.741,-21.034,-8.232,-31.813,-24.644,-34.562,-34.038,-39.315,-77.348,-33.133,-158.689
2.8840172999998686,-6.729,-17.064,-110.927,-23.414,-12.746,-9.649,85.416,3.372,-22.335,-14.965,-26.252,-9.508,-30.914,-114.123,-27.878,-14.45,-2.831,-43.306,-28.149,-20.501,-10.273,-32.806,-25.644,-32.478,-17.61,-40.301,-80.856,-31.051,-164.166
2.896895200000017,-23.629,-22.683,-119.013,-24.928,-27.59,-11.688,71.498,0.295,-27.436,-20.586,-30.837,-8.986,-32.933,-124.255,-29.9,-18.534,-9.488,-44.288,-32.731,-26.628,-15.898,-34.823,-28.692,-37.057,-21.179,-46.92,-84.874,-36.143,-180.908
2.8969614000002366,-25.142,-17.537,-114.795,-16.194,-26.025,-6.041,57.082,5.93,-26.384,-16.979,-27.22,-6.415,-26.752,-117.983,-30.382,-16.979,-5.892,-39.633,-27.576,-21.478,-12.809,-28.64,-19.954,-33.433,-13.473,-43.287,-79.666,-30.471,-170.993
2.910201799999868,-9.235,-4.712,-104.946,-3.37,-11.143,4.723,29.873,25.904,-15.087,-6.716,-15.922,-3.335,-21.09,-104.033,-24.716,-9.789,2.31,-30.884,-16.789,-13.26,-5.623,-19.902,-13.274,-23.154,-20.632,-30.436,-70.365,-17.633,-165.187
2.9102671999999075,-6.152,-12.392,-111.502,-4.391,-13.693,2.669,62.631,21.268,-17.121,-9.271,-22.566,-5.381,-26.704,-109.564,-24.691,-11.829,-1.79,-32.902,-22.92,-15.808,-11.766,-23.468,-19.921,-22.106,-42.128,-31.43,-70.295,-21.202,-176.805
2.9251242000000275,-16.392,-28.261,-121.636,-17.707,-24.438,-10.141,95.356,-1.808,-30.936,-20.02,-31.253,-11.011,-33.85,-116.114,-29.79,-20.526,-8.449,-41.066,-34.168,-21.94,-21.488,-34.203,-26.048,-28.232,-44.135,-42.157,-76.372,-40.136,-172.529
2.9251861000002464,-13.302,-29.257,-122.027,-28.96,-25.438,-17.816,62.985,-4.88,-35.516,-25.635,-29.172,-13.562,-35.865,-109.851,-36.932,-23.067,-6.903,-40.513,-33.109,-23.967,-19.417,-37.243,-28.072,-36.913,-48.702,-46.214,-77.32,-51.366,-165.697
2.9401701000001594,-5.604,-31.277,-129.589,-36.615,-28.999,-17.285,30.647,0.248,-31.382,-26.122,-33.241,-12.523,-36.854,-111.278,-44.58,-24.069,-4.847,-36.886,-32.052,-26.505,-16.836,-35.157,-31.63,-43.536,-57.875,-46.68,-74.681,-48.241,-182.95
2.9442775000002257,-8.16,-33.295,-134.583,-32.993,-33.068,-12.145,63.404,0.248,-25.203,-19.948,-31.159,-7.9,-30.669,-112.703,-38.9,-22.508,-1.256,-33.263,-28.434,-22.38,-18.356,-31.535,-26.987,-36.32,-41.935,-45.096,-72.045,-36.41,-193.013
2.9569366999999147,-6.615,-14.306,-113.956,-9.394,-20.74,0.675,96.128,11.519,-14.931,-3.534,-11.66,4.403,-13.733,-98.246,-20.93,-7.628,11.553,-19.397,-9.962,-9.038,-8.604,-16.135,-11.591,-18.865,-18.327,-30.194,-63.264,-18.955,-175.914
2.970654199999899,2.613,5.176,-90.788,8.547,-0.227,15.019,120.11,20.216,-3.646,11.839,1.159,15.157,-0.911,-83.803,-13.225,9.798,21.275,-7.083,2.343,3.779,3.7,-0.749,-0.821,-10.137,-1.403,-12.233,-53.467,-2.542,-160.881
2.970717799999875,9.783,3.121,-93.259,1.366,6.946,18.078,93.863,16.098,-4.667,11.314,-0.379,11.556,-3.984,-86.281,-14.236,6.714,13.569,-14.76,-5.856,4.8,0.11,-6.384,-5.431,-9.615,-1.914,-10.172,-52.389,-2.027,-159.695
2.9707594000001336,11.822,-6.616,-106.486,-12.98,-0.233,7.813,61.493,17.106,-21.056,-2.529,-10.625,-0.751,-16.275,-100.027,-16.784,-8.15,-2.838,-28.578,-14.559,-6.988,-9.111,-20.21,-17.209,-18.314,-23.941,-22.457,-56.947,-19.444,-159.536
2.985257499999989,-0.485,-14.294,-113.552,-17.578,-9.455,-2.441,54.772,16.577,-30.256,-12.773,-21.372,-6.898,-27.018,-107.612,-27.525,-11.215,-6.934,-31.111,-16.594,-14.153,-11.664,-21.214,-18.216,-32.64,-14.183,-31.656,-62.525,-28.134,-164.499
3.000251400000252,-11.755,-6.595,-111.389,-5.777,-5.347,5.246,87.505,16.048,-16.394,-2.514,-12.13,2.33,-20.843,-96.745,-25.961,-0.446,6.393,-21.346,-7.356,-1.331,-6.017,-7.361,-4.878,-22.362,18.619,-20.354,-56.315,-6.076,-174.581
3.015228300000217,2.601,14.929,-103.08,16.258,9.003,26.758,77.683,35.5,3.09,19.006,7.863,17.697,3.256,-79.743,-1.344,8.776,20.731,-7.492,11.607,13.014,0.137,6.991,7.935,4.301,0.157,2.208,-39.353,20.058,-172.357
3.0192121000000043,8.746,6.717,-101.953,16.241,3.871,25.707,45.33,38.538,-4.597,13.863,-0.342,13.069,2.741,-83.761,0.194,5.694,12.514,-11.583,6.472,4.292,-8.572,1.861,0.242,-2.364,-32.119,-4.454,-43.924,4.668,-162.451
3.0315138999999363,-15.341,-25.565,-114.146,-12.976,-19.186,-5.57,78.073,6.224,-29.184,-13.815,-24.933,-8.461,-26.463,-102.633,-30.544,-8.144,-8.503,-35.65,-20.687,-14.667,-26.495,-19.657,-21.275,-28.489,-22.353,-32.626,-67.446,-27.612,-166.387
3.031581499999902,-16.862,-27.589,-117.618,-23.21,-16.093,-13.761,101.048,0.07,-27.618,-14.826,-23.883,-9.99,-27.974,-105.092,-33.075,-13.259,-8.495,-36.127,-22.203,-14.653,-29.03,-22.712,-23.303,-24.874,7.383,-32.082,-67.891,-27.072,-178.516
3.0454349999999977,7.233,-5.532,-110.328,-4.743,5.44,8.794,68.672,29.271,-10.171,2.095,-10.027,6.927,-7.966,-91.154,-10.501,-1.975,6.883,-13.037,-6.299,-2.855,-17.218,-6.807,-9.96,-9.992,14.036,-14.631,-53.479,2.669,-179.874
3.0455041000000165,-4.045,-11.162,-118.927,-2.689,-1.226,5.712,71.677,23.607,-17.846,-7.128,-16.165,3.333,-16.667,-90.551,-20.224,-0.436,3.802,-15.073,-15.514,-8.488,-23.348,-12.948,-15.073,-19.716,-1.347,-22.813,-61.11,-0.407,-175.596
3.0603430999999546,-30.169,-27.032,-132.128,-17.544,-21.205,-15.811,84.413,-0.495,-32.173,-22.491,-31.005,-13.576,-32.02,-100.707,-41.721,-13.243,-9.522,-33.501,-29.843,-21.799,-41.768,-32.915,-30.427,-36.09,-29.523,-39.184,-74.881,-27.047,-180.031
3.0604066000000785,-19.38,-23.932,-120.213,-18.551,-18.622,-8.623,52.053,14.874,-22.407,-14.783,-28.925,-8.952,-23.791,-103.167,-31.433,-12.718,-6.438,-31.418,-23.154,-19.728,-43.263,-29.296,-28.347,-33.493,-28.469,-36.584,-67.634,-27.532,-189.585
3.0753551000002517,-7.578,-20.321,-108.822,-16.995,-11.943,0.095,83.764,26.13,-18.798,-9.133,-22.748,-1.77,-23.255,-103.576,-20.131,-6.045,-3.87,-28.825,-20.569,-14.585,-37.072,-22.095,-22.683,-24.75,-0.263,-32.961,-59.369,-17.259,-191.445
3.079361600000084,-27.038,-26.449,-122.546,-22.101,-11.419,-15.274,116.468,-0.536,-32.612,-17.833,-27.849,-9.453,-33.478,-102.961,-28.82,-11.674,-10.527,-34.944,-26.696,-20.206,-43.183,-30.782,-25.222,-26.262,-6.411,-36.514,-64.945,-23.389,-185.105
3.1058516000002783,-31.109,-24.373,-122.935,-13.882,-3.211,-10.648,84.076,3.051,-26.431,-13.717,-25.259,-6.37,-26.272,-93.636,-26.742,-10.126,-4.368,-27.737,-20.522,-16.087,-46.726,-25.628,-20.074,-29.822,-24.335,-32.379,-62.831,-21.316,-180.822
3.105921700000181,-11.61,-16.152,-103.857,-0.548,-2.695,7.293,51.717,34.299,-15.134,-6.019,-20.111,-0.216,-20.61,-92.518,-20.055,-5.505,-0.778,-25.147,-17.94,-10.436,-43.605,-17.405,-18.005,-28.768,-21.749,-28.761,-56.621,-12.074,-183.203
3.105965300000207,-19.796,-23.82,-110.925,-11.819,-23.185,-12.182,84.453,8.649,-34.074,-23.431,-34.948,-13.536,-38.52,-110.868,-37.454,-22.406,-19.22,-44.59,-36.365,-29.893,-56.881,-36.856,-34.381,-34.374,-34.023,-44.101,-69.372,-20.258,-189.679
3.1060081999999056,-44.879,-37.117,-132.331,-28.713,-33.92,-34.711,117.156,-23.635,-46.336,-36.728,-47.208,-15.571,-46.166,-117.418,-49.199,-31.605,-26.885,-49.668,-44.525,-41.646,-68.095,-47.577,-39.469,-43.562,-34.501,-53.791,-76.475,-28.947,-196.15
3.1204947000001084,-31.002,-26.833,-122.465,-16.901,-17.492,-11.623,84.764,9.176,-21.186,-13.125,-28.718,6.473,-24.603,-98.857,-27.121,-10.569,-6.879,-29.126,-23.476,-18.551,-56.244,-26.525,-22.011,-39.932,-1.679,-37.855,-58.98,-21.746,-194.929
3.120559299999968,-2.281,-8.363,-99.801,6.682,-2.106,10.93,52.404,41.955,-5.796,4.307,-12.295,11.078,-11.259,-86.975,-12.237,1.737,3.887,-19.363,-11.67,-6.749,-48.503,-18.302,-16.866,-29.133,-6.288,-26.034,-48.675,-15.577,-182.439
3.135467399999925,-12.525,-11.429,-95.603,13.335,-4.665,0.161,85.139,23.47,-21.159,-12.091,-24.066,-4.303,-24.055,-93.548,-28.618,-10.047,-6.876,-31.127,-27.539,-22.624,-59.725,-32.628,-30.169,-28.08,-38.557,-34.718,-57.335,-13.0,-174.572
3.139653300000191,-29.931,-18.59,-98.581,12.297,-10.296,-6.499,52.778,18.836,-27.798,-19.252,-32.751,-5.323,-30.691,-97.553,-36.787,-15.673,-10.455,-33.145,-35.197,-26.7,-66.838,-36.694,-34.238,-34.199,-20.075,-40.318,-59.839,-9.4,-184.131
3.1526404999999613,-14.532,-13.96,-100.02,14.847,-11.822,1.192,45.553,32.137,-17.524,-8.474,-21.96,-0.707,-22.463,-91.82,-25.479,-8.485,-2.247,-21.329,-21.329,-16.427,-66.259,-28.46,-26.006,-33.14,2.486,-35.667,-56.193,-10.928,-184.459
3.152701800000159,-6.321,-10.873,-101.456,12.27,-18.471,1.191,78.295,13.149,-14.945,-8.465,-16.303,-2.755,-17.83,-88.142,-24.429,-4.89,0.316,-18.234,-12.086,-11.8,-67.217,-20.235,-18.296,-24.398,-12.886,-31.533,-54.088,-10.405,-163.27
3.1655267000001004,-23.733,-11.374,-101.867,6.11,-29.211,-4.446,111.005,-2.233,-20.566,-12.555,-23.971,-3.777,-18.325,-90.616,-35.675,-6.934,-2.758,-24.363,-14.123,-11.788,-69.712,-16.628,-18.79,-22.837,-7.237,-30.477,-50.96,-5.271,-164.644
3.165590399999928,-29.857,-18.535,-104.327,-1.068,-30.718,-12.638,78.618,4.941,-30.791,-20.228,-30.095,-10.946,-27.528,-95.648,-40.763,-14.612,-7.878,-28.95,-24.355,-21.51,-78.351,-29.932,-31.579,-39.72,-3.644,-42.742,-60.131,-18.074,-192.144
3.180536700000175,-24.192,-37.472,-111.395,-11.313,-26.077,-24.409,46.264,2.375,-47.666,-38.65,-38.774,-25.279,-48.505,-97.602,-39.697,-28.43,-16.58,-34.556,-41.237,-35.321,-91.593,-50.394,-47.429,-55.562,-35.916,-64.728,-74.415,-45.208,-193.488
3.180600300000151,-27.241,-44.094,-113.845,-13.863,-28.612,-26.434,19.066,3.909,-49.156,-40.149,-46.42,-24.229,-52.555,-96.479,-41.195,-31.475,-18.1,-38.62,-44.782,-33.749,-93.55,-50.856,-45.844,-50.383,-43.564,-66.713,-71.267,-50.798,-178.438
3.2115515999998934,-26.702,-33.292,-108.608,-3.603,-33.707,-18.21,51.834,14.664,-32.2,-25.252,-36.64,-10.885,-30.986,-93.309,-46.276,-19.661,-8.348,-29.36,-27.831,-23.469,-89.358,-36.973,-33.503,-39.574,-10.733,-53.326,-62.999,-30.767,-186.456
3.228668600000219,-18.99,-29.672,-107.475,3.572,-26.501,-13.069,84.57,7.989,-23.971,-20.616,-22.771,-6.264,-21.221,-87.068,-41.619,-11.956,-3.217,-18.572,-18.069,-18.322,-91.318,-28.227,-29.371,-39.023,-11.747,-47.637,-61.399,-19.978,-190.368
3.2287317999998777,-12.311,-27.081,-116.077,4.081,-15.716,-5.371,52.21,11.567,-25.484,-14.96,-21.211,-4.208,-25.298,-82.37,-23.135,-9.895,-3.213,-20.09,-19.588,-13.693,-91.227,-23.588,-27.805,-36.934,-34.277,-44.004,-55.19,-28.155,-182.493
3.228772200000094,-4.102,-19.369,-119.547,7.151,-14.163,5.393,19.883,32.56,-19.311,-3.162,-16.067,3.993,-18.1,-85.874,-16.452,-3.225,0.376,-21.607,-13.933,-8.556,-85.5,-15.88,-19.58,-33.824,-23.996,-36.275,-47.45,-27.615,-193.069
3.2288109999999506,-2.561,-21.912,-107.644,6.119,-15.174,4.363,52.651,24.331,-14.169,-5.208,-8.366,8.6,-9.373,-83.739,-27.194,0.364,2.425,-16.463,-5.722,-1.888,-84.903,-10.741,-13.413,-31.74,-5.529,-32.14,-44.841,-15.292,-195.95
3.240614199999982,-4.608,-25.476,-98.315,1.502,-10.548,-3.839,85.386,3.302,-20.814,-11.862,-12.456,5.517,-15.511,-72.384,-24.605,-0.149,1.91,-14.397,-4.692,1.7,-87.379,-11.754,-14.424,-23.512,4.21,-31.596,-42.747,-14.252,-178.336
3.240679999999884,-0.505,-25.45,-110.0,0.476,-6.951,-5.372,53.025,9.446,-25.917,-8.264,-17.054,1.413,-18.57,-76.41,-14.334,0.876,1.396,-17.969,-6.224,-5.474,-90.366,-15.329,-20.557,-22.464,9.841,-33.614,-45.778,-22.434,-186.354
3.2556322999998883,-3.578,-30.036,-119.111,-0.037,-8.481,-1.78,20.696,21.22,-23.842,-7.231,-12.939,0.387,-14.965,-93.24,-19.443,-1.174,-5.265,-23.074,-10.317,-13.153,-98.984,-19.924,-28.221,-33.712,-11.685,-38.191,-50.855,-23.949,-205.636
3.2556909999998425,-14.333,-26.932,-107.721,3.55,-7.448,2.32,44.242,27.347,-20.232,-7.224,-10.877,0.899,-17.511,-92.122,-25.571,-5.271,-8.846,-24.075,-12.868,-9.041,-106.058,-21.954,-26.656,-32.654,-34.728,-35.591,-47.218,-22.9,-194.159
3.272604300000239,-11.757,-16.659,-102.491,11.743,-2.317,9.49,35.488,37.053,-16.113,-0.045,-10.354,3.972,-18.006,-76.661,-18.373,0.882,-1.665,-16.879,-6.707,-4.421,-101.853,-15.272,-18.433,-20.838,-19.324,-27.871,-39.486,-21.34,-184.231
3.272674000000279,-2.524,-14.08,-115.708,8.657,-0.266,8.456,68.241,23.696,-14.56,0.98,-6.757,7.042,-11.841,-75.047,-13.232,7.541,0.898,-13.276,-3.627,-2.88,-99.19,-9.109,-17.39,-20.817,-17.255,-23.744,-35.348,-13.122,-195.318
3.285733000000164,-2.521,-16.628,-121.74,0.452,-3.852,-1.799,100.96,2.668,-17.619,-5.169,-8.287,6.523,-11.829,-84.706,-17.317,2.41,-1.664,-22.484,-9.771,-2.365,-108.312,-15.247,-21.471,-25.919,-38.242,-27.819,-36.338,-11.06,-195.635
3.285797999999886,-6.105,-16.611,-116.495,9.161,-3.335,-0.26,68.584,19.571,-15.04,-5.676,-12.377,4.467,-14.378,-84.622,-21.398,-0.154,-0.638,-23.486,-13.347,-9.023,-117.938,-24.454,-26.06,-32.041,-15.15,-37.013,-43.474,-17.196,-192.878
3.30100930000026,-9.173,-14.545,-105.108,18.885,3.328,11.011,36.24,46.192,-6.828,0.477,-9.803,5.487,-10.266,-71.729,-17.278,3.433,1.412,-10.143,-12.821,-13.112,-119.357,-24.429,-27.571,-36.108,13.042,-39.025,-45.479,-17.691,-198.832
3.301075299999866,-10.7,-11.969,-92.195,12.206,2.812,8.951,68.991,36.412,-6.821,2.526,-6.207,8.043,-7.182,-69.096,-14.187,1.38,0.898,-9.108,-12.296,-6.439,-122.824,-20.306,-23.445,-27.875,-16.173,-33.351,-40.311,-14.088,-193.51
3.3157829000001584,-7.103,-14.007,-94.665,8.608,-6.412,0.745,101.71,17.42,-11.425,-0.55,-7.738,8.035,-9.224,-74.15,-22.37,-0.671,2.946,-16.271,-8.186,-3.359,-129.361,-17.724,-16.249,-20.162,-31.526,-31.268,-40.27,-12.537,-182.046
3.3158477000001767,-7.609,-16.554,-111.476,12.698,-4.869,2.281,69.333,20.988,-10.901,-3.111,-9.267,7.515,-11.264,-67.928,-24.397,1.891,4.993,-11.132,-4.079,-5.917,-133.842,-16.682,-15.721,-23.728,-3.83,-31.237,-41.255,-9.45,-179.815
3.3324170000000777,-10.675,-18.075,-117.0,5.001,2.308,-1.82,36.988,24.554,-16.526,-9.256,-12.332,2.897,-18.425,-67.348,-14.638,-4.258,-0.648,-9.584,-13.809,-12.059,-142.418,-24.862,-26.976,-28.315,-12.535,-35.304,-42.75,-13.027,-181.684
3.3324806000000535,-10.152,-20.618,-105.612,0.897,0.257,-5.916,5.7,27.091,-22.657,-11.808,-15.906,-0.18,-23.529,-81.625,-12.575,-10.402,-7.819,-20.333,-23.529,-19.219,-152.009,-33.034,-33.096,-28.287,-37.113,-43.466,-47.831,-21.723,-191.237
3.346208800000113,-13.728,-12.913,-93.211,21.388,4.355,9.971,19.015,44.482,-7.778,-0.013,-7.693,11.091,-11.21,-73.347,-11.537,1.392,0.898,-15.189,-11.722,-12.54,-148.783,-21.73,-20.768,-21.086,-11.973,-34.713,-42.148,-11.968,-199.242
3.3462726000002476,-21.399,-7.777,-91.581,27.515,9.474,12.01,51.783,36.241,-2.134,3.061,-6.148,16.203,-6.076,-53.293,-5.378,4.977,11.143,-3.903,-1.977,-5.867,-150.171,-16.073,-16.136,-16.454,-0.69,-25.457,-36.47,-3.759,-190.334
3.3607907999999043,-18.304,-28.261,-105.322,-1.714,-10.003,-20.277,84.519,3.929,-28.772,-21.533,-26.635,-3.794,-24.513,-68.097,-18.181,-14.496,-3.213,-17.219,-19.905,-22.767,-167.44,-36.037,-35.588,-32.319,-32.965,-45.411,-51.803,-25.272,-189.631
3.360863700000209,-14.699,-38.479,-111.876,-9.397,-21.776,-23.843,52.159,12.634,-33.867,-30.221,-31.731,-12.499,-32.173,-84.935,-29.945,-20.629,-13.456,-26.936,-32.693,-29.405,-168.297,-42.149,-41.7,-43.046,-28.321,-56.124,-57.386,-36.517,-202.761
3.375797600000169,-17.758,-18.461,-101.518,20.326,-1.262,8.969,19.832,45.409,-6.168,-4.575,-11.719,4.932,-18.821,-69.993,-14.546,-4.215,-0.122,-11.54,-16.267,-10.932,-151.735,-23.151,-22.703,-28.146,4.495,-35.576,-38.374,-13.427,-197.948
3.3758560000001125,-14.154,-14.344,-99.368,27.99,1.813,4.349,52.6,36.142,-9.236,-4.571,-13.244,4.927,-17.778,-71.972,-10.946,-2.161,-0.122,-9.479,-9.078,-11.433,-157.218,-21.079,-17.045,-19.408,-7.293,-32.979,-35.261,-4.704,-184.942
3.3924854000001687,-10.042,-31.236,-103.367,9.519,-20.731,-24.345,85.335,3.831,-33.305,-32.743,-32.187,-12.496,-32.104,-88.294,-28.865,-17.528,-12.417,-20.74,-22.389,-27.816,-176.529,-33.866,-28.811,-29.123,-22.143,-49.34,-48.034,-21.093,-183.733
3.3925465000002077,-20.278,-30.692,-96.603,6.436,-22.247,-17.148,52.974,13.049,-30.71,-32.198,-32.154,-10.947,-36.171,-76.423,-33.447,-20.072,-7.282,-17.646,-25.44,-26.763,-177.889,-33.832,-31.344,-33.192,-4.702,-46.729,-48.498,-18.511,-191.234
3.4058995999998842,-31.016,-23.489,-102.142,16.163,-15.565,-6.885,20.646,33.016,-25.044,-18.333,-25.975,-3.764,-32.548,-69.686,-31.877,-14.417,-7.275,-15.067,-21.317,-24.175,-178.736,-32.773,-25.677,-27.011,-15.456,-40.534,-47.425,-7.222,-203.85
3.4059674999998606,-20.739,-25.003,-112.799,17.172,-15.549,-18.149,53.413,15.052,-31.167,-22.926,-26.973,-5.297,-30.467,-80.887,-32.357,-14.402,-16.489,-20.175,-21.807,-27.737,-185.729,-32.741,-21.04,-18.787,-33.371,-42.031,-49.939,-16.948,-195.449
3.420856300000196,-3.3,-15.756,-91.681,19.204,-0.676,-8.909,45.162,19.135,-21.914,-18.804,-16.188,3.418,-22.239,-66.974,-13.882,-5.679,-2.64,-12.47,-12.564,-15.414,-176.834,-21.437,-15.384,-12.621,-0.55,-32.255,-38.106,-15.907,-164.003
3.4358181000002332,-7.395,-1.396,-68.023,27.894,11.107,8.519,12.842,44.219,-10.109,-2.904,-3.876,13.66,-11.971,-47.952,-0.548,8.671,12.219,-0.162,1.793,-0.029,-166.411,-10.657,-9.221,-12.608,32.238,-21.976,-27.31,9.725,-164.864
3.4358885000001465,-19.171,-4.98,-78.714,31.452,-0.687,1.338,45.617,34.441,-16.247,-5.975,-8.483,6.987,-15.033,-57.638,-12.331,7.638,3.498,-1.187,-0.77,-3.615,-174.442,-12.696,-10.749,-13.62,9.152,-22.979,-32.918,14.838,-182.63
3.4508530000002793,-16.077,-16.246,-91.955,21.175,-9.908,-7.885,78.359,14.939,-27.501,-17.24,-19.745,-0.192,-26.288,-69.876,-20.515,-4.665,-7.264,-12.456,-13.065,-16.42,-184.001,-22.417,-20.472,-15.143,-23.132,-28.079,-40.057,-7.206,-171.176
3.4546776000001955,-12.475,-17.255,-92.888,12.956,-10.922,-4.803,46.005,24.658,-29.523,-16.198,-21.775,0.832,-27.799,-72.879,-20.495,-9.271,-10.331,-23.202,-19.2,-21.014,-184.33,-27.005,-24.55,-20.764,-31.819,-33.174,-38.48,-8.736,-177.153
3.466634299999896,-16.049,-6.991,-91.258,26.263,-7.838,3.398,26.491,40.515,-17.198,-5.423,-11.507,4.418,-17.013,-71.27,-20.474,0.984,-7.759,-16.007,-13.033,-10.747,-181.584,-15.707,-14.279,-15.107,-27.176,-25.969,-31.269,14.327,-201.054
3.4666975000000093,-3.225,0.188,-81.433,39.045,3.441,13.129,59.252,38.937,-5.91,2.267,-0.737,12.098,-8.799,-58.903,-11.232,11.23,1.983,2.452,-1.749,-0.49,-175.255,-3.909,-4.019,-1.772,-6.144,-11.086,-22.529,24.559,-181.898
3.480961799999932,7.024,-12.107,-83.401,21.587,-1.686,3.894,64.829,23.529,-19.736,-7.469,-7.909,8.5,-16.475,-60.381,-13.782,4.558,-1.093,-4.722,-4.821,-10.223,-176.104,-13.639,-11.699,-10.48,9.744,-19.272,-26.605,11.214,-168.908
3.481028300000162,-8.864,-30.538,-104.834,0.561,-23.713,-15.578,32.488,18.382,-30.987,-23.343,-23.782,-4.829,-29.778,-78.764,-34.261,-8.766,-15.436,-26.234,-19.161,-23.021,-189.76,-26.945,-20.397,-29.425,-4.611,-37.695,-39.898,-5.191,-192.305
3.4959555000000364,-18.589,-28.971,-108.828,4.147,-21.64,-8.39,12.988,36.295,-16.612,-15.123,-22.221,-1.238,-26.675,-73.562,-31.665,-6.708,-12.347,-24.671,-19.654,-19.924,-195.718,-25.381,-17.815,-26.321,-27.66,-34.584,-39.858,-8.26,-189.039
3.496017700000266,-9.862,-25.356,-101.034,6.192,-14.446,0.328,45.763,37.283,-13.521,-4.35,-15.027,5.936,-14.353,-60.168,-18.826,-1.066,-4.65,-12.351,-15.023,-18.367,-191.936,-24.843,-22.408,-18.61,-31.219,-30.451,-36.744,-10.813,-181.678
3.5109286000001703,-11.389,-38.138,-112.716,-2.524,-25.703,-16.066,72.869,8.044,-31.951,-19.714,-24.233,-6.366,-19.974,-67.793,-32.127,-7.213,-10.281,-14.388,-20.644,-26.033,-198.404,-33.016,-34.168,-27.813,-22.478,-40.667,-45.417,-22.073,-204.038
3.5148810999999114,-15.476,-39.125,-115.677,-0.472,-20.041,-22.71,40.521,5.475,-34.993,-28.404,-31.894,-10.458,-30.2,-71.311,-37.218,-9.255,-9.246,-14.374,-22.672,-24.47,-205.378,-33.495,-31.573,-33.933,-22.968,-42.163,-47.421,-20.514,-202.809
3.5279347999999118,-10.337,-24.741,-96.094,6.189,-4.652,-10.904,32.796,25.962,-23.175,-16.593,-24.177,-0.713,-24.022,-65.604,-21.811,-1.049,-0.528,-5.138,-14.965,-17.273,-196.463,-26.801,-23.344,-27.239,-26.531,-34.948,-39.689,-6.661,-189.798
3.5280053999999836,-12.888,-26.765,-95.486,2.084,-11.308,-11.406,65.551,20.813,-23.151,-14.014,-18.518,-0.2,-19.899,-63.49,-22.302,-0.023,-2.576,-3.596,-13.926,-15.719,-189.095,-26.262,-24.858,-27.724,-14.721,-35.426,-39.649,-8.704,-203.953
3.5401614000002155,-17.486,-31.862,-110.247,-0.992,-15.395,-10.882,33.21,18.23,-27.227,-16.562,-18.499,0.312,-23.466,-56.254,-24.841,-1.047,-5.648,-11.277,-14.936,-14.167,-194.029,-25.211,-24.833,-31.283,-12.145,-35.903,-40.634,-15.355,-198.114
3.54023159999997,-11.321,-23.121,-101.94,7.718,-11.281,3.986,0.901,42.29,-19.003,-8.348,-13.358,5.947,-16.782,-54.148,-13.033,5.101,-5.13,-13.827,-9.798,-9.029,-193.322,-16.477,-17.123,-20.493,-32.625,-27.67,-34.958,-5.093,-171.788
3.5550444000000425,-12.334,-20.536,-85.956,13.858,-16.393,0.396,33.688,35.076,-15.91,-9.365,-11.295,1.843,-14.716,-65.365,-16.094,6.121,-8.198,-10.227,-9.276,-11.07,-190.055,-13.899,-13.008,-11.763,-32.593,-22.519,-36.972,3.109,-177.764
3.5551046999999016,-16.933,-27.175,-93.043,8.721,-11.253,-20.609,66.442,2.765,-27.165,-22.163,-21.018,-3.795,-27.509,-66.837,-25.812,-3.107,-8.702,-10.217,-18.488,-19.255,-200.111,-24.131,-20.679,-24.047,-15.654,-28.644,-45.645,-6.628,-199.615
3.5701844999998684,-10.768,-28.685,-106.782,5.126,-0.996,-20.589,34.1,10.447,-31.748,-26.239,-25.095,-2.254,-31.068,-64.208,-20.151,-6.178,-8.181,-15.842,-24.105,-21.285,-206.571,-29.742,-29.88,-35.294,-23.835,-37.325,-46.623,-17.892,-198.904
3.5742755000001125,-6.659,-19.435,-92.843,16.904,-4.069,0.436,1.791,43.224,-17.884,-13.918,-11.75,3.384,-17.717,-66.705,-14.495,6.636,-5.099,-12.24,-12.81,-11.53,-192.02,-18.442,-19.092,-21.426,-24.324,-29.603,-38.38,-11.215,-182.823
3.587111199999981,-6.652,2.101,-61.499,38.917,6.182,18.367,34.577,56.501,2.114,6.076,6.193,16.7,-0.281,-52.294,-8.333,22.511,8.738,6.728,7.695,4.363,-179.02,1.044,1.932,0.625,8.488,-6.519,-25.022,16.974,-166.759
3.587174799999957,0.014,13.37,-58.364,46.562,17.446,19.885,67.33,48.76,6.722,11.706,7.211,22.319,4.33,-38.922,2.946,23.001,14.365,11.844,10.761,6.408,-185.501,4.629,-1.656,-0.401,18.726,0.147,-18.849,32.838,-168.129
3.6001516000001175,-6.646,-6.623,-81.872,30.122,-1.527,4.496,34.987,37.953,-11.727,-7.774,-11.752,5.391,-15.654,-61.424,-7.815,8.121,-5.117,-11.734,-12.816,-12.554,-199.66,-17.917,-24.196,-21.917,-13.568,-24.444,-32.15,7.702,-183.842
3.615203400000155,-27.131,-27.109,-93.061,11.649,-15.87,-14.464,60.055,15.886,-33.233,-27.746,-27.621,-8.959,-37.155,-86.466,-27.787,-4.695,-25.092,-30.165,-29.709,-26.886,-207.145,-36.342,-31.857,-35.215,-45.83,-41.838,-45.95,-15.359,-186.732
3.61527070000011,-23.006,-17.86,-91.431,14.711,-3.046,-15.474,92.783,8.698,-32.175,-26.181,-23.495,-2.29,-30.97,-80.744,-20.075,-3.665,-21.481,-23.475,-18.921,-18.662,-202.327,-27.084,-25.165,-26.983,-27.853,-29.501,-38.732,-0.487,-177.324
3.6302028999998583,-0.441,-6.059,-92.364,24.943,-2.531,-4.188,60.415,26.62,-20.36,-13.86,-12.201,6.933,-18.644,-62.733,-7.247,5.56,-6.09,-9.619,-6.607,-8.91,-193.416,-12.2,-16.943,-16.71,4.45,-19.225,-28.447,15.907,-176.634
3.630265100000088,-0.953,-11.689,-90.735,17.233,-12.262,-3.671,53.694,25.056,-21.876,-10.772,-9.627,5.902,-20.674,-54.985,-13.9,11.19,1.088,-5.511,-11.211,-11.975,-194.247,-14.749,-14.364,-15.156,-9.387,-25.353,-29.955,7.694,-180.556
3.6471000999999887,-17.346,-14.751,-85.521,6.97,-6.102,-9.303,86.428,8.637,-24.416,-13.323,-11.155,4.359,-18.092,-58.517,-14.398,9.129,-3.524,-7.043,-14.274,-12.987,-198.664,-20.37,-17.424,-14.629,-35.505,-26.865,-30.438,-1.535,-181.4
3.64716640000006,-14.767,-7.051,-84.411,20.283,3.125,0.953,61.239,26.047,-10.047,-3.063,-4.996,10.502,-8.34,-58.458,-2.601,11.169,-3.008,-5.499,-6.063,-4.778,-194.879,-12.665,-14.845,-14.614,-6.78,-20.178,-25.284,5.127,-183.78
3.660261999999875,-2.457,-1.921,-81.252,35.119,2.098,18.37,28.902,56.247,4.308,12.309,1.157,14.078,-4.746,-49.69,-1.061,18.33,4.167,-0.883,-1.446,-2.724,-191.098,-4.968,-8.17,-16.137,22.94,-15.547,-25.771,14.855,-185.646
3.6603291999999783,-6.553,-11.653,-81.171,22.789,-2.003,10.667,55.513,45.945,-2.869,3.587,-4.992,5.867,-8.327,-55.788,-11.819,12.164,-1.472,-6.517,-10.666,-10.918,-195.005,-14.184,-16.359,-16.12,-1.161,-20.142,-33.43,9.718,-182.386
3.675214700000197,-16.28,-23.937,-88.775,7.397,-5.075,-8.299,88.246,20.283,-16.698,-13.322,-13.184,-2.336,-16.004,-72.126,-19.492,0.881,-10.692,-17.781,-21.414,-19.104,-198.396,-26.466,-27.613,-19.178,-19.603,-30.368,-36.983,-3.1,-174.519
3.675273400000151,-11.141,-20.839,-89.198,14.562,-1.996,-2.655,55.882,29.997,-14.632,-7.674,-12.658,1.253,-19.061,-64.882,-15.886,2.93,-7.095,-14.177,-22.417,-19.085,-198.71,-23.365,-21.95,-18.134,-5.239,-30.338,-34.384,-2.072,-171.271
3.6902070000001004,-9.08,-16.72,-83.986,20.182,-5.068,5.544,23.551,47.385,-13.593,-4.592,-14.695,-1.31,-21.092,-53.034,-16.382,3.439,-5.039,-9.04,-20.857,-19.578,-201.073,-20.268,-21.416,-13.506,-20.091,-25.185,-35.375,-0.533,-182.371
3.690262000000075,-28.027,-31.048,-92.611,1.719,-24.018,-11.367,56.315,26.846,-27.412,-23.031,-25.439,-11.555,-31.829,-67.326,-32.248,-6.298,-14.256,-17.74,-25.447,-23.657,-205.483,-28.445,-33.177,-18.103,-52.346,-33.356,-41.487,-13.34,-200.631
3.7062635000002047,-29.536,-38.189,-100.203,-8.529,-28.092,-20.065,89.046,7.351,-25.847,-22.495,-22.339,-5.396,-29.236,-70.844,-33.24,-1.169,-11.167,-12.087,-19.787,-17.485,-200.666,-25.855,-25.972,-21.671,-31.289,-35.884,-37.347,-9.229,-205.554
3.721449300000131,0.72,-16.634,-87.808,12.484,-2.961,3.521,56.682,34.496,-2.768,4.167,-2.337,12.541,-3.591,-45.158,-8.104,18.3,9.336,12.516,0.726,0.975,-185.609,-6.873,-4.941,-7.817,1.53,-16.893,-19.891,13.322,-180.757
3.721512300000086,8.404,-5.859,-76.961,26.304,7.288,16.325,24.35,58.54,0.309,11.848,4.838,15.09,1.023,-38.965,-0.923,23.405,14.962,14.04,7.385,7.122,-179.788,-0.719,-4.424,-0.637,20.484,-7.655,-13.724,11.772,-150.863
3.7215486999998575,-14.146,-23.784,-86.618,11.933,-12.187,-0.085,57.113,38.502,-21.208,-5.583,-7.975,5.853,-16.908,-60.443,-17.828,11.598,-1.447,-5.954,-8.504,-6.205,-189.342,-14.038,-16.203,-8.321,-11.812,-19.943,-24.981,-3.609,-166.593
3.735340499999893,-8.496,-22.735,-95.241,11.921,-13.2,-6.745,89.844,20.02,-22.724,-10.188,-11.553,3.798,-14.33,-63.969,-16.786,7.488,-7.081,-8.51,-13.106,-14.908,-190.177,-18.123,-15.674,-7.8,-29.219,-21.459,-25.468,7.153,-198.19
3.7354067999999643,13.541,1.366,-84.899,33.939,10.38,9.143,75.409,38.955,-3.746,5.704,1.266,10.966,1.054,-49.048,-1.4,16.19,6.246,1.745,-2.847,-6.696,-178.204,-6.834,-7.462,2.454,3.598,-9.655,-13.659,24.052,-185.184
3.7503504000001158,5.331,4.951,-67.396,38.516,15.493,19.893,43.058,61.97,2.406,14.92,5.363,14.542,1.053,-43.876,-2.423,19.76,8.289,1.743,-0.795,-0.03,-174.952,-2.728,-5.917,7.575,-23.045,-6.059,-12.109,22.491,-165.531
3.7504143000001022,-9.531,-5.813,-64.255,25.669,0.108,12.188,20.986,55.761,-7.843,1.585,-6.425,5.818,-7.658,-50.492,-14.204,10.519,-4.527,-5.431,-9.503,-9.251,-183.486,-13.484,-12.059,0.395,-55.298,-12.713,-18.757,12.222,-179.71
3.767538699999932,-4.399,-11.955,-86.732,14.885,-10.138,-8.316,53.753,23.429,-25.766,-19.934,-19.226,-5.971,-21.995,-60.175,-21.874,0.774,-10.67,-9.524,-18.715,-22.05,-188.938,-26.278,-22.293,-18.049,-22.455,-26.02,-25.398,-4.696,-188.24
3.78046570000015,1.241,-18.603,-104.064,6.673,-12.178,-22.14,86.487,-0.16,-36.499,-24.012,-18.695,-2.891,-29.657,-59.091,-20.828,2.823,-2.974,-1.83,-14.086,-16.905,-183.626,-21.641,-21.759,-24.691,10.355,-31.63,-26.397,-14.425,-176.781
3.7805309000000307,6.363,-6.801,-81.418,17.425,-7.555,0.936,54.125,25.968,-16.994,-1.447,0.792,15.042,-7.086,-39.052,-8.512,22.288,15.984,20.202,10.519,7.703,-168.073,1.947,-1.244,0.949,-10.147,-7.52,-9.465,10.692,-174.555
3.7954938000002585,11.479,22.407,-52.648,45.585,4.236,33.722,21.795,58.729,9.15,23.658,19.234,27.323,15.975,-25.18,2.768,39.684,26.726,30.427,27.415,21.015,-157.659,18.851,15.151,24.002,-26.531,17.591,7.963,41.932,-177.454
3.795568800000183,3.271,20.848,-60.279,45.539,5.256,24.467,54.561,48.937,2.481,16.462,10.505,18.586,5.713,-36.426,-5.944,31.447,15.429,17.077,15.092,9.724,-163.137,9.61,2.84,12.195,-22.918,7.84,-1.266,35.743,-174.715
3.810385199999928,-5.441,-1.202,-76.613,23.464,-7.557,3.438,52.97,27.371,-12.891,-2.51,-6.924,5.248,-8.638,-46.123,-17.721,15.022,3.63,8.351,-0.293,-3.606,-171.683,-6.793,-14.069,-1.137,-41.338,-10.099,-15.61,14.19,-169.417
3.8104425000001356,-2.874,-2.738,-79.098,20.879,-13.184,9.582,20.641,37.59,-10.828,-1.995,-5.38,4.73,-7.604,-44.54,-18.728,15.007,3.114,7.318,-1.829,-8.213,-171.511,-10.885,-12.006,1.426,-34.125,-11.114,-14.057,9.565,-168.736
3.8254335999999967,-3.384,-3.247,-83.63,21.883,-9.585,2.913,53.408,29.868,-15.428,-6.604,-6.399,2.676,-13.744,-52.18,-25.37,15.504,-2.524,-2.936,-6.95,-12.816,-172.364,-13.948,-10.457,-5.748,-2.328,-16.226,-17.117,8.019,-180.862
3.8295917000000372,-4.917,-12.466,-79.448,14.177,-10.088,-15.533,86.143,7.296,-23.098,-16.844,-18.176,-1.425,-17.317,-58.276,-36.103,10.366,-3.034,-5.494,-10.017,-9.217,-171.68,-15.471,-16.594,-12.402,-18.207,-20.82,-21.71,3.912,-188.366
3.841448700000001,-0.302,-2.719,-54.265,32.093,-3.93,5.487,53.781,39.052,-5.656,4.178,-6.887,9.335,0.119,-41.311,-27.87,22.138,11.314,11.93,4.85,1.551,-162.286,-4.697,-5.819,2.979,-42.779,-6.455,-11.955,13.642,-171.271
3.841515999999956,-3.375,5.993,-48.063,49.992,8.369,30.585,21.452,71.801,10.743,21.592,9.002,16.498,11.902,-27.95,-18.108,29.801,14.889,17.041,12.529,-1.012,-158.538,-0.081,2.896,10.149,-25.318,-1.837,-8.869,22.85,-164.44
3.8555709000002025,-18.741,-17.58,-80.29,19.203,-0.861,3.402,54.218,39.453,-8.735,-7.119,-14.061,-1.962,-9.115,-48.414,-32.947,7.742,-3.057,-6.03,-12.586,-20.479,-172.212,-23.647,-21.185,-14.452,-25.293,-25.914,-27.303,6.433,-188.354
3.8556361999999353,-27.944,-38.567,-103.264,-10.53,-22.377,-28.877,86.952,7.139,-36.903,-33.751,-39.662,-19.891,-34.209,-69.371,-46.746,-7.123,-15.862,-24.467,-33.578,-32.754,-183.31,-43.604,-42.169,-34.418,-57.543,-43.819,-40.596,-18.676,-198.924
3.8705927000000884,-17.67,-25.72,-83.181,9.461,-12.108,-16.041,60.225,23.013,-27.132,-17.836,-21.692,-7.063,-20.342,-52.395,-31.842,9.278,-6.112,-14.197,-16.639,-19.401,-169.807,-24.092,-22.659,-17.99,-52.362,-28.918,-27.748,-12.51,-179.77
3.885574500000075,-4.332,-1.616,-52.871,37.628,12.495,16.763,27.889,55.778,5.682,6.772,5.482,14.973,8.88,-26.215,-13.367,25.663,12.337,6.822,8.481,0.086,-150.169,2.572,0.93,7.131,-19.522,-5.323,-8.252,16.704,-161.659
3.8856353999999556,-6.889,5.558,-48.72,36.054,9.921,22.382,48.354,56.234,7.726,9.839,2.403,12.397,5.285,-30.8,-14.891,24.612,13.35,9.889,3.35,-2.988,-152.581,-2.554,-5.219,9.174,-12.33,-0.707,-8.244,25.909,-156.887
3.8896285000000717,-13.542,-2.645,-58.917,27.309,-3.921,3.404,73.408,31.587,-19.434,-5.027,-12.457,-2.473,-15.213,-47.163,-22.561,16.391,-2.545,-5.49,-13.56,-18.354,-163.699,-18.433,-18.533,-3.131,-42.032,-14.026,-20.531,12.051,-157.242
3.9025268000000324,-13.017,-4.691,-62.445,31.38,-5.454,-2.235,43.621,29.506,-22.489,-10.145,-13.981,-1.446,-13.148,-48.652,-20.489,12.276,-7.666,-10.607,-12.522,-18.336,-160.461,-17.39,-17.49,-5.689,-52.236,-19.135,-22.56,8.453,-163.233
3.9026059000002533,-14.028,5.56,-63.407,40.57,0.699,12.624,43.577,44.334,-4.023,5.234,-4.233,9.827,-0.84,-43.481,-14.321,19.436,3.1,1.186,-0.726,-9.096,-151.592,-8.663,-8.251,-0.048,-28.105,-8.87,-13.316,21.252,-172.291
3.915652499999851,-14.014,10.165,-63.856,45.14,11.969,21.321,76.322,45.826,1.616,14.963,3.968,11.866,4.284,-38.826,-8.159,28.638,10.269,8.87,3.885,-4.476,-147.342,-5.069,-2.095,3.538,-17.319,-2.201,-6.642,30.965,-171.094
3.915722000000187,-6.316,8.618,-56.62,45.095,12.469,17.714,46.531,47.83,1.103,8.288,4.476,10.317,5.817,-33.664,-7.126,26.048,10.259,5.275,-0.217,-4.472,-145.145,-8.137,-7.729,3.534,-30.109,-6.297,-7.148,27.86,-159.14
3.9306025000000773,-7.334,8.609,-50.415,42.488,-0.863,19.233,14.209,62.639,3.663,7.767,1.398,11.844,4.786,-34.655,-17.365,22.436,10.761,4.757,-2.266,-7.541,-145.512,-11.203,-15.405,-1.08,-31.104,-9.877,-11.752,19.635,-157.956
3.930663900000127,-15.011,5.014,-57.025,39.884,-2.912,23.824,29.052,66.675,3.147,11.858,-0.14,8.246,4.269,-36.67,-22.471,24.463,10.75,6.289,-1.751,-10.095,-146.904,-11.704,-14.878,-4.665,-33.634,-10.38,-12.765,19.103,-169.581
3.945626700000048,-9.361,-1.651,-67.726,38.82,3.751,17.14,61.811,53.8,0.582,6.211,-1.677,3.115,4.265,-34.584,-15.788,20.852,10.227,2.697,-5.336,-9.573,-145.732,-12.717,-15.887,-4.66,-55.117,-11.906,-10.703,21.645,-169.924
3.9626188000002003,-2.179,-1.137,-69.196,40.318,0.161,10.463,69.946,44.525,-4.029,3.13,-2.188,5.161,1.187,-34.037,-12.699,17.245,11.754,5.768,-9.429,-9.563,-142.513,-13.217,-19.458,-6.193,-47.89,-12.919,-10.18,17.525,-160.533
3.962684800000261,-7.812,1.426,-65.028,40.79,0.161,15.576,41.187,42.431,-7.611,6.201,0.376,10.791,0.673,-31.442,-13.711,23.375,17.378,20.107,0.827,-4.43,-135.198,-5.006,-9.704,-6.186,-17.616,-10.345,-6.071,14.946,-163.958
3.976174400000218,-7.804,2.961,-62.401,38.7,7.333,19.146,43.195,44.95,-2.48,7.732,4.474,14.366,7.333,-23.213,-8.061,27.963,26.07,26.747,12.609,4.283,-126.353,5.245,1.576,2.529,-20.672,-2.65,2.644,20.567,-175.065
3.9762378000000353,5.523,3.983,-62.851,39.173,6.814,18.103,40.59,53.102,6.231,12.847,10.617,16.401,11.424,-20.116,-0.369,28.959,30.142,25.695,11.572,6.328,-122.641,6.264,-0.987,7.137,-36.533,2.476,4.691,23.62,-173.865
3.9907419000001028,9.104,-0.632,-69.961,38.622,3.221,22.183,8.274,55.098,4.176,17.445,11.631,14.336,10.9,-26.244,-1.905,29.955,22.94,24.645,7.974,1.711,-122.006,-0.915,-8.158,-2.604,-41.107,-4.699,-0.437,15.912,-169.081
3.9908088000001953,-3.201,-10.365,-80.137,30.899,-6.004,19.087,-20.423,44.797,-7.099,7.182,-0.676,6.637,5.766,-32.878,-15.736,21.728,11.646,16.936,2.331,-4.951,-124.445,-10.135,-14.81,-12.847,-53.361,-17.502,-5.559,2.064,-169.936
4.005721300000005,-5.247,-15.478,-81.081,26.769,-15.22,4.723,12.385,33.482,-12.215,-4.609,-10.921,2.531,-2.949,-33.357,-24.942,11.46,8.048,9.234,-7.918,-8.532,-128.419,-14.736,-19.406,-12.322,-43.574,-22.095,-10.165,-4.599,-172.328
4.005781200000001,5.517,-13.413,-73.828,30.329,-3.421,3.182,45.16,30.374,-6.055,-3.067,-4.763,6.115,-3.458,-29.225,-13.646,16.572,9.065,9.225,-5.348,-5.449,-121.631,-9.598,-13.239,-8.211,-13.817,-15.413,-7.081,4.115,-176.254
4.022725199999968,1.925,-12.887,-81.951,24.663,6.316,8.302,34.356,29.319,-8.098,-3.576,-1.684,6.621,-1.406,-34.831,-5.948,19.629,3.42,4.605,0.805,-6.469,-114.337,-7.027,-11.177,-7.691,-36.345,-13.86,-4.0,6.16,-186.836
4.022788799999944,-8.835,-17.997,-97.238,14.392,-14.183,1.121,2.047,27.753,-19.873,-12.282,-15.002,-1.07,-11.138,-46.58,-22.848,7.827,-3.243,-4.621,-12.004,-16.708,-120.883,-15.729,-21.412,-13.319,-68.584,-24.605,-11.168,-10.752,-195.359
4.035914500000217,-2.166,-17.467,-92.018,22.575,-25.439,1.12,-12.3,35.922,-19.341,-12.27,-17.549,-3.63,-15.225,-45.508,-30.51,3.208,-3.24,-5.641,-16.603,-19.253,-121.274,-19.812,-21.902,-17.916,-48.535,-27.654,-15.255,-16.889,-188.503
4.0359969000001,2.959,-9.765,-76.557,35.36,-7.483,10.34,20.5,43.571,-9.588,-3.548,-5.236,0.984,-5.476,-38.291,-17.159,9.865,0.862,0.512,-5.315,-12.574,-111.419,-13.644,-13.171,-13.8,-15.699,-18.917,-9.092,-2.527,-171.921
