Cz,Fz,Fp1,F3,C1,C3,T7,C5,CP5,CP3,CP1,P1,P3,O1,CPz,Pz,Oz,O2,P4,P2,CP2,CP4,CP6,C6,T8,C4,C2,F4,Fp2,Label
74.56,8.735,-184.26,-139.049,-20.467,43.292,-17.302,-113.437,-144.059,3.422,-9.141,58.949,-26.117,-122.329,-10.118,87.715,-158.032,100.622,31.625,-0.61,42.167,48.239,-6.887,-27.829,-25.069,-44.25,48.242,-111.996,-91.069,4
60.653,-2.544,-200.47,-154.792,-27.619,29.416,-49.048,-121.52,-152.624,-12.463,-21.939,46.595,-36.85,-136.552,-24.453,75.844,-161.461,94.374,18.786,-11.368,28.292,31.285,-19.688,-47.781,-30.167,-61.625,29.751,-123.155,-123.253,4
43.687,-20.985,-224.348,-165.396,-36.3,16.067,-42.851,-132.669,-158.619,-21.672,-33.7,30.666,-50.645,-143.587,-40.822,68.596,-167.447,78.91,9.033,-22.627,19.555,23.569,-27.353,-57.979,-42.944,-75.395,20.5,-126.618,-145.159,4
44.155,-18.915,-209.779,-156.009,-38.826,14.001,-35.123,-131.0,-160.51,-22.163,-33.154,28.074,-52.131,-142.419,-35.658,72.626,-169.841,78.319,10.561,-23.117,20.56,26.107,-22.202,-51.261,-44.951,-66.611,27.139,-113.171,-112.226,4
51.796,-5.576,-179.343,-146.119,-42.373,16.549,-58.654,-124.209,-157.276,-22.14,-30.047,30.608,-49.518,-147.4,-36.135,75.627,-167.109,85.413,13.624,-18.483,25.15,29.155,-18.594,-44.55,-39.27,-59.372,27.625,-98.201,-79.326,4
63.015,10.311,-146.376,-133.165,-33.621,28.315,-40.665,-112.814,-145.848,-9.823,-19.771,35.7,-43.32,-141.617,-34.562,85.285,-156.696,87.377,21.808,-11.805,32.809,37.835,-14.477,-36.821,-36.67,-55.214,36.306,-82.734,-66.439,4
72.686,19.522,-114.979,-121.761,-20.78,36.996,-7.837,-106.553,-137.505,-4.69,-12.579,40.787,-36.617,-127.131,-17.621,94.934,-145.781,92.925,28.446,-3.596,36.875,42.408,-8.827,-32.173,-37.145,-44.4,49.078,-77.528,-59.713,4
65.953,13.868,-117.938,-128.299,-26.395,28.25,-26.272,-114.131,-140.953,-16.468,-20.251,35.624,-36.581,-123.93,-15.554,94.327,-139.488,97.955,26.881,-5.129,33.252,39.291,-9.331,-37.776,-34.547,-43.844,43.905,-84.11,-55.042,4
52.055,5.657,-144.972,-134.831,-32.516,21.05,-48.275,-118.628,-146.448,-20.038,-26.891,24.83,-41.667,-129.441,-24.76,90.134,-142.422,91.709,21.218,-15.37,29.12,36.178,-12.395,-39.788,-34.512,-53.021,34.128,-86.075,-53.962,4
48.416,0.016,-155.073,-128.036,-27.873,22.565,-39.517,-114.923,-145.789,-16.944,-27.376,20.706,-48.798,-136.484,-18.076,85.433,-152.013,87.007,15.562,-22.015,24.993,32.044,-10.846,-33.6,-40.113,-54.505,33.069,-87.526,-63.13,4
51.954,-2.546,-144.16,-119.711,-30.406,24.08,-41.015,-109.173,-142.057,-17.952,-25.812,22.222,-48.237,-139.934,-8.836,87.397,-147.763,99.215,18.108,-18.407,25.48,33.036,-8.273,-32.03,-42.122,-51.377,34.573,-90.513,-76.899,4
56.001,5.654,-135.306,-116.005,-34.987,27.13,-33.289,-102.916,-140.378,-14.348,-17.589,26.299,-38.454,-138.257,-5.753,101.142,-135.32,108.338,28.848,-10.704,34.164,41.2,-7.24,-34.559,-32.858,-46.202,40.174,-76.59,-69.65,4
61.068,13.845,-142.856,-112.303,-30.341,29.664,-5.591,-101.276,-135.115,-13.309,-11.936,30.371,-35.342,-139.656,3.986,106.164,-135.697,101.569,32.918,-7.619,40.79,43.208,-6.209,-30.939,-20.018,-39.496,45.769,-60.119,-62.408,4
58.957,6.146,-161.668,-104.506,-25.188,27.073,-6.61,-100.663,-129.344,-16.882,-14.998,25.73,-41.967,-139.004,9.105,99.397,-137.61,99.418,27.762,-11.71,36.65,38.042,-5.178,-28.858,-14.875,-39.969,40.6,-58.522,-87.449,4
45.066,-6.155,-171.753,-100.816,-26.187,20.898,-30.17,-98.0,-135.363,-18.914,-20.619,13.409,-47.56,-135.279,-6.785,94.687,-135.936,102.905,19.537,-18.871,22.781,29.295,-10.296,-38.051,-22.032,-51.712,30.825,-65.124,-109.903,4
27.603,-19.981,-158.773,-115.059,-35.382,8.069,-45.509,-104.05,-147.523,-31.703,-29.307,1.612,-56.222,-153.074,-27.271,85.883,-143.997,93.581,8.759,-29.61,10.463,16.97,-21.044,-50.821,-39.429,-64.98,22.598,-85.551,-96.473,4
23.989,-31.232,-141.196,-129.801,-46.105,-3.209,-50.586,-112.143,-150.961,-44.479,-35.426,-3.513,-64.363,-171.364,-28.78,78.625,-142.828,86.315,6.701,-33.167,9.428,17.465,-23.584,-49.233,-53.221,-67.477,20.526,-103.396,-82.544,4
36.26,-21.467,-150.276,-119.425,-42.473,4.478,-39.777,-105.371,-144.663,-35.213,-25.144,0.589,-56.101,-155.311,-10.309,88.28,-124.754,102.11,19.502,-22.888,18.128,32.305,-15.876,-38.425,-44.459,-54.602,27.678,-86.387,-88.097,4
46.982,-5.564,-167.032,-102.912,-32.185,14.208,-39.738,-98.093,-136.833,-25.444,-14.36,9.81,-43.238,-135.688,8.145,101.0,-113.871,121.476,31.778,-13.643,25.794,39.445,-5.614,-33.264,-23.41,-42.764,34.822,-62.734,-89.546,4
49.497,-6.071,-154.058,-104.346,-30.103,12.144,-67.875,-95.946,-130.036,-26.955,-13.322,13.899,-41.657,-137.602,7.624,103.973,-114.782,121.354,36.869,-14.142,30.379,40.43,-0.998,-27.083,-16.214,-41.184,36.837,-57.036,-88.432,4
48.423,-8.114,-144.682,-102.193,-28.024,14.694,-56.024,-88.678,-126.833,-24.367,-12.796,10.299,-42.128,-140.026,-3.654,101.307,-119.79,107.913,33.246,-15.665,27.788,38.853,-6.12,-22.957,-16.71,-43.192,39.361,-48.782,-97.565,4
42.739,-7.593,-162.98,-89.795,-20.823,16.728,-23.18,-88.077,-127.218,-25.879,-14.32,3.116,-43.111,-143.472,-6.212,94.033,-126.843,102.682,23.991,-18.21,19.05,27.543,-11.749,-31.131,-17.206,-47.248,35.736,-47.196,-94.393,4
42.184,-9.123,-151.547,-89.705,-19.266,13.638,-18.546,-89.013,-121.455,-28.927,-15.843,2.089,-45.117,-144.353,3.016,92.402,-123.13,115.899,27.553,-18.192,22.105,24.954,-6.614,-33.662,-19.238,-49.25,30.577,-56.883,-74.319,4
53.413,-1.941,-118.607,-93.714,-26.419,21.309,-48.754,-74.579,-110.063,-19.677,-8.142,9.259,-39.948,-133.962,14.284,99.995,-115.322,123.98,36.747,-15.1,30.792,36.712,-4.558,-23.382,-21.268,-41.003,36.694,-45.555,-73.22,4
46.187,-5.526,-140.518,-89.009,-40.225,16.677,-55.365,-74.505,-117.638,-28.366,-14.282,1.053,-46.056,-143.562,9.659,88.624,-129.039,104.388,22.366,-26.868,19.491,31.04,-16.849,-29.506,-30.981,-42.499,32.047,-39.874,-98.25,4
15.402,-28.574,-172.653,-94.043,-52.48,-11.005,-62.994,-100.558,-140.574,-54.978,-38.346,-26.101,-70.089,-171.083,-6.745,60.871,-147.353,84.816,3.901,-49.383,0.004,13.078,-25.542,-46.383,-46.831,-63.462,11.522,-61.351,-106.349,4
14.362,-29.058,-156.086,-97.536,-46.28,-12.531,-69.591,-100.97,-135.31,-49.288,-37.795,-28.636,-71.555,-166.302,-12.374,58.248,-140.033,89.342,10.044,-47.796,2.053,15.114,-20.905,-40.701,-43.198,-66.472,14.072,-61.802,-88.824,4
38.939,-12.635,-136.463,-81.557,-34.963,9.511,-49.542,-74.741,-113.146,-29.258,-19.314,-8.628,-51.504,-146.155,-14.41,74.584,-127.598,94.376,19.256,-31.355,14.859,24.833,-15.761,-26.828,-29.835,-50.012,31.477,-48.421,-83.099,4
30.703,-20.819,-150.671,-77.889,-41.075,1.305,-45.906,-74.154,-118.668,-39.475,-26.467,-11.693,-57.6,-152.669,-28.228,68.874,-133.106,86.085,9.503,-35.934,9.208,16.611,-19.844,-36.023,-36.977,-52.523,21.711,-56.057,-99.923,4
9.155,-34.118,-153.594,-96.766,-54.354,-17.652,-63.791,-89.449,-133.919,-53.268,-42.322,-27.563,-73.936,-159.689,-35.885,49.85,-137.583,84.974,0.272,-49.731,-5.658,5.836,-26.997,-52.893,-50.26,-66.815,4.784,-59.075,-112.63,4
13.757,-29.986,-150.879,-101.793,-57.886,-14.048,-59.629,-85.261,-126.1,-49.629,-37.669,-27.535,-67.715,-149.795,-31.75,48.775,-130.274,93.598,3.858,-50.193,-7.701,6.855,-26.97,-54.377,-49.186,-64.187,10.414,-49.282,-105.345,4
17.329,-29.443,-158.925,-90.932,-57.828,-9.936,-51.884,-73.905,-115.216,-47.53,-34.046,-23.409,-62.012,-142.985,-29.669,53.849,-126.045,96.066,7.952,-46.045,-2.571,7.36,-23.356,-48.687,-46.062,-57.975,14.502,-48.208,-98.068,4
11.676,-31.463,-147.495,-88.792,-59.82,-11.975,-63.103,-70.758,-116.125,-48.507,-39.135,-24.923,-67.073,-141.818,-26.054,46.623,-127.456,92.384,3.334,-49.072,-4.105,2.23,-27.432,-47.614,-52.164,-60.479,6.803,-42.524,-107.703,4
11.152,-30.407,-131.466,-92.802,-63.858,-15.037,-74.823,-74.273,-121.644,-54.094,-42.682,-31.045,-71.616,-148.336,-25.515,32.744,-132.964,84.607,-4.867,-57.22,-10.761,-4.432,-34.576,-54.739,-61.846,-65.029,4.235,-37.871,-105.547,4
8.068,-34.987,-122.625,-83.488,-62.77,-23.731,-77.822,-75.736,-125.621,-63.261,-48.787,-39.723,-80.254,-155.872,-34.199,26.564,-138.466,80.936,-7.936,-61.774,-13.824,-5.453,-30.956,-58.27,-60.247,-67.525,7.304,-40.395,-72.653,4
14.207,-19.071,-89.715,-56.764,-48.875,-12.437,-58.277,-59.778,-112.175,-50.39,-40.541,-28.925,-72.489,-137.786,-16.234,36.271,-126.032,99.298,6.417,-48.904,-1.002,11.459,-15.555,-40.281,-30.473,-53.113,17.031,-14.226,-39.793,4
32.636,13.736,-56.838,-29.555,-40.117,11.654,-31.578,-39.226,-91.059,-32.921,-22.057,-7.892,-47.826,-114.594,16.57,48.018,-110.537,116.105,22.292,-34.511,13.343,25.28,-6.831,-16.674,-2.778,-32.568,27.772,18.575,-10.552,4
24.919,11.673,-39.875,-22.865,-53.909,1.397,-45.891,-45.847,-97.628,-45.184,-32.794,-16.593,-53.926,-124.726,15.529,38.236,-123.746,99.083,9.974,-48.821,1.547,5.787,-19.119,-25.879,-20.194,-44.318,18.523,13.434,-15.664,4
-3.795,-15.491,-26.515,-27.453,-66.15,-23.708,-62.752,-57.072,-112.899,-63.582,-56.327,-38.093,-77.438,-141.507,-9.59,16.681,-140.529,76.442,-13.09,-72.851,-23.558,-17.785,-36.006,-53.006,-49.375,-73.475,0.574,-13.22,8.43,4
-9.939,-19.062,6.299,-32.037,-61.986,-20.61,-32.975,-45.744,-106.126,-61.469,-53.709,-37.031,-72.237,-134.193,-6.506,8.98,-131.679,84.051,-13.076,-72.778,-27.12,-15.206,-36.483,-58.588,-41.129,-79.037,-1.988,-14.743,41.209,4
-4.806,-14.432,6.805,-35.078,-62.948,-17.004,-22.696,-40.063,-96.799,-58.846,-48.532,-32.895,-64.993,-123.3,1.697,8.971,-120.277,103.434,-8.965,-67.07,-21.97,-16.215,-30.811,-51.357,-29.817,-74.348,-3.011,-11.142,39.119,4
-6.338,-20.053,-19.329,-25.822,-68.008,-23.647,-49.313,-47.195,-99.776,-64.422,-57.705,-40.547,-77.736,-118.566,-1.379,3.326,-121.181,106.917,-17.153,-74.687,-26.559,-26.445,-36.415,-51.818,-49.255,-78.884,-9.668,-21.377,17.05,4
-6.844,-22.082,-25.457,-15.038,-66.403,-22.598,-45.678,-44.074,-103.774,-68.969,-60.722,-44.605,-82.269,-115.886,7.332,-4.362,-121.06,96.564,-19.697,-80.76,-29.094,-23.857,-40.99,-54.328,-60.988,-80.342,-4.535,-30.065,4.738,4
-11.448,-31.794,-47.461,-29.367,-69.411,-27.187,-42.558,-44.03,-106.744,-72.998,-61.685,-47.122,-81.162,-120.381,13.985,-7.943,-121.963,89.807,-19.165,-83.241,-31.627,-21.784,-39.412,-57.86,-51.706,-79.237,-2.481,-29.011,-27.542,4
-19.121,-47.643,-79.689,-47.781,-76.001,-37.918,-74.791,-51.158,-104.588,-73.438,-64.698,-49.636,-85.179,-120.773,10.897,-9.472,-122.354,98.427,-23.757,-85.719,-36.718,-28.422,-38.86,-60.876,-47.556,-82.744,-13.75,-28.469,-59.79,4
-10.905,-42.985,-98.565,-39.536,-69.778,-30.195,-77.79,-41.373,-90.651,-64.143,-54.387,-36.779,-73.311,-100.672,26.255,-2.803,-106.35,114.21,-12.975,-74.363,-26.947,-19.172,-30.112,-46.47,-39.823,-74.464,-10.15,-29.465,-61.779,4
6.012,-25.011,-88.22,-22.59,-57.413,-14.796,-44.925,-25.963,-78.265,-52.295,-37.426,-16.25,-51.721,-73.419,50.307,14.618,-87.288,124.854,11.117,-53.284,-7.453,-0.198,-16.762,-21.833,-17.754,-54.41,10.353,-20.727,-48.398,4
8.567,-22.425,-99.403,-24.105,-53.769,-14.781,-28.998,-26.449,-74.089,-49.169,-33.803,-13.16,-48.083,-66.174,54.868,20.751,-87.713,123.705,17.253,-46.058,-2.322,3.389,-16.745,-19.25,-9.54,-46.671,13.416,-10.46,-80.625,4
-2.712,-37.772,-131.579,-37.401,-60.375,-26.037,-42.802,-34.62,-78.113,-56.805,-42.99,-27.491,-59.305,-82.501,48.153,3.825,-102.995,108.212,2.892,-58.307,-13.078,-9.422,-24.413,-38.186,-23.363,-59.944,-2.479,-22.232,-112.819,4
-12.956,-54.64,-153.476,-50.171,-70.561,-35.233,-57.103,-36.634,-86.232,-63.408,-52.169,-39.247,-67.955,-96.251,45.031,-11.036,-115.187,97.345,-7.87,-71.057,-22.287,-18.122,-27.975,-49.418,-35.122,-72.692,-10.161,-43.215,-115.78,4
-14.992,-56.122,-148.712,-51.658,-74.077,-33.66,-63.706,-30.45,-83.584,-63.344,-53.141,-39.72,-68.4,-92.569,46.011,-11.537,-110.973,107.494,-8.374,-73.547,-25.338,-20.666,-31.021,-46.807,-37.649,-73.132,-7.077,-38.561,-122.325,4
-21.637,-55.554,-151.637,-48.02,-73.49,-34.651,-61.081,-27.346,-79.402,-70.966,-61.797,-47.877,-72.43,-92.988,37.768,-21.772,-110.35,103.8,-15.026,-80.646,-35.559,-29.354,-40.211,-53.421,-43.246,-80.231,-13.218,-31.862,-154.478,4
-40.571,-75.478,-179.15,-54.12,-82.126,-52.547,-73.315,-40.126,-92.643,-88.825,-79.154,-68.834,-89.263,-109.802,16.213,-46.853,-128.17,75.519,-33.454,-100.033,-54.479,-48.28,-51.442,-76.933,-56.011,-101.155,-28.061,-55.909,-169.692,4
-49.752,-92.821,-195.365,-62.775,-88.704,-64.278,-91.685,-49.307,-100.235,-94.884,-81.124,-75.937,-96.346,-117.376,12.098,-53.979,-129.579,75.444,-40.08,-106.081,-58.523,-55.917,-54.976,-86.078,-61.59,-109.251,-32.132,-75.321,-158.252,4
-38.431,-82.995,-192.096,-56.564,-82.467,-53.968,-68.54,-40.549,-86.814,-84.543,-70.797,-63.566,-82.93,-98.304,35.652,-39.58,-106.396,103.545,-23.647,-90.605,-43.095,-42.541,-47.749,-69.086,-49.746,-96.846,-23.39,-58.851,-157.581,4
-30.708,-73.69,-193.953,-46.262,-78.799,-48.79,-37.733,-35.897,-78.018,-77.286,-67.14,-56.842,-73.113,-77.201,46.888,-31.856,-99.117,104.979,-13.377,-82.318,-37.417,-33.789,-42.066,-57.234,-39.962,-89.577,-19.781,-37.788,-168.182,4
-34.776,-78.739,-194.271,-47.24,-81.794,-55.402,-59.212,-41.497,-84.088,-83.357,-68.097,-60.884,-77.651,-75.074,36.594,-37.972,-105.166,93.091,-21.048,-88.383,-47.113,-41.952,-45.61,-62.812,-49.656,-94.098,-24.372,-35.701,-170.576,4
-40.889,-84.808,-194.077,-51.803,-82.737,-62.006,-91.428,-46.066,-91.176,-91.983,-72.64,-67.483,-82.696,-78.073,31.435,-44.082,-98.913,104.781,-23.076,-91.881,-53.726,-51.644,-50.175,-68.384,-54.217,-100.152,-28.958,-43.35,-181.164,4
-48.532,-93.945,-210.789,-53.801,-83.679,-71.678,-94.41,-49.094,-91.085,-95.477,-78.203,-74.588,-84.663,-74.409,21.67,-48.136,-96.765,110.824,-18.442,-90.765,-55.209,-53.641,-52.686,-73.951,-46.478,-104.662,-32.515,-54.577,-201.987,4
-48.484,-102.048,-219.8,-55.796,-80.521,-75.705,-94.316,-46.996,-85.871,-94.869,-73.002,-79.636,-84.066,-71.261,-10.628,-52.186,-100.766,97.905,-22.522,-85.038,-57.716,-54.1,-53.658,-81.05,-46.944,-107.632,-35.557,-60.158,-199.736,4
-41.263,-97.848,-209.334,-53.691,-75.317,-70.506,-98.32,-39.776,-82.199,-96.311,-68.83,-80.581,-82.445,-68.116,-42.892,-55.208,-95.543,98.32,-24.037,-75.732,-57.146,-52.509,-51.043,-79.432,-50.995,-109.573,-37.058,-54.975,-184.167,4
-45.833,-95.7,-212.711,-48.002,-81.39,-75.046,-83.365,-38.712,-84.678,-101.338,-77.983,-86.136,-84.924,-65.486,-37.726,-58.739,-94.422,105.906,-17.865,-80.267,-57.088,-50.407,-48.431,-71.155,-49.408,-110.488,-39.07,-51.334,-191.155,4
-56.545,-103.289,-226.842,-44.88,-91.555,-84.193,-58.691,-42.259,-81.52,-100.724,-82.516,-94.247,-88.425,-69.007,-4.901,-61.754,-99.963,102.214,-19.896,-92.482,-60.618,-53.431,-51.456,-71.084,-56.018,-110.89,-40.568,-55.381,-205.821,4
-57.513,-109.334,-232.251,-47.397,-91.463,-81.035,-57.607,-46.316,-76.315,-96.013,-80.896,-96.202,-85.775,-73.548,10.473,-65.278,-99.351,99.038,-28.586,-94.951,-65.168,-61.574,-59.089,-82.284,-68.77,-117.439,-45.138,-59.424,-217.398,4
-64.116,-114.86,-241.24,-50.936,-91.372,-82.491,-79.067,-50.88,-79.313,-98.991,-85.426,-98.155,-83.64,-72.45,-13.616,-71.873,-101.813,99.963,-32.143,-98.442,-73.812,-70.734,-64.666,-94.497,-71.775,-131.666,-53.802,-60.901,-240.234,4
-75.322,-123.454,-243.048,-48.836,-95.891,-91.63,-87.185,-46.731,-80.77,-104.015,-88.414,-102.668,-84.581,-70.328,-13.09,-76.412,-106.835,97.814,-34.673,-105.516,-79.886,-76.299,-65.113,-96.964,-69.142,-136.658,-55.798,-60.841,-238.457,4
-76.272,-124.868,-228.973,-45.713,-100.406,-93.587,-84.536,-43.098,-78.128,-105.448,-90.888,-108.2,-87.058,-68.721,4.342,-77.36,-104.166,96.692,-35.15,-104.386,-77.756,-74.173,-63.511,-95.842,-61.9,-132.935,-53.693,-65.903,-205.431,4
-70.56,-119.62,-227.207,-44.13,-102.867,-93.494,-95.21,-48.178,-79.587,-106.367,-95.407,-113.215,-89.533,-68.14,1.264,-76.771,-102.525,95.57,-32.041,-101.72,-75.117,-69.488,-62.423,-93.697,-58.764,-131.265,-56.713,-69.935,-200.615,4
-60.243,-112.328,-235.177,-30.254,-95.592,-86.74,-94.602,-38.908,-72.335,-101.137,-85.578,-109.003,-84.832,-64.998,7.922,-72.595,-100.373,96.499,-29.96,-98.544,-69.919,-64.808,-58.262,-80.796,-67.927,-122.937,-51.533,-59.107,-216.808,4
-49.425,-107.092,-236.478,-13.317,-86.275,-72.821,-72.991,-21.451,-54.844,-88.741,-73.197,-101.21,-74.501,-56.224,25.333,-72.01,-96.687,101.526,-28.905,-91.274,-62.677,-64.743,-55.13,-74.567,-70.933,-114.617,-42.772,-45.216,-215.567,4
-53.986,-108.01,-236.242,-15.866,-86.188,-74.798,-71.893,-22.966,-50.178,-88.652,-78.247,-105.207,-72.89,-52.582,17.111,-76.549,-100.176,97.838,-29.901,-93.232,-66.2,-70.314,-60.71,-86.276,-59.591,-121.162,-48.877,-42.609,-223.548,4
-60.08,-108.927,-223.71,-23.534,-86.615,-87.018,-78.994,-24.992,-52.69,-97.785,-84.829,-111.25,-77.94,-56.627,7.36,-78.01,-97.002,94.154,-32.433,-97.749,-72.794,-71.268,-62.699,-85.677,-53.896,-123.603,-53.439,-42.566,-225.374,4
-58.483,-108.818,-210.167,-25.048,-85.503,-88.468,-70.718,-21.894,-54.174,-103.323,-87.818,-114.725,-81.961,-60.157,11.963,-83.055,-93.319,96.622,-35.474,-99.188,-73.746,-72.222,-60.587,-79.956,-59.99,-121.942,-49.287,-48.671,-197.484,4
-64.06,-115.881,-230.449,-23.486,-91.565,-90.429,-74.745,-29.556,-62.317,-108.855,-96.439,-126.905,-89.563,-65.732,2.217,-95.779,-105.009,90.377,-41.586,-107.286,-79.308,-81.883,-65.649,-96.27,-65.566,-135.653,-56.41,-58.357,-201.385,4
-60.409,-111.667,-239.952,-8.093,-91.986,-85.728,-75.183,-21.33,-56.619,-104.135,-90.195,-126.266,-86.912,-62.593,0.678,-91.585,-100.805,90.287,-38.471,-105.13,-78.716,-78.728,-63.534,-97.711,-55.254,-134.492,-57.891,-41.392,-231.41,4
-47.541,-99.26,-212.56,3.698,-84.21,-72.834,-48.98,-2.353,-39.144,-90.199,-76.273,-113.332,-71.968,-48.185,11.948,-80.735,-83.286,98.906,-28.699,-92.217,-70.953,-68.915,-57.323,-78.658,-45.977,-115.915,-49.636,-25.981,-222.469,4
-70.548,-119.14,-222.594,-17.823,-96.421,-93.766,-59.177,-20.282,-53.449,-104.453,-99.25,-135.76,-85.729,-55.822,-11.63,-104.22,-99.597,80.876,-46.088,-112.104,-89.837,-89.851,-73.66,-96.51,-74.108,-134.754,-66.493,-58.231,-222.759,4
-101.728,-147.198,-254.646,-31.637,-114.255,-124.923,-91.393,-41.266,-75.425,-133.038,-125.279,-165.338,-114.332,-75.746,-39.795,-130.244,-118.452,65.426,-69.096,-138.632,-113.826,-114.352,-89.468,-122.029,-104.26,-163.821,-88.455,-83.276,-248.151,4
-77.035,-123.485,-229.289,-5.478,-101.333,-104.818,-74.396,-15.609,-55.37,-119.585,-103.124,-143.656,-98.849,-58.252,-20.288,-109.109,-93.743,93.025,-48.535,-116.465,-95.269,-94.257,-71.447,-98.341,-73.417,-140.091,-69.411,-50.405,-220.239,4
-45.195,-90.574,-196.272,12.459,-82.789,-74.487,-41.534,10.534,-30.211,-91.288,-76.893,-116.872,-70.061,-30.529,0.225,-83.385,-74.182,111.375,-23.896,-87.147,-66.997,-69.572,-52.421,-70.065,-40.556,-107.163,-45.776,-18.591,-187.231,4
-61.544,-104.828,-216.568,-0.874,-88.854,-88.757,-59.423,-2.284,-39.915,-100.931,-89.624,-131.612,-82.286,-40.745,-10.022,-97.646,-86.915,91.796,-36.167,-102.429,-78.2,-82.823,-62.614,-79.217,-59.471,-118.839,-55.976,-37.016,-215.733,4
-86.073,-129.314,-243.503,-13.681,-101.06,-108.649,-90.102,-19.7,-54.732,-121.834,-106.441,-149.924,-103.721,-58.122,-22.307,-119.065,-94.513,79.409,-55.086,-123.843,-103.225,-102.207,-76.384,-97.581,-80.416,-141.262,-73.339,-59.008,-247.792,4
-94.184,-133.283,-251.969,-18.278,-106.595,-113.151,-81.303,-22.242,-56.727,-125.811,-111.97,-157.971,-106.178,-56.015,-33.555,-128.167,-93.906,77.793,-63.74,-125.768,-109.782,-106.716,-81.431,-106.705,-78.287,-149.83,-78.901,-60.998,-252.155,4
-94.602,-133.662,-250.18,-15.186,-106.488,-118.161,-62.778,-19.146,-52.059,-126.71,-116.981,-162.936,-104.535,-49.811,-42.743,-129.064,-92.788,76.178,-62.14,-121.544,-103.012,-104.56,-80.325,-104.549,-78.208,-147.119,-76.773,-57.863,-232.435,4
-78.626,-124.307,-219.704,1.736,-93.574,-111.895,-50.933,-7.856,-41.249,-119.411,-104.568,-149.453,-94.185,-35.929,-37.577,-116.127,-75.789,93.008,-44.147,-108.103,-92.151,-89.599,-68.461,-89.587,-65.835,-128.016,-65.425,-45.51,-202.489,4
-69.326,-113.936,-202.578,12.492,-89.894,-99.487,-43.197,2.398,-32.498,-107.508,-94.218,-140.594,-84.357,-26.159,-32.417,-110.888,-65.979,101.624,-41.541,-103.384,-90.009,-84.386,-62.245,-87.961,-53.473,-120.203,-61.261,-37.268,-201.774,4
-90.261,-134.315,-234.651,-3.402,-110.296,-110.146,-60.06,-3.24,-39.638,-118.159,-114.103,-162.483,-100.666,-45.089,-41.094,-130.757,-85.893,77.444,-66.603,-125.31,-106.825,-108.38,-78.064,-105.803,-75.962,-144.674,-79.643,-55.673,-231.286,4
-107.077,-157.746,-258.495,-21.841,-121.969,-125.406,-85.103,-13.995,-51.894,-138.021,-131.408,-179.739,-120.545,-65.023,-53.348,-149.069,-101.176,59.948,-79.344,-143.115,-123.625,-124.153,-92.843,-117.481,-96.89,-162.46,-95.957,-75.085,-246.424,4
-102.359,-150.929,-244.916,-18.233,-112.626,-124.768,-83.993,-13.981,-53.379,-137.371,-124.616,-178.022,-119.4,-60.348,-57.393,-150.97,-94.928,63.474,-75.166,-137.849,-121.964,-114.807,-89.677,-115.826,-89.621,-154.101,-90.738,-68.863,-253.863,4
-98.158,-142.069,-243.134,-8.481,-108.927,-124.643,-73.151,-10.893,-48.714,-131.598,-122.443,-178.357,-114.67,-54.14,-51.7,-150.306,-92.271,56.751,-76.115,-132.076,-116.207,-113.156,-82.927,-110.587,-82.359,-145.75,-81.938,-57.011,-251.559,4
-97.036,-146.025,-246.99,-10.01,-110.355,-129.641,-74.615,-12.932,-47.129,-134.028,-125.906,-176.129,-114.043,-55.622,-49.087,-148.619,-94.74,51.571,-72.965,-131.431,-115.578,-115.092,-80.282,-103.305,-82.277,-144.067,-82.369,-56.441,-222.619,4
-94.377,-145.879,-233.423,-11.024,-107.171,-126.95,-72.491,-9.845,-45.032,-132.357,-118.608,-166.219,-105.732,-44.808,-58.259,-141.81,-86.449,66.377,-62.646,-127.201,-111.364,-105.243,-78.665,-100.64,-79.633,-140.849,-84.848,-58.434,-213.175,4
-92.233,-145.733,-222.943,-2.304,-106.039,-119.139,-64.221,-1.126,-37.815,-125.052,-110.805,-159.905,-95.38,-27.857,-55.127,-135.521,-74.067,75.019,-60.534,-128.611,-106.642,-105.138,-79.099,-103.101,-76.992,-141.221,-85.275,-60.425,-231.404,4
-89.58,-147.124,-225.794,4.871,-106.445,-117.995,-69.792,1.949,-33.167,-122.878,-111.206,-160.258,-96.31,-29.366,-43.289,-135.385,-76.042,70.334,-65.085,-139.753,-110.122,-114.766,-80.557,-104.022,-74.865,-142.616,-89.288,-60.877,-229.124,4
-90.515,-142.879,-234.79,5.89,-106.339,-119.926,-83.043,1.947,-35.695,-125.317,-114.681,-164.196,-101.849,-43.169,-47.857,-142.422,-86.212,70.263,-69.63,-147.298,-114.11,-113.627,-82.525,-101.869,-77.864,-142.986,-91.248,-53.644,-229.919,4
-93.498,-138.125,-239.678,9.471,-106.745,-116.22,-79.886,7.068,-32.073,-123.142,-114.567,-165.056,-100.722,-41.077,-50.37,-145.866,-83.052,75.316,-67.511,-141.515,-109.385,-107.366,-82.443,-98.181,-74.713,-139.769,-83.985,-47.442,-241.985,4
-89.306,-139.524,-230.729,16.633,-102.54,-111.493,-60.851,12.184,-23.332,-119.433,-110.354,-161.305,-96.011,-28.228,-41.611,-142.646,-73.747,78.315,-59.759,-132.665,-104.665,-105.209,-77.237,-95.009,-63.367,-129.896,-78.778,-50.981,-229.96,4
-90.241,-146.044,-230.498,16.617,-100.9,-114.456,-52.593,9.611,-21.772,-123.412,-111.78,-164.73,-100.013,-30.249,-51.303,-145.065,-80.334,72.601,-63.798,-135.606,-111.733,-107.153,-77.672,-99.525,-69.452,-129.766,-87.92,-55.029,-228.705,4
-97.836,-151.534,-251.785,12.502,-108.996,-119.976,-59.2,7.552,-25.336,-128.412,-118.328,-169.688,-106.573,-35.342,-67.646,-148.506,-85.376,63.307,-74.493,-140.593,-116.744,-114.218,-87.329,-104.036,-87.313,-139.37,-95.005,-53.437,-256.653,4
-103.886,-154.456,-261.779,6.342,-114.01,-128.053,-66.313,6.007,-29.921,-131.357,-120.772,-169.518,-106.466,-27.622,-71.164,-148.87,-75.557,65.293,-75.443,-140.453,-118.676,-121.276,-91.34,-107.006,-93.373,-142.816,-91.836,-55.432,-263.057,4
-117.614,-169.671,-257.419,-7.497,-119.532,-144.831,-85.202,-5.782,-40.65,-147.107,-132.434,-179.595,-116.094,-28.107,-88.511,-164.091,-81.117,63.69,-84.077,-151.583,-135.464,-132.938,-93.81,-124.317,-101.989,-154.969,-101.99,-71.771,-256.646,4
-126.206,-180.772,-258.186,-11.076,-125.56,-153.396,-101.511,-11.411,-45.22,-157.206,-142.548,-189.662,-127.761,-37.813,-104.817,-179.808,-92.819,52.356,-94.239,-162.702,-145.062,-139.978,-97.815,-137.0,-102.912,-169.671,-116.233,-80.408,-258.439,4
-105.075,-154.976,-247.682,11.989,-111.602,-133.775,-78.868,7.555,-27.756,-135.532,-123.45,-172.054,-110.215,-29.065,-79.609,-162.21,-78.382,60.501,-77.751,-144.097,-122.376,-121.394,-84.909,-112.273,-75.144,-148.497,-100.235,-53.688,-240.762,4
-87.039,-132.279,-234.114,24.273,-93.047,-115.71,-52.149,18.306,-10.822,-116.441,-103.346,-151.389,-88.075,-15.204,-51.865,-143.092,-69.082,71.711,-62.816,-127.046,-107.909,-102.83,-73.041,-87.57,-66.872,-121.196,-81.18,-31.605,-226.176,4
-103.858,-153.151,-246.175,3.756,-102.176,-129.427,-64.905,3.943,-17.984,-132.206,-118.1,-160.972,-99.77,-23.898,-65.645,-156.781,-87.968,53.196,-75.049,-142.801,-122.658,-114.51,-86.288,-99.777,-90.371,-131.321,-92.369,-50.016,-237.733,4
-116.562,-167.855,-253.102,0.678,-115.393,-142.617,-72.524,-1.696,-24.114,-144.37,-130.789,-171.569,-110.429,-36.17,-78.899,-167.895,-95.052,43.409,-82.146,-153.416,-125.097,-122.08,-92.349,-112.485,-85.158,-141.436,-102.011,-66.873,-236.983,4
-106.711,-154.88,-238.504,20.658,-110.155,-133.766,-60.669,8.04,-15.38,-133.979,-117.851,-163.201,-98.535,-29.473,-74.21,-159.018,-82.15,61.809,-76.428,-141.992,-115.75,-111.2,-84.572,-99.053,-66.117,-132.073,-91.662,-56.559,-229.574,4
-106.605,-160.36,-242.364,16.539,-104.922,-134.144,-70.342,9.568,-16.902,-133.333,-115.684,-160.476,-99.974,-22.784,-91.554,-161.421,-81.555,64.308,-84.036,-138.776,-125.88,-115.699,-91.66,-95.88,-81.421,-134.502,-94.132,-54.966,-247.787,4
-115.207,-174.544,-258.003,-1.921,-107.891,-144.768,-81.03,6.485,-24.57,-143.958,-124.79,-168.0,-110.632,-25.835,-123.738,-169.969,-88.134,49.387,-94.199,-142.224,-134.464,-127.879,-98.741,-112.69,-92.61,-145.126,-105.821,-64.645,-262.909,4
-113.043,-169.247,-260.306,2.692,-107.783,-140.525,-73.777,8.016,-19.422,-143.814,-123.64,-169.881,-106.935,-27.346,-134.885,-171.335,-88.045,47.289,-96.666,-145.155,-132.28,-129.288,-95.056,-120.775,-82.783,-148.567,-104.691,-65.093,-263.158,4
-115.491,-166.516,-265.169,7.812,-109.724,-138.848,-84.974,7.495,-18.89,-144.182,-127.103,-172.273,-106.829,-28.856,-137.311,-179.361,-91.031,45.704,-103.229,-154.232,-140.345,-134.282,-104.182,-121.166,-90.385,-154.054,-108.172,-67.589,-268.53,4
-124.085,-173.522,-266.441,-2.954,-116.787,-150.492,-91.549,8.0,-26.044,-151.211,-136.709,-178.761,-116.456,-33.438,-144.346,-185.842,-97.088,40.536,-105.688,-155.614,-144.303,-136.197,-108.689,-120.02,-100.029,-153.388,-116.773,-68.546,-265.7,4
-121.912,-173.348,-252.855,-4.488,-121.281,-151.878,-58.669,10.554,-18.333,-149.01,-132.987,-176.02,-115.314,-26.232,-137.542,-178.996,-93.917,45.106,-97.385,-147.774,-131.863,-122.741,-92.699,-109.142,-85.072,-141.963,-109.484,-61.305,-251.09,4
-121.79,-174.2,-255.676,8.836,-120.647,-144.042,-38.631,8.494,-11.142,-144.763,-128.243,-172.77,-112.125,-19.033,-130.745,-179.329,-91.774,49.671,-96.775,-150.188,-131.219,-123.643,-92.094,-108.52,-79.864,-145.408,-108.35,-72.002,-250.839,4
-131.402,-180.685,-270.277,13.438,-119.502,-141.336,-67.794,3.874,-21.377,-152.302,-135.799,-180.795,-120.21,-32.334,-143.421,-190.933,-100.904,42.962,-109.998,-157.722,-144.92,-142.474,-109.42,-125.83,-94.641,-162.168,-123.611,-89.349,-258.785,4
-126.66,-174.357,-254.125,12.4,-116.309,-127.363,-87.706,7.457,-22.381,-150.613,-131.053,-177.028,-118.041,-36.913,-144.815,-187.668,-101.315,38.82,-108.864,-146.294,-141.189,-140.283,-104.188,-125.704,-91.985,-156.883,-120.926,-72.353,-256.989,4
-108.602,-155.74,-232.866,24.683,-110.045,-106.231,-71.737,18.72,-4.94,-134.069,-112.991,-155.846,-102.041,-12.285,-123.666,-168.013,-84.308,51.589,-89.8,-122.581,-123.117,-119.138,-86.665,-104.574,-72.937,-131.623,-100.313,-45.641,-245.462,4
-109.518,-151.998,-244.416,35.417,-106.861,-111.76,-66.03,21.263,-1.861,-134.959,-112.878,-154.153,-99.89,-2.027,-115.857,-161.697,-77.563,64.858,-85.099,-119.385,-121.457,-115.432,-88.628,-100.883,-72.352,-126.369,-99.7,-54.305,-231.384,4
-125.803,-169.776,-259.541,24.111,-113.926,-131.116,-81.845,13.557,-12.105,-149.169,-127.622,-170.393,-112.085,-19.443,-124.963,-174.343,-89.269,57.621,-99.871,-138.221,-138.242,-130.686,-99.297,-113.59,-88.161,-143.661,-115.482,-75.767,-227.566,4
-129.775,-183.439,-255.696,10.767,-125.083,-134.059,-88.935,12.519,-13.118,-150.044,-134.154,-170.735,-116.584,-25.571,-123.301,-181.853,-96.352,43.731,-104.894,-145.767,-143.227,-135.679,-101.247,-116.038,-94.733,-149.665,-120.49,-74.667,-241.683,4
-131.183,-182.743,-255.44,10.756,-127.007,-136.998,-83.211,15.068,-13.105,-149.894,-134.02,-168.003,-114.93,-20.423,-122.153,-178.085,-95.743,45.736,-99.666,-138.449,-136.423,-127.346,-101.146,-112.848,-92.077,-143.367,-116.783,-63.834,-256.298,4
-139.248,-181.024,-262.357,9.72,-119.708,-150.694,-76.468,10.442,-18.215,-159.991,-136.448,-174.495,-118.402,-21.939,-129.716,-179.444,-95.647,53.887,-103.153,-139.336,-138.848,-126.194,-101.045,-113.76,-93.009,-143.736,-116.666,-63.257,-261.678,4
-134.498,-180.842,-257.484,8.174,-114.977,-147.981,-64.608,15.555,-12.049,-157.781,-135.287,-170.222,-116.234,-16.282,-129.074,-178.752,-89.916,53.321,-103.049,-140.733,-139.734,-128.629,-98.382,-117.745,-87.281,-143.08,-116.549,-62.17,-261.416,4
-127.704,-179.637,-251.078,12.776,-117.936,-137.075,-58.396,27.834,-3.327,-147.378,-128.491,-161.855,-108.433,-6.019,-126.895,-171.401,-90.339,49.682,-97.311,-135.469,-134.984,-129.525,-100.333,-123.775,-83.607,-140.888,-116.945,-62.107,-253.982,4
-141.921,-186.63,-258.0,12.764,-126.015,-145.135,-77.293,20.122,-10.496,-152.866,-130.924,-169.89,-113.96,-11.136,-136.502,-175.841,-103.056,43.484,-106.435,-142.506,-145.095,-137.08,-107.405,-124.163,-102.479,-148.432,-124.513,-79.464,-237.334,4
-151.0,-193.103,-262.865,8.14,-132.037,-154.211,-97.708,12.93,-17.146,-162.446,-140.015,-177.917,-123.58,-17.785,-142.513,-184.374,-107.051,36.268,-114.526,-153.634,-153.659,-142.066,-107.81,-118.404,-112.111,-150.332,-129.511,-88.094,-223.265,4
-135.48,-179.59,-251.843,14.792,-124.22,-145.86,-80.192,28.286,-6.883,-155.624,-135.264,-170.054,-117.821,-10.595,-135.711,-178.554,-100.284,38.794,-103.14,-145.796,-140.185,-131.166,-98.993,-113.674,-87.92,-135.837,-121.185,-63.415,-224.578,4
-118.438,-161.992,-239.296,24.511,-108.215,-133.931,-47.324,36.967,2.858,-143.685,-121.297,-160.662,-105.92,-5.462,-127.891,-169.154,-99.16,43.878,-95.353,-132.843,-128.774,-120.789,-92.746,-105.364,-75.024,-123.919,-110.305,-43.371,-234.6,4
-117.808,-163.367,-239.057,22.95,-104.008,-130.723,-49.326,28.733,-0.731,-141.492,-117.589,-156.916,-103.253,-9.555,-124.177,-165.911,-102.647,38.199,-99.868,-131.685,-132.744,-124.254,-94.191,-100.648,-90.319,-126.356,-107.121,-55.111,-236.415,4
-122.301,-171.4,-244.453,18.316,-110.564,-135.716,-81.04,28.192,-6.365,-144.937,-122.082,-156.759,-105.711,-14.156,-126.102,-163.184,-104.081,30.476,-99.768,-134.115,-134.661,-128.228,-97.682,-110.281,-89.716,-134.427,-108.551,-67.351,-232.08,4
-121.154,-170.717,-247.283,21.371,-110.453,-140.703,-88.131,32.262,-2.261,-146.841,-122.473,-158.139,-106.63,-13.629,-133.148,-163.021,-104.489,37.618,-96.082,-133.981,-130.94,-124.514,-96.048,-112.22,-74.769,-132.755,-111.004,-65.235,-233.385,4
-113.348,-162.349,-244.474,29.547,-104.707,-134.415,-68.575,35.816,4.402,-144.645,-117.227,-154.907,-100.888,-6.956,-131.478,-159.784,-98.749,52.949,-91.888,-128.212,-125.686,-116.192,-90.316,-97.251,-75.207,-120.327,-108.331,-62.608,-223.93,4
-113.235,-156.039,-241.668,33.104,-103.578,-127.62,-59.797,44.49,9.008,-139.378,-114.548,-150.141,-94.127,-0.801,-122.637,-152.964,-90.453,56.483,-85.648,-120.911,-122.998,-114.027,-89.714,-94.08,-77.693,-119.695,-102.588,-61.521,-207.824,4
-130.54,-168.691,-249.623,24.874,-109.622,-140.813,-65.885,39.834,5.925,-144.361,-125.704,-156.139,-102.23,-6.436,-131.736,-162.033,-95.486,43.106,-96.833,-132.573,-138.757,-128.77,-101.919,-114.99,-81.714,-140.58,-114.78,-69.144,-220.424,4
-152.439,-195.162,-265.255,13.578,-120.271,-159.627,-70.43,20.327,-7.401,-163.685,-144.022,-175.45,-122.62,-21.286,-157.22,-182.363,-109.223,29.743,-120.815,-157.031,-161.672,-151.183,-118.724,-135.368,-104.686,-161.956,-138.744,-93.153,-249.405,4
-154.335,-195.991,-269.088,16.638,-122.2,-159.98,-68.823,19.794,-11.492,-169.669,-147.464,-183.984,-127.108,-25.876,-166.796,-185.254,-111.163,32.275,-124.28,-159.948,-162.023,-154.618,-120.654,-135.744,-120.463,-163.843,-139.118,-101.769,-248.131,4
-136.25,-173.254,-252.425,28.405,-111.319,-143.938,-62.606,40.267,4.913,-150.544,-131.947,-166.894,-108.026,-10.993,-155.359,-167.138,-97.219,44.026,-106.738,-140.833,-147.004,-137.044,-107.726,-122.289,-99.85,-148.822,-120.536,-79.126,-233.026,4
-123.819,-164.371,-236.804,33.499,-104.036,-130.474,-63.568,51.497,17.716,-136.048,-117.983,-149.309,-93.573,2.338,-143.933,-151.602,-90.462,50.642,-96.385,-131.983,-138.66,-126.149,-98.397,-107.31,-78.746,-134.841,-112.73,-60.091,-233.305,4
-125.232,-169.842,-242.202,27.318,-105.981,-131.881,-71.189,46.323,13.6,-139.499,-117.865,-152.233,-96.553,-1.763,-142.252,-150.938,-98.056,47.005,-96.801,-136.462,-138.009,-131.146,-98.298,-100.542,-83.278,-133.169,-114.667,-60.031,-227.949,4
-128.693,-173.771,-255.792,15.508,-107.924,-143.532,-63.434,38.079,7.439,-150.117,-125.944,-160.278,-103.629,-10.982,-146.208,-157.447,-103.594,39.273,-99.778,-138.374,-141.457,-136.138,-101.274,-107.102,-90.367,-137.647,-117.114,-63.557,-215.426,4
-132.662,-176.159,-252.975,11.394,-106.792,-151.073,-46.464,31.894,4.358,-158.677,-131.966,-163.704,-109.161,-10.971,-153.746,-159.851,-103.49,36.16,-104.801,-139.773,-147.463,-136.514,-105.271,-119.802,-87.715,-140.583,-121.095,-68.617,-219.309,4
-132.017,-170.347,-242.476,29.313,-101.049,-149.385,-52.053,27.763,2.816,-158.006,-129.785,-163.54,-110.076,-5.325,-155.129,-158.154,-105.436,38.173,-103.671,-139.121,-144.754,-135.865,-104.653,-117.121,-88.139,-139.418,-119.437,-69.061,-226.262,4
-123.176,-161.468,-242.233,44.653,-96.338,-148.723,-77.616,27.223,5.375,-152.725,-124.019,-157.229,-104.331,-0.709,-151.9,-156.459,-105.33,40.184,-96.395,-133.859,-138.974,-131.631,-100.963,-103.171,-93.174,-133.131,-115.219,-60.795,-218.351,4
-130.225,-171.552,-246.602,23.604,-108.024,-156.772,-94.957,24.634,4.345,-161.793,-130.555,-159.121,-105.763,-6.344,-160.458,-157.84,-106.25,34.509,-100.91,-137.823,-148.569,-136.11,-106.497,-110.241,-102.303,-136.584,-122.789,-67.906,-211.985,4
-150.075,-186.238,-247.892,1.551,-119.187,-166.861,-90.251,13.851,-4.881,-174.952,-142.72,-173.306,-116.416,-16.071,-173.617,-163.317,-110.754,26.789,-111.567,-148.956,-160.204,-149.806,-112.026,-126.012,-104.25,-151.817,-132.912,-87.818,-217.92,4
-143.265,-178.367,-251.23,24.603,-108.309,-159.522,-75.304,14.862,-2.315,-167.092,-137.454,-171.084,-114.763,-10.42,-167.296,-162.129,-105.008,36.497,-103.259,-144.197,-153.896,-146.582,-103.205,-115.127,-79.042,-148.079,-126.631,-79.021,-222.313,4
-125.191,-163.844,-251.492,51.731,-97.443,-141.944,-75.741,33.29,11.52,-153.093,-124.509,-155.543,-103.889,1.886,-155.346,-151.209,-93.12,54.903,-93.422,-131.757,-145.545,-134.141,-96.954,-99.643,-58.471,-131.537,-116.771,-53.327,-220.554,4
-133.263,-167.266,-247.654,35.798,-102.981,-145.388,-83.862,30.695,7.922,-159.599,-130.533,-161.023,-107.372,-4.263,-165.949,-152.594,-100.712,48.188,-105.624,-139.822,-152.572,-143.228,-109.152,-110.814,-83.003,-141.139,-123.314,-58.909,-226.481,4
-147.986,-181.444,-253.554,12.708,-109.025,-165.223,-66.872,7.611,-3.869,-172.248,-143.722,-176.232,-120.072,-17.579,-183.714,-167.299,-117.517,26.623,-117.301,-153.515,-159.079,-155.38,-120.826,-125.56,-115.196,-155.343,-134.462,-84.978,-234.964,4
-147.838,-188.947,-267.645,13.208,-111.478,-170.693,-43.752,6.066,-0.279,-173.1,-142.554,-174.518,-122.001,-17.049,-184.042,-168.156,-117.912,26.084,-111.549,-149.775,-156.358,-150.102,-116.607,-124.41,-111.494,-149.039,-134.839,-91.553,-232.68,4
-147.69,-187.733,-276.599,18.83,-112.903,-165.399,-61.639,20.405,4.845,-172.415,-139.337,-169.221,-117.781,-12.934,-176.174,-160.816,-114.208,32.206,-109.9,-146.039,-156.714,-148.415,-112.904,-123.773,-103.698,-149.403,-132.143,-87.875,-236.033,4
-152.154,-187.033,-271.711,20.86,-106.643,-161.135,-93.852,23.458,2.278,-173.779,-142.272,-171.613,-116.638,-13.945,-174.46,-165.266,-118.704,22.44,-116.962,-152.041,-161.168,-155.438,-119.451,-126.723,-113.841,-159.5,-136.109,-91.373,-246.043,4
-153.538,-188.383,-256.071,20.839,-100.901,-154.314,-95.808,23.435,4.838,-171.556,-141.617,-171.441,-114.985,-15.468,-176.848,-171.248,-121.147,16.27,-120.944,-155.475,-162.032,-158.357,-122.406,-129.671,-114.239,-158.315,-139.559,-95.38,-240.162,4
-152.36,-187.682,-249.667,19.282,-104.898,-154.672,-68.56,21.874,8.931,-168.823,-138.914,-168.196,-111.284,-14.428,-179.745,-168.003,-119.489,23.426,-120.311,-153.27,-157.771,-157.174,-117.672,-131.078,-102.854,-153.546,-136.346,-91.186,-231.725,4
-144.523,-182.372,-258.126,29.508,-105.818,-157.591,-41.851,20.828,12.509,-161.482,-132.627,-158.806,-103.488,-3.655,-174.442,-157.589,-110.148,31.599,-111.993,-144.92,-150.441,-146.258,-111.919,-119.164,-99.677,-145.708,-128.525,-74.189,-233.03,4
-132.083,-172.455,-256.331,42.799,-99.052,-146.675,-42.321,28.492,21.205,-152.099,-122.761,-145.84,-94.163,10.181,-164.533,-146.673,-100.816,36.178,-101.123,-133.504,-143.119,-134.841,-108.221,-105.725,-100.09,-131.73,-121.224,-62.332,-219.477,4
-132.976,-171.258,-247.366,35.072,-102.027,-146.529,-74.555,27.439,16.061,-159.631,-127.249,-151.842,-102.778,4.023,-171.541,-151.649,-110.449,29.994,-106.145,-136.957,-144.0,-142.391,-111.187,-112.279,-98.965,-132.111,-124.177,-76.102,-209.011,4
-143.089,-182.358,-254.291,22.229,-111.659,-160.727,-96.509,15.628,2.213,-174.841,-138.905,-167.059,-119.069,-10.838,-185.202,-163.793,-123.147,17.669,-116.797,-149.115,-148.979,-149.933,-117.736,-121.388,-103.477,-141.712,-131.225,-90.37,-232.369,4
-142.946,-186.786,-267.869,28.354,-110.01,-155.443,-69.773,21.248,8.87,-170.568,-133.13,-164.331,-116.388,-10.315,-184.504,-160.043,-116.363,17.651,-113.607,-148.454,-152.416,-144.148,-118.13,-119.73,-112.083,-143.108,-132.118,-85.157,-251.604,4
-147.414,-188.649,-279.384,35.498,-105.289,-148.627,-46.649,25.837,15.522,-164.762,-129.924,-162.117,-113.198,-12.354,-188.418,-159.883,-119.833,17.121,-122.202,-152.404,-162.51,-156.299,-125.184,-131.905,-125.803,-156.285,-138.134,-94.293,-241.106,4
-159.562,-195.12,-282.691,29.827,-112.869,-162.311,-64.021,14.029,4.235,-174.331,-142.089,-173.226,-124.868,-25.662,-203.087,-173.043,-135.083,10.444,-141.548,-167.108,-173.106,-177.148,-136.842,-147.143,-137.46,-173.034,-148.242,-111.617,-236.254,4
-153.254,-188.777,-269.088,29.797,-116.854,-164.198,-75.74,20.162,5.256,-173.644,-140.922,-172.028,-125.768,-21.538,-200.835,-169.796,-127.263,17.094,-132.697,-163.355,-165.761,-164.163,-126.972,-134.188,-123.491,-159.541,-140.921,-95.624,-242.678,4
-142.343,-177.83,-263.696,36.94,-111.614,-154.812,-57.221,32.437,12.935,-165.786,-131.047,-163.147,-115.396,-6.147,-192.949,-158.356,-116.889,26.298,-116.17,-148.335,-154.836,-145.555,-110.963,-113.561,-101.85,-140.939,-126.436,-77.086,-242.435,4
-146.811,-182.263,-270.092,43.051,-111.503,-156.707,-40.77,24.72,10.873,-170.231,-136.04,-161.959,-113.743,-4.091,-197.367,-158.197,-120.359,24.735,-120.665,-146.65,-153.657,-151.045,-115.975,-110.886,-101.748,-142.335,-127.334,-84.181,-235.021,4
-138.98,-174.908,-251.379,51.205,-108.317,-150.402,-42.266,32.38,19.059,-165.45,-130.78,-153.088,-107.482,1.548,-186.923,-148.817,-112.041,31.37,-112.347,-141.892,-145.306,-146.796,-115.859,-108.214,-99.597,-135.02,-125.67,-77.437,-215.83,4
-127.57,-158.852,-234.734,49.616,-97.451,-140.006,-48.372,49.254,28.261,-150.94,-117.33,-140.127,-98.665,12.305,-172.392,-133.812,-104.245,35.437,-98.403,-135.603,-139.013,-136.403,-106.01,-106.569,-90.276,-124.639,-116.323,-61.99,-206.393,4
-139.738,-171.501,-254.991,36.247,-98.89,-146.526,-53.446,34.86,18.499,-156.424,-126.434,-145.622,-103.177,9.219,-183.49,-138.801,-112.85,23.107,-112.649,-144.688,-150.145,-148.049,-113.076,-116.708,-100.432,-137.322,-124.915,-77.297,-220.019,4
-147.283,-186.186,-256.273,36.723,-106.476,-150.99,-55.442,25.091,12.845,-163.952,-135.529,-150.6,-103.074,4.599,-194.578,-145.322,-112.225,22.059,-123.807,-150.179,-154.606,-158.148,-122.697,-120.69,-111.09,-148.455,-139.135,-96.175,-216.725,4
-141.5,-179.34,-238.086,43.346,-104.832,-148.277,-57.436,32.751,16.419,-161.227,-128.733,-145.326,-99.385,7.156,-196.432,-140.054,-105.965,30.746,-115.999,-145.931,-150.865,-154.403,-119.5,-118.008,-104.831,-146.258,-136.947,-90.444,-201.651,4
-146.994,-177.624,-253.217,35.618,-107.289,-156.326,-55.329,22.472,12.304,-169.263,-132.703,-147.742,-106.458,2.538,-209.556,-139.914,-109.445,28.666,-116.395,-149.883,-155.837,-155.786,-119.893,-121.988,-101.14,-146.624,-135.273,-82.156,-217.331,4
-152.995,-182.057,-268.333,28.923,-110.256,-161.293,-50.151,16.814,12.291,-176.778,-140.767,-155.279,-109.425,0.998,-213.957,-142.335,-108.823,33.76,-116.279,-151.27,-156.194,-154.093,-119.261,-119.817,-103.088,-141.866,-138.212,-86.685,-233.508,4
-156.94,-187.51,-266.016,25.82,-109.121,-160.619,-51.638,25.507,11.255,-174.552,-142.676,-160.759,-110.853,4.071,-211.181,-146.804,-111.276,34.239,-119.236,-153.68,-158.599,-152.914,-122.215,-119.697,-113.744,-141.725,-139.61,-102.992,-235.323,4
-168.054,-201.155,-285.217,20.671,-111.573,-166.606,-53.635,15.747,3.559,-178.476,-145.095,-165.721,-119.963,-3.105,-220.192,-151.78,-122.435,15.249,-133.974,-164.285,-168.686,-163.52,-132.851,-135.971,-131.049,-155.415,-144.594,-114.672,-258.142,4
-158.152,-191.22,-288.006,32.433,-103.777,-159.267,-47.946,14.707,14.826,-171.125,-133.679,-154.285,-110.622,-0.028,-206.652,-137.796,-115.141,16.259,-124.106,-153.362,-154.686,-154.135,-122.472,-132.249,-118.622,-145.014,-137.789,-93.553,-257.884,4
-141.6,-171.561,-254.93,39.573,-93.939,-150.399,-57.632,29.549,26.594,-157.634,-121.25,-142.348,-99.753,10.73,-186.465,-124.851,-105.804,30.587,-106.051,-138.352,-137.112,-135.538,-106.981,-109.576,-98.011,-122.839,-121.77,-76.041,-224.838,4
-157.34,-191.369,-253.651,18.529,-109.727,-169.204,-68.845,13.638,7.612,-172.333,-137.01,-158.087,-117.584,-3.625,-213.943,-140.095,-121.58,11.601,-124.388,-158.194,-155.931,-149.234,-122.755,-118.175,-112.77,-136.549,-133.943,-101.58,-223.589,4
-167.429,-205.523,-272.865,18.511,-121.4,-177.744,-46.747,-3.282,1.969,-182.407,-146.607,-164.076,-122.589,-13.355,-231.66,-144.566,-127.093,1.343,-133.998,-169.306,-165.509,-157.282,-129.805,-133.426,-119.317,-151.269,-149.179,-115.311,-255.128,4
-149.331,-180.214,-264.395,42.058,-105.397,-155.025,-28.77,17.726,22.972,-164.294,-130.579,-143.932,-102.999,3.052,-203.764,-124.441,-112.109,23.371,-115.421,-148.645,-145.875,-138.169,-111.744,-115.874,-100.755,-134.212,-131.611,-92.142,-248.213,4
-146.62,-172.349,-262.081,31.77,-98.12,-149.234,-53.332,26.93,22.437,-161.568,-129.424,-143.276,-105.458,0.487,-198.437,-121.243,-113.534,22.323,-120.428,-147.471,-146.754,-139.056,-114.194,-105.512,-106.29,-126.905,-123.795,-86.927,-225.423,4
-153.133,-179.862,-271.041,16.369,-103.145,-157.282,-65.574,16.657,14.217,-172.165,-137.491,-155.94,-117.135,-13.858,-215.145,-130.855,-123.155,7.956,-131.579,-159.619,-155.829,-147.626,-123.814,-116.678,-115.405,-132.926,-137.503,-96.574,-221.099,4
-143.758,-169.948,-258.475,31.722,-96.894,-149.44,-41.942,21.763,23.425,-164.308,-127.62,-147.075,-109.333,-4.11,-206.733,-122.528,-116.371,20.244,-116.078,-149.214,-143.89,-135.183,-112.931,-113.999,-102.482,-123.572,-129.681,-86.231,-220.878,4
-138.492,-165.679,-244.896,38.35,-92.186,-146.729,-31.654,21.742,21.352,-160.045,-119.295,-136.17,-104.613,5.116,-199.866,-110.622,-110.107,30.982,-106.228,-138.306,-134.525,-126.851,-108.72,-101.078,-101.355,-113.714,-115.207,-73.337,-222.194,4
-140.402,-168.075,-247.725,32.164,-92.094,-152.218,-39.307,13.523,12.621,-165.008,-122.25,-135.009,-103.484,2.037,-201.715,-104.364,-112.047,28.902,-106.122,-138.168,-134.902,-127.749,-111.685,-99.44,-104.839,-114.625,-121.239,-71.727,-220.947,4
-144.873,-165.858,-255.162,35.718,-93.027,-153.602,-40.292,15.046,13.633,-164.331,-129.3,-138.972,-103.893,-0.015,-202.026,-106.308,-115.008,24.262,-107.552,-140.079,-139.89,-133.769,-112.598,-110.611,-103.198,-121.683,-129.315,-82.926,-221.751,4
-160.609,-177.988,-266.177,33.633,-100.106,-161.646,-42.301,10.933,9.521,-172.364,-139.417,-152.666,-118.134,-8.724,-221.804,-121.059,-121.041,9.381,-125.376,-152.234,-154.095,-150.029,-122.732,-124.333,-124.099,-132.832,-133.284,-102.31,-234.337,4
-159.424,-181.396,-260.276,34.624,-95.395,-157.898,-38.16,13.483,14.635,-170.654,-132.617,-148.415,-114.942,-5.641,-234.39,-119.913,-117.334,9.884,-127.3,-153.106,-152.917,-147.317,-121.584,-118.573,-130.123,-129.625,-134.176,-96.573,-229.492,4
-137.235,-163.796,-240.548,46.885,-81.98,-135.711,-24.802,34.987,35.112,-146.918,-114.042,-124.188,-88.699,16.394,-218.786,-96.74,-102.872,32.928,-106.168,-134.51,-134.321,-129.239,-106.606,-102.573,-97.205,-115.663,-123.283,-75.472,-206.721,4
-144.271,-170.804,-251.578,34.543,-93.681,-141.21,-29.388,30.853,29.954,-150.869,-121.612,-132.773,-96.295,8.18,-228.813,-101.254,-109.941,22.136,-114.771,-140.523,-141.359,-141.405,-117.77,-111.692,-90.448,-123.232,-123.16,-87.691,-214.711,4
-164.106,-188.052,-273.356,16.577,-107.419,-162.074,-40.63,6.744,9.944,-174.284,-138.909,-154.157,-120.277,-18.468,-260.86,-125.231,-127.762,-5.038,-135.661,-159.338,-157.099,-155.608,-132.509,-125.925,-115.973,-138.478,-137.381,-104.51,-238.575,4
-147.548,-171.47,-258.226,37.053,-88.356,-148.079,-31.88,15.959,19.668,-162.839,-124.938,-138.634,-103.763,-5.642,-266.234,-111.273,-115.851,13.41,-119.643,-141.76,-141.572,-137.01,-117.52,-111.967,-111.246,-126.557,-131.608,-83.913,-232.701,4
-125.884,-155.417,-239.524,53.922,-73.411,-130.001,-29.286,31.312,33.993,-146.795,-106.37,-118.003,-84.192,17.418,-255.21,-85.547,-95.755,42.598,-101.081,-121.639,-123.5,-123.553,-106.644,-98.535,-93.204,-109.012,-113.034,-67.948,-218.124,4
-137.029,-170.119,-254.142,30.302,-83.584,-141.654,-50.262,15.399,22.688,-159.456,-115.997,-128.131,-96.915,9.716,-264.688,-94.683,-102.832,33.846,-111.226,-133.812,-132.598,-133.163,-116.783,-106.633,-103.869,-115.05,-117.531,-84.274,-224.053,4
-152.773,-183.269,-271.306,14.39,-89.136,-152.783,-60.457,2.064,14.981,-166.469,-127.152,-137.224,-103.478,5.608,-278.256,-103.81,-108.877,21.005,-116.75,-138.289,-139.638,-136.104,-115.642,-110.625,-115.548,-123.132,-128.172,-101.095,-230.489,4
-144.424,-173.864,-261.813,32.307,-80.337,-145.97,-42.979,12.82,27.774,-155.032,-116.779,-128.378,-91.079,18.922,-276.953,-88.849,-93.399,35.328,-100.752,-121.245,-127.203,-125.721,-102.719,-98.219,-99.551,-109.177,-120.872,-95.871,-215.402,4
-129.422,-159.858,-236.448,46.107,-67.962,-131.992,-20.906,25.615,39.529,-145.655,-102.83,-117.491,-83.816,23.514,-268.992,-79.026,-89.207,48.613,-90.405,-114.464,-116.829,-118.423,-99.03,-84.288,-82.033,-95.235,-111.529,-80.918,-193.669,4
-132.367,-157.136,-228.527,41.45,-58.16,-125.712,-13.713,31.737,39.49,-140.899,-102.214,-117.373,-82.195,14.781,-267.698,-83.046,-104.999,33.195,-102.097,-121.522,-125.422,-127.527,-106.615,-88.302,-92.71,-104.361,-116.541,-76.739,-200.136,4
-149.14,-167.737,-251.352,37.31,-63.737,-135.32,-18.31,31.705,37.401,-145.368,-113.895,-130.064,-87.236,0.422,-278.701,-93.721,-119.239,5.497,-124.024,-136.769,-143.227,-147.379,-120.853,-109.731,-118.232,-125.262,-128.72,-88.958,-229.649,4
-154.114,-173.717,-264.421,36.76,-72.895,-142.87,-15.73,26.551,36.339,-153.932,-121.978,-140.18,-98.932,-9.825,-285.595,-105.41,-124.755,-0.656,-131.585,-149.952,-149.232,-152.867,-127.392,-121.404,-123.237,-135.383,-135.251,-96.553,-235.055,4
-140.128,-164.834,-243.664,35.699,-66.162,-130.944,-1.37,28.061,38.864,-147.118,-113.659,-131.33,-94.734,-1.618,-275.063,-97.108,-116.433,12.665,-119.158,-141.093,-135.762,-139.394,-116.507,-109.5,-107.232,-126.538,-126.407,-93.383,-214.84,4
-136.914,-164.157,-240.859,34.126,-63.022,-127.739,-5.979,30.595,40.362,-139.799,-104.324,-120.953,-80.807,8.117,-268.64,-79.592,-106.071,18.8,-108.793,-126.608,-126.917,-131.058,-110.755,-102.73,-96.367,-115.653,-119.108,-94.314,-217.699,4
-155.732,-181.924,-272.381,28.969,-78.328,-143.493,-38.249,17.756,30.076,-155.541,-114.978,-130.566,-90.973,-6.235,-278.618,-89.247,-115.698,10.584,-116.881,-137.239,-140.11,-138.611,-121.402,-119.022,-98.32,-123.734,-130.772,-104.466,-244.121,4
-161.724,-183.279,-276.72,25.354,-82.348,-147.96,-58.191,9.029,21.849,-167.68,-124.085,-142.218,-103.69,-16.988,-273.216,-99.916,-123.78,4.938,-121.375,-146.836,-143.556,-141.547,-123.33,-125.562,-102.832,-131.807,-135.252,-106.411,-249.0,4
-142.095,-162.091,-251.852,30.964,-67.409,-136.029,-42.251,20.291,32.073,-154.193,-111.665,-133.879,-89.754,2.497,-247.84,-80.861,-109.824,17.229,-109.983,-132.857,-124.97,-130.134,-110.911,-104.945,-107.34,-116.819,-117.698,-95.546,-229.284,4
-137.854,-157.83,-251.088,34.007,-62.219,-134.356,-23.765,20.783,36.652,-148.916,-104.381,-126.573,-81.467,13.253,-244.518,-72.583,-103.566,28.995,-107.823,-129.138,-124.845,-128.467,-109.264,-94.081,-116.454,-107.993,-112.457,-96.987,-212.148,4
-153.086,-172.53,-263.132,29.362,-68.816,-141.394,-26.816,6.93,26.881,-160.037,-111.449,-133.619,-91.632,-0.593,-257.081,-83.781,-111.659,22.306,-114.888,-138.23,-135.991,-137.56,-115.302,-104.746,-115.825,-117.619,-122.079,-111.747,-206.301,4
-148.834,-168.771,-255.185,29.333,-67.211,-138.179,-33.449,11.534,31.465,-154.242,-109.801,-132.46,-88.466,1.457,-246.066,-75.5,-105.4,18.185,-104.527,-130.407,-123.559,-130.25,-108.527,-103.616,-98.803,-113.915,-119.395,-106.0,-219.414,4
-138.439,-157.331,-251.343,32.889,-62.533,-130.868,-33.415,22.793,42.704,-143.842,-102.519,-125.156,-80.693,13.239,-233.012,-65.691,-100.172,23.29,-99.299,-125.154,-115.751,-124.485,-105.344,-94.803,-97.168,-106.629,-117.227,-91.55,-239.687,4
-145.473,-162.809,-264.412,30.295,-67.593,-130.737,-38.505,18.672,38.051,-149.333,-102.416,-129.641,-86.248,4.516,-243.025,-76.384,-111.342,16.606,-114.569,-135.787,-128.956,-138.193,-113.436,-100.344,-113.977,-115.743,-124.282,-99.655,-231.251,4
-146.865,-166.233,-269.783,28.728,-67.526,-129.07,-38.979,21.215,39.037,-145.085,-99.752,-128.999,-83.6,-1.636,-244.831,-72.721,-110.719,11.467,-114.455,-132.065,-127.29,-136.005,-114.859,-105.879,-107.715,-118.189,-121.596,-102.629,-212.064,4
-145.181,-160.431,-264.902,30.236,-60.798,-126.379,-23.058,26.316,46.171,-136.231,-98.628,-123.747,-77.881,7.587,-244.074,-61.89,-101.386,18.628,-105.631,-122.712,-119.99,-125.623,-111.671,-105.261,-92.238,-115.51,-120.962,-95.354,-225.172,4
-144.538,-160.129,-264.418,29.891,-60.393,-125.17,-21.576,27.395,47.532,-135.305,-97.934,-123.278,-76.905,8.497,-243.99,-61.599,-101.375,18.739,-105.391,-122.698,-119.464,-125.495,-111.658,-103.598,-93.025,-114.643,-120.891,-95.287,-221.732,4
-143.896,-159.826,-263.933,29.546,-59.988,-123.96,-20.093,28.474,48.893,-134.379,-97.24,-122.809,-75.928,9.407,-243.906,-61.307,-101.364,18.851,-105.152,-122.684,-118.939,-125.367,-111.646,-101.936,-93.811,-113.776,-120.821,-95.219,-218.291,4
-143.254,-159.524,-263.448,29.201,-59.582,-122.751,-18.611,29.552,50.254,-133.453,-96.546,-122.34,-74.952,10.317,-243.822,-61.016,-101.353,18.963,-104.913,-122.671,-118.413,-125.24,-111.634,-100.273,-94.598,-112.909,-120.751,-95.152,-214.851,4
-142.612,-159.221,-262.963,28.856,-59.177,-121.541,-17.128,30.631,51.615,-132.527,-95.852,-121.871,-73.976,11.227,-243.738,-60.724,-101.341,19.075,-104.673,-122.657,-117.887,-125.112,-111.621,-98.611,-95.385,-112.043,-120.68,-95.084,-211.41,4
-141.969,-158.919,-262.478,28.511,-58.772,-120.332,-15.645,31.71,52.976,-131.601,-95.158,-121.402,-72.999,12.137,-243.654,-60.433,-101.33,19.186,-104.434,-122.644,-117.362,-124.984,-111.609,-96.948,-96.171,-111.176,-120.61,-95.017,-207.97,4
-141.327,-158.616,-261.994,28.167,-58.367,-119.122,-14.163,32.788,54.337,-130.676,-94.464,-120.932,-72.023,13.047,-243.57,-60.141,-101.319,19.298,-104.194,-122.63,-116.836,-124.856,-111.596,-95.286,-96.958,-110.309,-120.54,-94.949,-204.53,4
-140.685,-158.314,-261.509,27.822,-57.962,-117.913,-12.68,33.867,55.698,-129.75,-93.77,-120.463,-71.046,13.957,-243.486,-59.85,-101.307,19.41,-103.955,-122.616,-116.311,-124.728,-111.584,-93.624,-97.745,-109.443,-120.469,-94.882,-201.089,4
-140.042,-158.012,-261.024,27.477,-57.556,-116.704,-11.198,34.945,57.059,-128.824,-93.076,-119.994,-70.07,14.867,-243.402,-59.558,-101.296,19.522,-103.715,-122.603,-115.785,-124.601,-111.571,-91.961,-98.531,-108.576,-120.399,-94.814,-197.649,4
-139.4,-157.709,-260.539,27.132,-57.151,-115.494,-9.715,36.024,58.42,-127.898,-92.382,-119.525,-69.094,15.777,-243.318,-59.267,-101.285,19.634,-103.476,-122.589,-115.259,-124.473,-111.559,-90.299,-99.318,-107.709,-120.329,-94.746,-194.208,4
-150.019,-162.675,-278.209,17.883,-63.242,-115.891,-20.976,32.402,52.726,-131.868,-98.437,-125.553,-74.66,7.564,-247.685,-69.453,-109.893,3.22,-112.594,-134.25,-123.853,-134.082,-119.644,-98.405,-106.903,-116.823,-127.893,-96.189,-218.093,4
-154.48,-164.561,-272.808,12.23,-68.814,-121.41,-48.108,23.148,46.526,-137.884,-103.974,-127.477,-77.659,-1.153,-217.211,-76.044,-116.955,-1.394,-117.605,-140.263,-127.316,-137.022,-122.599,-114.701,-102.698,-126.953,-126.228,-94.556,-241.953,4
-142.542,-161.323,-261.777,9.144,-67.208,-121.289,-55.232,27.736,51.09,-134.16,-100.284,-123.251,-70.409,2.434,-194.453,-73.406,-118.888,6.804,-116.462,-139.098,-121.553,-134.323,-121.451,-113.049,-102.083,-125.289,-123.54,-99.072,-227.366,4
-137.789,-150.403,-269.712,24.504,-59.456,-110.922,-34.684,41.028,55.137,-125.317,-92.499,-117.492,-66.24,8.067,-189.647,-69.235,-114.158,7.822,-114.297,-137.934,-117.845,-132.652,-119.281,-102.178,-102.493,-122.09,-120.343,-98.973,-209.208,4
-143.287,-143.08,-267.905,37.799,-56.835,-106.2,-24.403,40.474,54.57,-125.704,-91.894,-112.764,-68.223,8.059,-178.699,-67.628,-108.921,3.204,-112.133,-135.235,-117.727,-130.983,-120.698,-103.612,-95.218,-119.918,-115.099,-90.164,-213.61,4
-149.803,-153.696,-259.44,22.905,-67.537,-115.828,-24.891,26.602,48.88,-135.824,-99.487,-117.774,-73.278,2.416,-174.934,-71.659,-112.91,1.151,-114.07,-138.686,-121.196,-131.876,-123.652,-109.144,-96.148,-119.286,-120.107,-96.222,-226.204,4
-150.678,-162.763,-269.939,13.148,-74.129,-120.322,-14.62,25.55,47.294,-136.201,-102.461,-122.267,-75.767,-1.173,-174.247,-76.711,-114.847,5.249,-112.932,-141.621,-122.099,-129.183,-116.868,-101.863,-98.101,-120.704,-124.598,-107.909,-228.027,4
-139.769,-148.768,-270.182,28.504,-61.76,-108.931,-12.556,41.406,58.005,-121.208,-88.526,-107.801,-67.494,9.587,-157.679,-69.974,-103.973,14.465,-97.962,-126.11,-109.682,-114.709,-103.943,-83.83,-84.683,-111.361,-112.178,-96.018,-216.016,4
-127.846,-133.763,-246.858,33.086,-54.526,-100.626,-24.327,48.025,61.021,-115.451,-80.241,-98.983,-63.328,14.188,-146.763,-62.732,-100.795,11.889,-89.667,-115.738,-99.838,-108.959,-103.327,-74.525,-79.987,-97.418,-102.844,-82.602,-197.869,4
-140.526,-146.949,-248.66,18.196,-67.279,-110.771,-37.623,33.632,44.566,-130.192,-97.067,-118.352,-77.097,-8.368,-156.862,-78.038,-116.576,-7.591,-106.996,-135.09,-115.62,-126.268,-118.081,-85.721,-97.326,-109.103,-115.037,-96.352,-195.11,4
-161.39,-164.733,-279.662,8.444,-77.97,-125.517,-51.417,19.254,33.251,-144.407,-113.364,-133.603,-91.877,-27.827,-165.415,-100.502,-128.755,-12.194,-125.332,-152.885,-132.923,-139.974,-127.696,-102.029,-104.401,-128.462,-129.267,-110.6,-211.821,4
-155.081,-155.859,-281.944,13.559,-71.744,-119.756,-49.317,22.821,41.927,-136.578,-102.492,-121.174,-83.076,-14.479,-155.515,-94.766,-118.38,4.724,-115.473,-141.462,-123.568,-129.588,-117.835,-99.365,-92.001,-118.6,-123.502,-100.243,-216.22,4
-131.872,-135.723,-254.51,25.328,-58.865,-99.657,-33.386,35.094,55.205,-116.461,-84.459,-104.659,-61.988,3.466,-133.331,-74.179,-101.868,12.404,-97.939,-122.877,-105.002,-113.577,-104.909,-86.971,-79.614,-100.038,-106.472,-82.724,-198.585,4
-130.716,-132.513,-245.034,31.451,-56.757,-96.995,-32.328,38.645,58.736,-113.271,-85.911,-103.53,-58.852,0.901,-128.074,-74.617,-104.84,3.17,-103.476,-124.291,-109.507,-119.611,-110.952,-89.445,-78.509,-107.623,-106.878,-83.154,-200.436,4
-149.54,-142.627,-259.133,24.247,-66.946,-112.268,-28.709,31.946,52.017,-127.502,-96.584,-113.16,-72.113,-6.784,-145.365,-89.911,-113.956,-0.419,-117.717,-137.487,-125.792,-137.422,-120.575,-98.065,-89.189,-122.884,-122.14,-95.366,-208.944,4
-155.539,-149.657,-264.51,15.001,-69.953,-118.303,-6.651,24.742,45.817,-132.498,-101.098,-120.219,-75.627,-1.654,-151.879,-95.457,-106.158,2.655,-114.013,-138.886,-125.666,-134.724,-115.844,-92.844,-100.883,-123.786,-123.555,-100.906,-186.194,4
-147.186,-150.532,-257.585,9.351,-64.76,-114.086,-13.305,25.229,47.308,-128.267,-99.46,-119.587,-72.99,5.007,-138.407,-96.898,-101.441,0.091,-109.801,-132.6,-117.856,-120.756,-112.654,-88.653,-100.27,-120.076,-116.259,-106.441,-177.811,4
-149.6,-153.967,-257.328,1.657,-68.282,-116.021,-40.444,29.303,48.286,-129.163,-98.336,-120.492,-77.528,-0.633,-133.658,-102.437,-112.61,-9.131,-117.888,-135.029,-120.812,-123.71,-118.689,-96.761,-96.071,-119.956,-119.729,-117.605,-209.908,4
-156.623,-160.986,-269.366,-2.443,-72.824,-117.442,-39.379,29.273,46.701,-129.546,-97.213,-123.957,-76.938,-7.293,-136.598,-102.847,-117.621,-17.831,-117.258,-136.943,-120.691,-130.758,-120.107,-99.226,-101.611,-119.324,-122.171,-119.537,-228.142,4
-150.831,-158.775,-280.879,0.121,-69.165,-113.739,-29.605,28.219,46.142,-125.318,-95.066,-123.321,-72.25,-4.211,-136.974,-101.207,-114.429,-18.325,-111.505,-129.121,-111.349,-124.992,-119.475,-97.589,-106.632,-118.18,-117.438,-116.856,-217.667,4
-137.873,-146.321,-273.938,7.293,-65.51,-110.551,-29.576,29.728,46.608,-123.144,-91.385,-120.636,-73.203,1.428,-138.886,-100.593,-111.753,-4.474,-110.369,-121.308,-107.651,-118.719,-117.306,-99.541,-96.279,-115.5,-113.222,-113.665,-212.327,4
-123.39,-130.293,-254.197,18.556,-57.247,-102.244,-14.689,33.797,51.684,-113.799,-79.511,-113.343,-64.42,6.037,-127.989,-89.222,-101.395,10.899,-97.451,-110.428,-102.42,-112.453,-105.406,-89.708,-81.326,-104.114,-102.863,-94.596,-194.696,4
-115.582,-119.917,-252.406,22.636,-47.456,-92.408,-11.088,38.374,57.268,-103.952,-70.722,-106.058,-53.597,7.568,-107.369,-79.399,-95.146,10.376,-89.157,-100.071,-95.146,-107.73,-101.714,-77.835,-85.856,-94.276,-94.563,-83.23,-176.058,4
-130.323,-132.092,-264.449,13.392,-54.069,-99.487,-35.156,33.212,47.989,-114.606,-80.385,-117.222,-65.839,-2.173,-110.847,-95.713,-108.371,-0.393,-106.998,-112.779,-107.858,-118.38,-115.445,-91.589,-103.188,-108.014,-107.788,-104.664,-193.3,4
-146.587,-148.866,-255.987,3.133,-65.285,-111.683,-41.781,18.322,36.67,-126.275,-93.625,-134.011,-78.069,-12.929,-124.057,-111.499,-116.972,-3.466,-115.6,-128.035,-121.583,-130.557,-121.989,-106.867,-107.183,-124.3,-119.976,-117.367,-205.915,4
-133.633,-137.447,-244.461,4.154,-58.56,-105.424,-25.345,19.841,44.831,-115.39,-86.359,-126.193,-65.695,-6.769,-109.588,-101.654,-105.584,2.173,-100.116,-117.661,-107.629,-121.205,-112.646,-93.44,-96.318,-114.954,-106.536,-100.856,-186.241,4
-118.642,-120.403,-259.585,11.835,-49.28,-92.511,-25.832,35.19,55.032,-106.053,-73.977,-115.308,-58.457,4.509,-91.548,-92.843,-97.282,6.269,-97.454,-105.761,-96.763,-112.887,-105.361,-81.051,-89.562,-106.13,-98.745,-93.07,-185.03,4
-131.331,-131.554,-273.67,7.212,-54.866,-98.054,-37.077,29.52,47.805,-113.631,-80.051,-128.0,-69.67,0.918,-104.264,-103.509,-103.332,3.189,-108.627,-114.364,-111.01,-123.533,-108.329,-92.753,-88.447,-117.807,-110.942,-100.15,-209.436,4
-147.081,-146.791,-268.274,-8.677,-63.008,-110.251,-35.503,12.584,42.634,-118.129,-91.241,-141.705,-74.723,-8.817,-118.504,-114.164,-107.84,-4.499,-111.592,-121.934,-118.072,-129.557,-115.393,-101.882,-94.507,-121.787,-116.978,-106.71,-214.862,4
-141.811,-143.571,-269.03,-10.717,-58.847,-103.993,-25.734,18.207,50.788,-111.863,-85.003,-136.44,-67.988,-5.222,-106.603,-112.513,-104.658,-2.445,-105.845,-114.128,-109.244,-119.694,-111.692,-90.51,-103.121,-110.907,-109.689,-114.8,-198.253,4
-130.911,-138.816,-274.396,5.175,-47.517,-90.569,-16.486,33.558,58.934,-104.579,-71.597,-126.057,-59.211,4.517,-92.664,-102.154,-98.406,10.365,-94.469,-101.718,-101.451,-106.766,-98.772,-75.562,-92.772,-101.062,-103.432,-116.222,-190.37,4
-132.317,-141.751,-272.073,8.244,-49.519,-94.065,-11.859,29.426,55.289,-106.523,-76.137,-129.005,-57.103,2.976,-100.256,-97.953,-95.233,14.453,-89.764,-95.981,-99.812,-105.635,-99.698,-77.023,-77.822,-100.961,-103.841,-108.421,-204.525,4
-145.505,-148.27,-273.85,-9.695,-65.351,-109.34,-18.507,10.441,40.377,-119.737,-91.942,-141.684,-67.804,-6.249,-117.061,-111.175,-99.749,4.192,-102.994,-106.131,-110.471,-120.898,-113.431,-95.39,-93.114,-114.692,-111.934,-111.899,-222.763,4
-152.019,-154.781,-274.601,-19.42,-69.384,-115.378,-30.272,0.697,31.627,-124.74,-94.412,-146.153,-74.396,-5.73,-126.166,-120.798,-104.26,-2.472,-111.6,-114.734,-119.07,-129.999,-116.391,-102.466,-108.902,-126.873,-117.457,-124.082,-210.245,4
-144.183,-152.065,-272.277,-17.351,-55.995,-109.627,-36.902,6.844,39.28,-113.345,-85.096,-139.859,-67.662,-1.113,-123.478,-112.993,-101.082,-2.469,-105.341,-105.91,-111.266,-122.184,-113.713,-93.655,-99.572,-119.574,-112.217,-127.032,-190.055,4
-141.989,-149.351,-278.665,-24.506,-54.914,-109.006,-39.426,9.398,39.753,-110.67,-86.035,-141.256,-68.619,-4.699,-118.232,-109.806,-102.518,-5.028,-107.797,-102.731,-108.081,-121.55,-117.186,-98.684,-104.083,-115.868,-110.567,-127.93,-207.796,4
-143.896,-152.788,-279.923,-30.117,-65.618,-112.995,-37.85,4.778,31.517,-118.244,-89.023,-145.213,-74.698,-4.182,-119.65,-117.381,-106.514,-4.511,-115.374,-111.337,-113.608,-128.601,-118.093,-105.758,-114.737,-124.974,-114.043,-128.314,-221.42,4
-129.408,-141.877,-267.347,-8.057,-58.38,-101.099,-25.004,16.044,44.293,-107.367,-77.663,-135.334,-64.889,7.606,-116.457,-112.14,-97.698,2.666,-107.574,-105.59,-104.273,-121.3,-110.291,-88.746,-91.569,-117.164,-107.269,-111.28,-194.559,4
-121.594,-124.829,-269.642,8.344,-43.977,-81.53,-13.196,29.348,58.081,-92.915,-67.339,-130.076,-53.041,12.209,-107.631,-103.831,-91.452,2.151,-102.343,-96.263,-96.996,-115.543,-105.569,-79.948,-77.133,-106.801,-104.6,-94.774,-190.266,4
-133.255,-132.901,-275.007,-5.496,-50.08,-85.035,-24.966,20.097,48.801,-97.945,-72.395,-135.069,-56.574,6.049,-107.011,-107.826,-96.996,-3.487,-104.29,-98.729,-102.535,-119.526,-107.513,-89.602,-96.011,-112.842,-110.643,-104.926,-217.228,4
-124.413,-139.94,-251.166,-7.028,-51.055,-91.61,-37.749,15.979,49.265,-95.798,-69.761,-126.225,-54.469,13.728,-101.269,-99.009,-89.215,5.738,-89.841,-85.822,-89.625,-103.525,-99.721,-77.217,-90.792,-101.971,-97.725,-113.53,-201.129,4
-105.845,-122.382,-234.009,11.422,-35.122,-78.71,-23.366,29.795,62.535,-81.357,-56.884,-111.241,-42.631,28.571,-80.675,-78.93,-76.318,20.589,-72.845,-66.269,-71.092,-82.929,-85.277,-56.135,-66.11,-79.327,-79.696,-100.097,-168.14,4
-120.084,-121.747,-253.243,6.8,-39.698,-80.681,-12.072,22.593,52.227,-90.498,-63.999,-120.352,-48.224,20.345,-85.718,-86.535,-86.488,14.933,-83.018,-79.01,-83.316,-96.166,-91.851,-66.837,-74.753,-88.982,-91.912,-99.484,-182.317,4
-136.358,-138.532,-261.699,-6.527,-57.589,-100.58,-22.306,3.103,35.781,-110.899,-81.866,-138.162,-68.668,3.419,-115.346,-107.453,-99.209,2.111,-99.329,-97.886,-97.577,-114.513,-109.178,-87.775,-95.683,-109.385,-107.189,-113.729,-200.577,4
-124.438,-130.196,-249.142,-0.372,-53.433,-97.918,-18.698,7.198,40.868,-105.666,-79.735,-135.975,-70.136,3.928,-118.817,-102.223,-92.962,4.67,-94.619,-90.104,-89.283,-107.226,-106.507,-84.613,-93.538,-102.616,-95.811,-109.005,-183.471,4
-120.216,-122.894,-257.089,-6.52,-47.232,-89.111,-5.359,12.826,45.95,-95.826,-69.921,-127.642,-58.283,9.559,-104.865,-92.899,-89.795,10.301,-89.914,-85.915,-88.169,-103.533,-100.253,-75.307,-90.883,-95.341,-91.617,-103.773,-176.115,4
-130.341,-133.529,-265.029,-21.882,-52.308,-95.682,-14.575,3.079,45.392,-97.779,-72.413,-127.002,-58.225,11.086,-111.421,-97.417,-91.242,10.291,-98.021,-91.977,-96.278,-112.651,-106.813,-78.306,-93.354,-103.442,-102.796,-111.866,-188.234,4
-120.99,-124.687,-247.346,-9.053,-45.083,-88.926,-22.245,8.712,53.031,-89.997,-69.267,-119.703,-55.605,16.711,-111.309,-91.684,-82.442,13.354,-96.386,-86.25,-87.472,-110.489,-104.657,-80.789,-82.502,-101.802,-97.57,-102.532,-189.07,4
-110.622,-109.193,-243.512,4.789,-39.915,-75.517,-12.489,21.511,55.54,-80.685,-61.0,-112.923,-48.377,15.157,-94.292,-86.469,-83.384,13.341,-92.191,-85.139,-81.749,-106.792,-101.991,-76.098,-75.759,-99.139,-88.251,-90.135,-187.344,4
-125.881,-119.842,-261.199,-7.512,-52.683,-82.102,-17.6,12.78,46.775,-89.826,-69.136,-124.593,-58.575,1.31,-99.833,-98.678,-99.695,1.032,-103.882,-99.911,-97.549,-117.444,-114.184,-80.632,-93.102,-113.384,-98.922,-106.951,-188.694,4
-135.489,-129.968,-257.352,-17.75,-55.192,-86.118,-28.341,5.083,43.142,-93.323,-76.752,-128.567,-66.713,-0.741,-116.639,-100.117,-100.619,-6.141,-106.34,-100.835,-101.55,-119.888,-114.582,-90.285,-105.817,-118.394,-105.483,-118.627,-181.333,4
-124.083,-123.178,-242.238,-13.122,-47.964,-77.323,-19.603,11.738,46.685,-81.446,-65.404,-113.581,-55.888,6.945,-114.473,-87.209,-90.273,1.037,-90.352,-87.927,-85.567,-106.448,-102.172,-83.535,-94.44,-103.418,-98.205,-105.188,-179.615,4
-121.397,-126.641,-249.168,-10.547,-49.965,-81.344,-22.145,7.115,45.101,-83.414,-61.753,-111.931,-55.32,1.302,-115.383,-84.048,-93.256,7.184,-85.651,-89.888,-80.871,-98.145,-100.533,-72.693,-84.612,-97.167,-95.545,-103.546,-196.341,4
-126.399,-134.711,-258.653,-11.049,-50.428,-88.947,-40.054,-1.089,40.958,-95.114,-72.962,-118.991,-64.998,-5.359,-122.44,-86.525,-98.286,7.689,-89.151,-99.532,-84.376,-99.584,-99.408,-74.67,-87.089,-99.119,-93.913,-113.176,-204.342,4
-118.075,-125.355,-251.222,-6.939,-47.303,-81.174,-23.108,9.158,46.552,-88.871,-69.815,-110.163,-59.298,0.794,-111.559,-81.828,-92.552,8.706,-82.914,-97.896,-78.144,-95.898,-95.21,-74.083,-82.903,-91.848,-89.72,-113.063,-190.818,4
-113.347,-117.033,-244.823,-2.834,-50.842,-74.945,6.629,16.834,53.678,-82.122,-63.597,-105.954,-53.091,2.33,-105.813,-79.697,-92.972,4.599,-85.393,-96.773,-79.09,-97.851,-102.799,-72.984,-80.771,-93.293,-94.241,-114.487,-182.942,4
-129.627,-130.236,-257.386,-10.516,-55.914,-86.141,-10.283,4.009,43.378,-93.311,-77.366,-118.656,-64.821,-9.968,-131.322,-87.302,-105.175,-5.14,-100.164,-107.435,-95.405,-115.172,-113.967,-88.28,-94.523,-111.13,-104.393,-122.057,-197.616,4
-140.256,-140.352,-273.01,-23.313,-60.469,-98.862,-34.864,-6.753,31.039,-101.414,-85.486,-120.587,-71.928,-16.105,-158.855,-92.85,-108.656,-8.721,-104.163,-110.401,-100.433,-122.741,-112.829,-97.413,-103.65,-117.679,-104.801,-120.91,-212.788,4
-127.308,-126.891,-261.978,-19.191,-56.31,-92.103,-23.046,-1.111,37.668,-91.579,-70.031,-107.146,-60.586,-5.331,-159.721,-83.535,-97.276,-2.564,-97.399,-94.409,-87.525,-108.786,-105.544,-84.508,-92.788,-103.217,-95.475,-113.105,-203.866,4
-114.885,-116.006,-238.662,-9.438,-41.397,-77.667,-12.777,3.501,45.315,-84.315,-58.178,-98.33,-54.377,4.408,-152.389,-73.206,-91.543,0.0,-96.277,-87.655,-83.851,-104.579,-102.877,-79.813,-88.596,-96.966,-88.719,-111.455,-185.219,4
-125.529,-127.161,-246.108,-16.089,-42.38,-81.175,-23.01,-3.675,37.073,-91.403,-65.804,-104.379,-65.594,-6.867,-160.434,-80.305,-102.723,-9.222,-107.963,-104.473,-97.087,-120.868,-113.02,-94.078,-102.852,-115.312,-95.803,-118.516,-186.058,4
-136.162,-134.206,-269.941,-20.171,-56.683,-90.315,-28.623,-9.307,33.962,-96.947,-75.472,-112.472,-72.7,-23.254,-168.982,-86.885,-111.841,-17.409,-117.589,-112.566,-103.65,-124.846,-119.567,-98.595,-102.75,-126.468,-104.416,-123.008,-192.532,4
-122.706,-120.752,-262.498,-14.003,-55.601,-82.028,-35.254,-3.662,42.125,-90.702,-70.786,-105.187,-63.919,-17.595,-156.518,-75.527,-105.07,-8.683,-105.689,-99.646,-90.739,-108.327,-106.64,-83.639,-79.081,-110.972,-96.115,-109.053,-181.581,4
-109.263,-112.946,-246.354,-17.575,-47.861,-75.286,-42.391,-1.609,40.034,-87.026,-60.469,-93.299,-57.707,-4.77,-145.091,-65.205,-95.743,4.646,-89.701,-95.448,-80.402,-95.923,-98.848,-71.772,-71.317,-98.566,-83.211,-94.599,-175.764,4
-115.814,-118.981,-257.379,-19.095,-50.887,-83.408,-26.467,-10.317,28.723,-93.086,-61.433,-93.718,-61.748,-6.302,-151.606,-65.14,-93.086,6.69,-92.685,-99.963,-85.445,-95.828,-104.897,-77.848,-87.127,-102.053,-85.69,-106.287,-189.421,4
-121.333,-122.961,-265.318,-12.928,-52.373,-86.398,-8.51,-15.43,29.206,-96.067,-71.106,-97.21,-64.76,-8.345,-156.065,-63.026,-94.017,4.635,-95.667,-95.252,-87.921,-100.855,-102.743,-85.455,-92.163,-101.951,-90.215,-121.55,-193.842,4
-119.163,-120.788,-250.708,-14.964,-51.808,-85.799,-16.186,-13.877,34.3,-95.971,-72.572,-96.601,-65.72,-4.75,-153.347,-62.45,-94.436,4.63,-88.911,-95.157,-85.271,-103.828,-99.054,-83.833,-84.386,-100.825,-88.587,-114.257,-190.574,4
-126.728,-123.229,-250.458,-23.658,-58.417,-92.374,-34.1,-18.986,28.118,-101.51,-73.524,-100.602,-69.24,-3.209,-155.755,-67.511,-92.804,2.576,-92.921,-104.796,-94.407,-106.285,-106.64,-86.823,-96.085,-108.408,-92.597,-115.679,-200.63,4
-138.897,-134.377,-275.31,-35.418,-66.555,-98.429,-50.46,-25.627,17.332,-110.63,-86.258,-106.137,-76.343,-4.742,-158.674,-72.566,-92.199,-2.55,-106.66,-112.375,-106.096,-116.938,-114.218,-100.568,-121.092,-119.058,-103.776,-139.13,-209.651,4
-141.832,-140.39,-284.769,-44.092,-68.025,-97.818,-55.533,-23.04,16.802,-109.495,-89.758,-106.543,-79.853,-7.812,-153.904,-72.494,-95.181,-5.109,-109.627,-115.849,-102.404,-123.993,-116.665,-105.078,-123.02,-126.112,-109.307,-147.187,-205.343,4
-134.005,-126.417,-263.479,-30.728,-62.834,-88.499,-27.813,-12.259,29.593,-95.041,-74.299,-94.654,-67.99,-3.193,-140.43,-60.126,-93.549,0.532,-100.296,-109.586,-91.543,-110.549,-112.45,-91.141,-97.282,-115.227,-101.513,-124.499,-198.477,4
-122.088,-111.946,-243.236,-14.815,-57.648,-75.09,1.929,-1.488,41.346,-82.138,-66.54,-80.215,-55.627,9.618,-122.359,-46.234,-88.332,11.802,-91.999,-99.23,-84.791,-97.631,-100.554,-78.242,-80.791,-96.157,-88.092,-104.907,-187.52,4
-119.917,-114.396,-239.407,-18.899,-59.64,-71.941,-9.856,1.587,40.281,-81.032,-71.084,-81.671,-60.694,7.047,-117.626,-49.261,-89.781,10.766,-94.981,-102.717,-83.682,-105.73,-101.991,-80.213,-88.394,-100.671,-90.053,-107.363,-176.062,4
-124.92,-114.794,-239.167,-15.294,-60.093,-73.919,-30.851,-0.464,35.629,-84.537,-70.501,-90.299,-67.806,-6.28,-127.754,-54.335,-95.326,-3.59,-100.009,-110.811,-88.209,-112.284,-112.135,-86.793,-93.429,-113.378,-99.184,-111.867,-185.62,4
-124.283,-111.093,-245.588,-5.032,-57.983,-71.796,-26.721,-2.0,35.594,-85.989,-69.918,-86.11,-66.713,-8.323,-129.676,-47.108,-100.866,-9.221,-97.859,-109.163,-89.658,-106.537,-108.437,-87.218,-88.725,-109.679,-94.987,-106.632,-207.464,4
-121.597,-117.642,-253.027,-12.712,-59.975,-74.798,-22.084,-2.51,36.583,-86.415,-69.336,-79.364,-65.622,-7.29,-115.714,-42.45,-101.278,-3.065,-91.102,-104.443,-82.908,-100.795,-100.131,-79.959,-82.488,-101.884,-88.232,-107.037,-202.645,4
-120.963,-118.549,-238.429,-18.847,-58.89,-74.211,-17.963,1.078,40.132,-80.181,-60.557,-74.674,-59.409,-7.283,-101.766,-37.285,-93.492,3.086,-83.838,-99.728,-75.141,-92.497,-95.42,-70.657,-70.623,-92.049,-87.119,-110.516,-173.241,4
-121.867,-113.307,-226.92,-17.803,-55.245,-67.476,-7.187,2.614,41.629,-76.515,-61.009,-72.55,-56.788,-3.177,-101.152,-31.612,-93.398,0.522,-84.267,-99.116,-75.578,-89.331,-94.813,-70.587,-69.015,-86.321,-83.958,-111.943,-172.043,4
-131.479,-124.465,-249.235,-25.983,-60.825,-78.167,-16.401,-7.122,32.366,-87.709,-76.317,-82.211,-71.076,-12.908,-112.321,-39.778,-104.576,-10.237,-96.478,-110.288,-82.162,-99.488,-102.915,-79.738,-87.902,-100.067,-89.509,-121.565,-202.097,4
-135.446,-131.0,-260.769,-22.37,-62.814,-84.749,-25.607,-9.677,30.284,-91.72,-76.241,-85.203,-73.054,-20.067,-115.283,-41.787,-101.397,-12.789,-97.406,-112.227,-82.08,-100.925,-104.861,-82.22,-91.4,-105.09,-96.592,-124.005,-205.481,4
-121.99,-112.938,-235.405,-5.954,-54.554,-68.783,-4.576,2.116,42.55,-78.821,-63.357,-70.773,-55.562,0.957,-103.897,-25.864,-89.001,-1.505,-85.013,-101.868,-73.289,-91.09,-96.047,-73.94,-74.402,-91.153,-86.762,-103.901,-185.808,4
-122.381,-105.141,-224.923,-10.559,-58.085,-66.665,1.064,1.602,40.97,-78.229,-66.367,-69.678,-57.044,8.641,-98.158,-24.813,-92.498,3.107,-90.563,-104.328,-77.314,-97.147,-100.562,-72.842,-77.402,-96.185,-83.601,-102.772,-187.159,4
-140.701,-121.942,-250.314,-25.918,-70.323,-81.967,-24.553,-12.745,26.072,-93.008,-76.547,-83.953,-72.868,-13.909,-104.719,-39.133,-105.725,-7.142,-104.305,-112.933,-90.557,-109.857,-112.756,-84.04,-94.231,-113.507,-99.911,-132.896,-192.608,4
-140.048,-128.992,-261.846,-27.429,-68.715,-81.373,-32.213,-14.781,24.509,-94.452,-74.934,-83.356,-72.283,-17.481,-107.176,-35.508,-106.132,-13.283,-99.078,-104.623,-86.88,-106.161,-111.107,-89.591,-91.575,-112.881,-102.885,-138.398,-187.804,4
-124.539,-114.006,-244.166,-21.766,-57.376,-71.046,-18.348,-6.569,35.243,-81.038,-67.174,-69.441,-60.94,-0.558,-99.384,-19.591,-92.706,-2.511,-88.733,-89.149,-72.448,-96.834,-104.336,-83.866,-80.213,-105.596,-89.975,-111.107,-198.375,4
-117.242,-98.523,-234.188,-9.961,-48.609,-60.216,-12.182,0.61,43.405,-70.198,-57.373,-58.613,-50.633,7.64,-96.211,-9.837,-79.805,9.787,-86.082,-81.888,-69.814,-92.638,-101.158,-79.171,-77.058,-101.904,-86.299,-99.213,-200.226,4
-115.076,-102.011,-238.565,-9.951,-49.585,-56.057,-11.145,-1.953,42.337,-73.202,-54.242,-56.505,-49.557,8.657,-109.435,-8.803,-83.312,3.629,-85.996,-84.367,-72.818,-95.107,-100.544,-82.678,-79.543,-102.315,-89.798,-110.897,-176.972,4
-119.059,-113.692,-238.839,-32.483,-61.319,-71.883,-13.696,-15.783,31.024,-86.449,-65.458,-67.719,-61.291,0.451,-120.084,-15.966,-95.524,-8.67,-91.546,-94.017,-72.233,-99.111,-105.567,-82.596,-85.611,-107.848,-91.246,-117.446,-176.282,4
-124.063,-113.578,-239.112,-39.11,-67.405,-79.496,-19.318,-17.816,26.382,-88.924,-68.979,-72.774,-65.328,-8.259,-110.23,-16.463,-93.891,-4.05,-92.991,-98.534,-70.624,-93.376,-104.949,-73.804,-87.062,-100.055,-89.617,-112.206,-197.623,4
-122.914,-110.903,-248.607,-27.8,-65.289,-68.145,-20.323,-6.528,34.04,-82.175,-62.25,-66.042,-58.603,-3.127,-98.337,-11.323,-87.65,1.589,-86.75,-94.849,-68.504,-88.16,-98.696,-71.681,-82.877,-90.221,-89.528,-110.044,-193.839,4
-127.402,-120.526,-250.407,-33.92,-67.273,-70.126,-24.913,-13.181,32.469,-84.142,-67.311,-69.562,-61.106,-4.149,-101.312,-17.972,-95.759,-7.634,-92.299,-99.365,-72.534,-97.805,-104.745,-82.368,-87.917,-104.476,-94.049,-118.131,-182.887,4
-132.398,-120.918,-244.522,-36.448,-65.668,-73.643,-32.573,-19.828,25.777,-84.058,-69.805,-74.615,-64.118,-13.878,-99.162,-20.003,-99.762,-12.749,-99.891,-104.901,-73.486,-100.269,-111.813,-88.945,-92.952,-111.544,-94.467,-121.087,-185.778,4
-120.482,-105.94,-240.691,-19.505,-55.357,-58.712,-29.979,-4.951,32.923,-73.727,-56.928,-61.733,-54.321,-8.229,-84.206,-6.151,-89.416,-7.613,-88.521,-94.037,-62.142,-88.898,-101.967,-83.733,-85.175,-97.6,-86.688,-109.695,-178.42,4
-111.653,-102.248,-231.229,-20.51,-53.764,-57.629,-24.826,1.714,39.038,-71.604,-54.309,-52.962,-50.68,-2.073,-76.949,-2.046,-86.252,-2.483,-80.747,-86.259,-55.932,-87.785,-97.767,-78.527,-80.991,-97.502,-79.429,-104.462,-169.02,4
-120.763,-111.879,-227.411,-33.81,-63.957,-70.379,-24.801,-8.022,33.876,-79.73,-64.501,-62.131,-55.752,-9.244,-82.508,-10.753,-94.363,1.618,-92.962,-98.468,-64.586,-96.918,-110.476,-83.059,-92.693,-108.675,-80.887,-115.628,-180.634,4
-134.987,-119.452,-240.504,-34.288,-72.602,-72.87,-29.899,-11.6,25.645,-86.31,-70.584,-72.315,-61.844,-12.308,-87.548,-18.94,-100.929,-2.482,-103.628,-111.689,-73.23,-102.969,-117.026,-93.222,-104.384,-116.251,-93.101,-128.321,-186.089,4
-136.388,-117.796,-234.628,-31.18,-70.992,-71.772,-31.919,-7.49,22.546,-86.736,-71.026,-73.267,-64.856,-5.124,-81.825,-21.482,-97.242,-8.115,-98.401,-110.041,-70.595,-103.378,-109.737,-89.542,-97.107,-119.721,-99.156,-127.68,-164.898,4
-115.247,-98.21,-203.143,-18.854,-56.577,-60.43,-5.247,2.251,34.306,-72.305,-58.147,-56.8,-51.984,9.226,-59.202,-7.116,-82.8,6.75,-81.909,-97.123,-52.594,-88.93,-99.381,-68.961,-76.005,-104.745,-82.15,-109.109,-146.802,4
-98.738,-82.23,-198.841,-5.515,-47.299,-45.512,23.96,10.446,46.567,-58.4,-45.794,-43.423,-38.1,17.414,-40.7,8.773,-77.082,18.014,-71.068,-87.292,-39.734,-77.571,-97.232,-62.744,-68.757,-89.783,-66.699,-94.655,-157.926,4
-117.083,-96.493,-223.233,-20.366,-57.498,-57.762,-5.265,-1.86,35.762,-70.637,-57.019,-57.212,-47.283,3.052,-50.393,-1.482,-90.325,1.602,-79.194,-94.889,-49.94,-87.739,-103.283,-79.587,-81.496,-101.476,-77.391,-108.905,-174.674,4
-128.236,-106.643,-229.157,-32.129,-62.051,-67.438,-37.536,-10.055,29.579,-78.763,-65.671,-64.839,-55.433,-8.734,-64.175,-12.239,-95.357,-6.596,-84.238,-99.405,-54.501,-90.213,-102.155,-82.582,-83.463,-105.473,-84.486,-121.604,-170.914,4
-104.542,-88.093,-214.584,-11.092,-47.644,-44.829,-4.71,5.837,45.431,-59.729,-49.211,-45.819,-42.569,6.131,-46.692,3.142,-83.479,8.267,-72.883,-84.961,-37.028,-75.266,-91.294,-65.593,-72.622,-85.9,-70.057,-102.527,-157.423,4
-91.63,-76.734,-203.611,0.19,-39.4,-35.051,27.57,15.565,52.045,-49.936,-39.428,-41.163,-35.867,14.322,-25.641,9.799,-80.834,9.284,-69.736,-78.729,-31.356,-74.678,-92.227,-58.867,-76.135,-81.716,-62.814,-89.105,-144.458,4
-103.834,-85.879,-202.895,-12.618,-45.508,-49.873,-4.733,7.864,43.796,-59.62,-50.147,-55.978,-45.565,1.5,-35.861,-4.555,-90.999,-6.607,-81.962,-91.97,-43.62,-85.362,-99.308,-67.518,-87.842,-93.929,-71.461,-102.848,-135.604,4
-111.927,-88.867,-206.278,-12.093,-49.561,-54.434,-20.61,4.27,38.629,-65.708,-56.757,-60.021,-52.692,-3.624,-53.244,-12.235,-94.494,-9.162,-85.978,-95.464,-48.187,-84.764,-98.184,-70.012,-81.606,-97.934,-75.488,-111.967,-145.714,4
-108.741,-81.093,-205.559,-4.909,-48.999,-49.256,12.198,7.852,36.029,-65.642,-55.676,-56.887,-52.639,2.015,-46.018,-8.637,-88.764,-0.956,-79.745,-88.196,-44.04,-82.118,-95.012,-64.819,-64.619,-94.762,-70.289,-102.121,-155.815,4
-102.997,-73.84,-205.354,-6.953,-47.413,-47.67,16.797,9.381,35.993,-64.039,-53.571,-57.855,-49.0,-0.037,-31.628,-9.141,-87.651,-0.955,-81.202,-92.719,-42.459,-85.11,-97.99,-67.828,-58.919,-95.18,-68.682,-94.846,-145.925,4
-103.406,-74.278,-211.808,-8.483,-50.439,-47.11,-15.495,6.298,35.957,-65.0,-53.517,-58.821,-52.025,-8.234,-36.207,-15.279,-94.736,-5.565,-90.342,-99.286,-46.515,-90.148,-103.528,-78.518,-68.594,-102.257,-73.736,-97.313,-145.267,4
-105.25,-75.742,-213.383,-9.251,-52.034,-48.833,-15.365,4.953,33.968,-66.593,-55.112,-60.607,-53.812,-9.833,-36.522,-17.134,-94.98,-5.756,-91.612,-101.195,-48.238,-91.033,-104.027,-79.085,-70.186,-104.357,-74.624,-99.03,-145.889,4
-107.094,-77.205,-214.957,-10.018,-53.629,-50.556,-15.235,3.607,31.978,-68.186,-56.706,-62.393,-55.598,-11.433,-36.838,-18.99,-95.224,-5.948,-92.881,-103.104,-49.962,-91.918,-104.527,-79.651,-71.778,-106.458,-75.511,-100.747,-146.511,4
-108.939,-78.669,-216.532,-10.785,-55.223,-52.279,-15.105,2.261,29.988,-69.778,-58.3,-64.179,-57.385,-13.033,-37.154,-20.845,-95.469,-6.139,-94.151,-105.012,-51.685,-92.804,-105.026,-80.218,-73.371,-108.558,-76.398,-102.464,-147.134,4
-110.783,-80.133,-218.106,-11.553,-56.818,-54.002,-14.975,0.916,27.998,-71.371,-59.894,-65.964,-59.171,-14.633,-37.469,-22.7,-95.713,-6.33,-95.42,-106.921,-53.408,-93.689,-105.525,-80.784,-74.963,-110.659,-77.286,-104.18,-147.756,4
-112.627,-81.596,-219.681,-12.32,-58.413,-55.726,-14.845,-0.43,26.009,-72.964,-61.489,-67.75,-60.958,-16.233,-37.785,-24.555,-95.957,-6.522,-96.69,-108.83,-55.131,-94.574,-106.025,-81.351,-76.556,-112.759,-78.173,-105.897,-148.378,4
-114.471,-83.06,-221.255,-13.088,-60.007,-57.449,-14.715,-1.775,24.019,-74.557,-63.083,-69.536,-62.744,-17.833,-38.101,-26.41,-96.202,-6.713,-97.959,-110.739,-56.855,-95.459,-106.524,-81.917,-78.148,-114.86,-79.06,-107.614,-149.0,4
-116.315,-84.523,-222.83,-13.855,-61.602,-59.172,-14.585,-3.121,22.029,-76.15,-64.677,-71.321,-64.531,-19.433,-38.416,-28.266,-96.446,-6.905,-99.229,-112.647,-58.578,-96.345,-107.023,-82.484,-79.74,-116.96,-79.948,-109.331,-149.623,4
-118.16,-85.987,-224.404,-14.622,-63.197,-60.895,-14.455,-4.467,20.04,-77.743,-66.271,-73.107,-66.318,-21.033,-38.732,-30.121,-96.69,-7.096,-100.498,-114.556,-60.301,-97.23,-107.523,-83.051,-81.333,-119.061,-80.835,-111.048,-150.245,4
-110.357,-78.216,-212.909,-7.948,-56.474,-58.785,18.347,-5.999,22.581,-74.591,-63.644,-69.96,-62.153,-15.377,-20.763,-24.455,-87.884,1.62,-86.565,-109.831,-47.945,-84.325,-97.169,-68.623,-62.296,-105.109,-68.971,-105.302,-121.918,4
-103.586,-76.089,-206.548,-5.891,-50.782,-56.165,14.23,-4.968,26.145,-74.516,-62.043,-70.403,-62.603,-13.312,-14.082,-24.943,-88.309,-2.48,-87.503,-104.598,-44.824,-85.265,-99.633,-71.116,-57.111,-99.369,-66.853,-99.049,-123.845,4
-108.094,-84.722,-211.977,-11.008,-56.366,-53.547,-8.326,-0.865,24.069,-72.393,-61.469,-69.82,-64.59,-18.934,-19.191,-29.529,-88.733,-12.724,-97.15,-109.616,-53.488,-94.914,-107.218,-80.778,-75.497,-111.565,-76.52,-105.61,-147.8,4
-114.133,-88.736,-213.815,-16.632,-62.97,-51.956,7.052,1.185,24.558,-71.296,-59.87,-64.627,-60.939,-14.817,-16.61,-27.963,-86.595,-9.637,-95.516,-112.581,-54.459,-95.331,-104.55,-76.599,-82.081,-112.99,-77.98,-110.115,-154.824,4
-122.728,-92.233,-214.113,-22.251,-68.03,-63.688,4.996,-8.038,18.385,-83.52,-71.081,-73.784,-67.538,-18.388,-16.594,-35.619,-92.144,-7.066,-95.932,-115.542,-55.942,-95.236,-101.884,-80.109,-73.29,-110.316,-77.39,-109.492,-157.743,4
-122.093,-91.116,-216.46,-18.642,-66.425,-68.747,-22.674,-9.054,14.269,-85.485,-73.572,-78.321,-71.569,-26.054,-21.7,-41.731,-92.564,-11.669,-95.324,-114.914,-56.398,-93.604,-101.782,-86.176,-65.532,-111.23,-78.337,-106.821,-156.048,4
-115.311,-84.878,-215.732,-12.476,-60.723,-61.506,-10.356,-6.996,18.353,-80.277,-64.789,-70.558,-67.399,-18.856,-22.703,-36.567,-86.323,-11.146,-91.643,-107.627,-55.829,-89.924,-103.217,-78.918,-66.491,-107.533,-77.746,-105.69,-135.4,4
-121.856,-87.354,-208.856,-23.222,-66.298,-67.592,10.659,-17.747,12.699,-90.443,-73.946,-79.709,-75.528,-17.3,-21.656,-44.215,-90.336,-9.597,-98.211,-113.667,-61.921,-93.933,-107.212,-80.376,-75.134,-111.011,-78.693,-112.756,-120.92,4
-124.296,-88.804,-196.864,-23.711,-70.33,-72.648,-4.208,-18.242,6.026,-90.865,-79.507,-85.777,-79.039,-22.406,-18.048,-53.392,-90.245,-12.149,-97.6,-119.701,-60.835,-94.863,-104.543,-86.956,-76.595,-114.999,-79.127,-115.205,-130.021,4
-116.999,-82.055,-194.106,-8.318,-64.624,-63.353,-17.012,-7.978,11.656,-78.478,-66.62,-71.347,-68.714,-15.723,-12.907,-45.654,-80.933,-14.186,-88.794,-110.872,-56.163,-91.182,-103.414,-79.696,-77.544,-110.785,-80.072,-110.479,-144.235,4
-128.153,-91.707,-215.941,-21.63,-73.269,-71.487,-24.68,-22.314,4.472,-90.183,-74.238,-79.984,-76.842,-21.343,-23.14,-52.268,-89.049,-19.808,-104.074,-118.958,-73.013,-103.899,-117.655,-89.863,-92.835,-125.531,-93.312,-119.59,-155.362,4
-142.369,-111.083,-244.926,-44.15,-83.954,-86.785,-43.098,-39.198,-7.828,-102.9,-91.582,-100.397,-89.573,-36.691,-35.412,-71.684,-99.719,-22.862,-120.876,-137.794,-86.772,-120.701,-125.222,-116.925,-99.915,-147.435,-102.441,-132.791,-172.113,4
-131.468,-104.824,-249.292,-30.273,-72.087,-76.964,-28.71,-27.888,2.938,-92.551,-82.269,-88.513,-78.212,-27.433,-28.717,-67.001,-89.373,-17.203,-109.997,-127.411,-75.927,-114.945,-118.437,-113.222,-90.593,-138.066,-91.067,-126.51,-181.674,4
-126.214,-92.424,-228.551,-15.899,-63.818,-69.715,4.106,-20.176,10.62,-88.873,-76.551,-78.179,-73.011,-19.721,-25.614,-60.274,-86.21,-20.772,-103.739,-114.988,-72.265,-106.633,-116.782,-97.74,-95.113,-127.169,-85.341,-121.773,-165.099,4
-138.383,-102.065,-209.367,-30.74,-73.488,-80.916,-4.095,-29.377,-0.149,-96.468,-86.721,-91.42,-82.672,-30.972,-36.859,-71.485,-95.345,-30.998,-110.808,-125.631,-80.39,-112.162,-119.739,-107.376,-104.24,-137.288,-95.502,-132.922,-149.565,4
-134.146,-109.136,-211.207,-39.418,-74.439,-80.323,-28.169,-29.86,0.363,-92.274,-80.999,-87.743,-77.979,-28.379,-33.749,-71.413,-92.176,-23.282,-107.111,-124.993,-76.211,-113.074,-117.058,-112.904,-93.377,-137.151,-90.795,-131.252,-162.223,4
-120.18,-101.854,-229.951,-32.206,-70.779,-71.021,-26.604,-29.318,3.949,-87.571,-72.209,-74.847,-70.728,-20.154,-20.907,-62.12,-89.522,-17.624,-101.368,-114.622,-71.011,-106.301,-114.379,-105.106,-85.599,-128.305,-80.458,-118.313,-175.38,4
-124.158,-99.191,-236.893,-28.588,-74.294,-74.536,-22.479,-35.948,-4.252,-92.094,-79.821,-82.969,-78.342,-28.331,-27.034,-66.157,-95.58,-26.827,-105.878,-118.094,-76.576,-106.707,-112.215,-106.538,-93.71,-132.787,-88.063,-122.293,-164.959,4
-126.595,-97.555,-218.213,-24.973,-71.658,-75.998,-25.53,-29.252,0.875,-89.952,-79.229,-85.448,-78.776,-27.79,-32.642,-69.677,-91.386,-26.288,-105.259,-116.951,-74.45,-104.551,-108.005,-100.284,-91.568,-130.605,-90.536,-128.831,-144.302,4
-114.686,-89.772,-203.65,-21.874,-63.39,-66.188,-17.82,-16.928,13.17,-81.665,-68.903,-73.58,-67.939,-22.127,-20.314,-62.947,-85.147,-18.065,-95.42,-107.1,-66.179,-94.713,-105.335,-86.864,-77.131,-118.179,-76.613,-118.968,-131.35,4
-111.497,-91.732,-207.033,-24.414,-65.888,-65.098,-8.069,-20.497,8.034,-80.559,-70.884,-74.018,-68.383,-28.765,-20.294,-64.421,-88.136,-15.998,-94.3,-108.018,-67.649,-94.106,-104.717,-92.924,-75.005,-120.11,-78.074,-116.288,-138.391,4
-115.996,-94.714,-201.703,-25.414,-71.97,-70.668,-8.573,-24.575,3.415,-81.503,-72.862,-79.58,-70.876,-23.613,-39.229,-69.992,-88.048,-11.371,-99.329,-106.373,-69.631,-97.598,-103.588,-97.442,-87.738,-124.601,-86.192,-124.368,-152.597,4
-108.196,-85.398,-194.841,-24.364,-65.75,-64.962,-14.712,-16.353,12.121,-74.249,-64.592,-72.84,-62.096,-9.757,-41.239,-62.237,-82.837,-9.31,-94.107,-96.02,-62.901,-90.328,-98.361,-84.537,-91.748,-112.181,-75.348,-115.023,-146.809,4
-100.915,-81.214,-209.503,-23.828,-59.024,-58.749,-15.21,-15.825,13.133,-70.077,-62.479,-71.23,-59.473,-17.432,-27.366,-57.564,-81.729,-14.424,-87.353,-95.412,-62.326,-85.627,-97.238,-84.453,-80.898,-103.36,-67.588,-103.637,-145.125,4
-107.987,-89.33,-223.126,-22.267,-64.088,-65.863,-8.534,-26.567,3.899,-79.228,-70.101,-79.356,-69.659,-28.685,-31.437,-68.777,-84.721,-13.385,-96.487,-101.976,-69.948,-94.763,-102.777,-96.663,-81.842,-114.015,-77.254,-112.242,-169.571,4
-110.44,-93.339,-217.78,-22.245,-63.512,-72.969,-16.723,-29.102,1.333,-83.76,-69.006,-78.252,-71.639,-22.509,-63.681,-72.807,-85.661,-9.786,-101.513,-94.702,-68.854,-96.205,-103.698,-97.591,-96.105,-120.048,-80.763,-119.302,-167.864,4
-101.108,-91.196,-211.414,-24.272,-50.641,-67.261,-40.272,-19.852,3.381,-77.016,-60.228,-72.026,-65.42,-18.388,-95.892,-62.488,-81.989,-12.85,-88.604,-78.726,-63.15,-85.35,-94.886,-92.883,-89.349,-112.756,-75.047,-113.548,-135.421,4
-99.47,-88.543,-211.203,-23.735,-50.59,-64.12,-37.158,-18.295,0.304,-77.964,-61.704,-75.54,-69.453,-26.054,-93.235,-62.426,-82.932,-16.935,-86.979,-78.135,-66.16,-83.728,-91.204,-87.667,-72.865,-107.008,-73.947,-111.385,-134.261,4
-105.518,-88.455,-210.479,-24.224,-62.835,-71.228,-13.555,-32.109,-5.332,-87.619,-70.864,-81.1,-76.556,-27.565,-61.379,-71.073,-90.021,-19.992,-94.576,-89.328,-68.143,-85.694,-92.65,-80.407,-79.965,-105.364,-73.873,-110.249,-152.057,4
-100.29,-91.44,-208.22,-24.712,-63.284,-74.743,-19.689,-39.762,-6.351,-85.995,-67.72,-76.92,-72.38,-20.365,-58.756,-65.878,-88.907,-12.288,-84.748,-84.627,-61.928,-76.386,-87.947,-80.327,-88.082,-101.672,-71.238,-105.016,-149.344,4
-93.017,-90.324,-210.061,-20.076,-57.073,-68.52,-42.211,-29.988,-3.271,-79.761,-58.943,-72.233,-66.16,-19.32,-79.189,-59.152,-82.158,0.532,-78.515,-72.76,-60.329,-74.261,-84.273,-83.32,-81.334,-102.083,-70.654,-104.911,-151.244,4
-95.486,-84.599,-214.974,-16.47,-55.479,-62.817,-34.484,-23.298,-0.706,-78.657,-58.884,-73.697,-65.07,-23.912,-67.327,-64.216,-85.662,-6.128,-87.658,-79.347,-63.855,-81.871,-89.311,-82.725,-82.789,-104.542,-70.071,-108.392,-160.826,4
-94.366,-84.002,-212.197,-16.453,-53.375,-62.241,-21.129,-27.885,-0.193,-74.992,-59.337,-75.161,-64.492,-24.4,-47.28,-65.177,-88.65,-15.856,-86.034,-84.903,-64.815,-79.228,-91.784,-85.203,-88.854,-102.901,-69.489,-110.333,-151.956,4
-88.124,-82.893,-207.374,-15.925,-52.297,-62.691,-32.891,-26.833,0.832,-73.38,-57.229,-73.549,-63.403,-24.888,-60.552,-60.501,-87.024,-7.643,-81.849,-78.158,-66.287,-75.05,-91.18,-89.217,-83.642,-103.31,-69.932,-108.685,-144.632,4
-87.523,-75.125,-213.827,-13.86,-52.244,-60.067,-32.859,-18.097,4.417,-75.868,-57.171,-72.45,-62.315,-30.498,-64.59,-63.002,-91.036,-8.66,-88.94,-81.666,-68.783,-81.123,-94.162,-86.566,-80.485,-104.744,-69.862,-99.355,-152.684,4
-85.899,-69.927,-211.564,-8.723,-50.655,-52.835,-1.575,-17.054,10.048,-70.157,-53.016,-71.866,-59.691,-29.956,-38.91,-62.939,-90.433,-17.873,-86.802,-86.708,-67.177,-81.554,-92.531,-83.406,-78.867,-99.004,-69.28,-89.01,-150.995,4
-83.764,-71.907,-191.372,-3.591,-52.141,-49.708,9.697,-21.136,11.062,-62.402,-49.376,-70.257,-58.607,-25.315,-33.236,-57.241,-83.682,-14.781,-79.543,-78.936,-65.573,-74.3,-88.853,-82.298,-71.104,-94.806,-68.186,-90.458,-137.524,4
-83.168,-72.859,-182.984,-5.636,-51.065,-51.708,-14.391,-15.991,11.051,-62.34,-49.839,-69.674,-57.524,-27.851,-39.35,-55.646,-85.648,-12.717,-77.414,-75.271,-63.458,-72.689,-87.227,-81.191,-65.397,-93.687,-62.994,-94.466,-130.214,4
-75.4,-69.713,-191.51,-3.582,-40.255,-44.996,-26.672,-6.241,15.139,-57.154,-45.179,-66.018,-51.831,-28.335,-17.794,-50.98,-85.05,-7.581,-70.164,-74.171,-57.759,-69.542,-83.041,-75.474,-63.283,-87.958,-55.759,-91.297,-132.645,4
-72.25,-66.569,-192.855,5.131,-39.19,-37.779,-15.374,-7.772,15.636,-53.511,-43.084,-62.879,-50.242,-23.184,3.741,-43.757,-76.255,6.771,-69.582,-71.023,-60.263,-67.936,-81.933,-69.763,-68.343,-86.333,-56.728,-93.768,-136.099,4
-86.523,-69.576,-190.613,1.028,-54.008,-48.499,-7.162,-18.523,7.936,-61.655,-52.775,-69.988,-58.901,-22.649,1.175,-50.373,-79.253,1.641,-81.295,-81.198,-69.424,-75.552,-86.975,-73.792,-76.471,-93.419,-66.405,-99.309,-133.913,4
-95.146,-78.728,-189.398,-10.756,-60.614,-57.672,-3.569,-21.578,5.879,-65.691,-59.895,-76.578,-60.379,-23.651,-7.023,-60.569,-87.883,-11.681,-83.263,-89.314,-71.404,-80.088,-87.4,-81.403,-72.808,-96.399,-71.974,-93.062,-129.169,4
-89.415,-82.748,-184.086,-5.11,-52.869,-49.418,-2.028,-18.483,10.483,-60.503,-57.273,-72.403,-53.146,-22.09,-13.163,-55.385,-83.184,-7.058,-78.057,-78.979,-69.796,-75.397,-85.263,-80.297,-71.199,-96.303,-69.341,-90.408,-128.527,4
-85.739,-73.956,-186.975,4.629,-48.717,-46.295,-10.223,-17.952,11.498,-58.905,-52.093,-69.257,-52.581,-25.142,-18.786,-49.694,-79.515,-5.514,-79.516,-74.801,-72.287,-73.272,-89.789,-81.241,-80.861,-95.182,-64.661,-98.002,-129.936,4
-82.58,-67.734,-194.985,1.038,-51.23,-50.347,-16.361,-17.422,8.925,-59.359,-49.992,-71.237,-56.115,-29.215,-20.304,-54.255,-85.583,-11.656,-81.485,-83.436,-74.264,-78.322,-92.26,-86.795,-77.707,-91.501,-63.571,-91.756,-134.416,4
-88.645,-81.499,-193.253,-7.672,-58.351,-54.395,-18.906,-21.503,1.231,-67.496,-62.237,-79.362,-63.231,-35.334,-26.944,-64.447,-90.621,-13.182,-90.113,-92.061,-80.85,-89.002,-95.242,-88.758,-76.092,-99.094,-71.192,-91.152,-148.627,4
-104.438,-98.836,-191.011,-17.399,-65.978,-66.124,-21.961,-34.289,-7.992,-80.236,-73.446,-87.992,-74.438,-42.47,-31.527,-70.018,-92.579,-16.242,-99.244,-96.58,-86.917,-93.012,-100.27,-90.718,-93.947,-110.266,-78.293,-112.578,-157.7,4
-95.112,-93.614,-195.943,-16.869,-62.325,-67.594,-13.742,-33.742,-3.373,-73.496,-60.052,-77.146,-66.679,-32.182,-19.713,-55.604,-83.265,-9.054,-81.727,-85.725,-75.047,-77.549,-92.997,-84.48,-89.242,-97.348,-69.506,-111.441,-148.32,4
-72.475,-80.2,-197.284,-5.581,-52.529,-51.645,-15.265,-21.413,6.364,-58.566,-47.184,-58.113,-49.194,-15.244,-6.373,-35.568,-67.3,9.398,-62.69,-70.27,-61.652,-63.639,-81.121,-71.075,-66.099,-77.783,-59.703,-90.837,-138.95,4
-81.112,-85.243,-201.185,-10.186,-54.526,-53.13,-47.525,-24.978,1.235,-64.143,-56.359,-64.715,-56.829,-16.253,-5.854,-39.631,-67.745,11.438,-70.312,-75.835,-69.787,-69.724,-83.089,-75.103,-72.693,-83.853,-64.766,-100.992,-139.836,4
-96.912,-93.355,-209.693,-20.935,-60.619,-65.373,-52.601,-36.224,-4.402,-71.251,-60.913,-74.897,-67.531,-17.774,-13.533,-47.788,-75.875,4.254,-75.364,-82.419,-75.865,-74.777,-87.105,-88.86,-81.842,-94.527,-69.312,-115.748,-145.332,4
-85.032,-84.04,-204.873,-9.131,-57.485,-56.086,-19.76,-31.577,1.75,-64.519,-53.68,-64.063,-57.73,-14.682,-17.618,-39.031,-71.188,5.275,-66.067,-74.14,-67.592,-68.042,-81.895,-84.16,-67.415,-87.26,-65.144,-99.238,-147.748,4
-76.75,-73.71,-189.299,5.735,-53.329,-47.833,1.264,-25.397,6.872,-59.332,-53.626,-60.925,-53.574,-24.913,-12.99,-33.869,-70.604,2.708,-67.026,-73.554,-68.549,-65.925,-81.3,-72.293,-68.372,-81.025,-66.104,-86.844,-140.94,4
-83.334,-76.198,-186.548,-0.93,-56.349,-54.957,-31.013,-29.471,2.766,-61.322,-55.622,-69.061,-60.18,-34.622,-8.878,-40.495,-81.805,-1.393,-75.156,-79.628,-76.165,-69.445,-87.879,-74.27,-85.723,-86.067,-67.062,-91.88,-140.799,4
-85.812,-83.294,-193.021,-10.663,-63.465,-56.952,-50.449,-32.003,-2.872,-65.359,-57.615,-70.529,-62.169,-32.539,-17.579,-47.115,-86.334,-1.392,-78.155,-81.597,-76.089,-73.474,-89.84,-82.392,-87.174,-89.055,-65.97,-91.788,-157.052,4
-87.263,-82.186,-188.73,-7.066,-65.963,-56.382,-30.931,-28.897,0.205,-66.83,-62.169,-73.533,-62.619,-33.018,-27.295,-51.166,-82.661,-3.44,-79.101,-88.176,-79.087,-78.011,-86.164,-85.384,-81.451,-87.429,-68.466,-91.696,-148.186,4
-83.59,-74.419,-182.906,0.625,-58.213,-55.301,-22.703,-25.794,6.865,-62.665,-59.545,-72.434,-59.483,-36.571,-25.218,-48.553,-77.968,0.15,-77.997,-88.6,-82.082,-78.446,-86.078,-81.2,-75.734,-88.366,-67.885,-97.752,-117.812,4
-78.895,-77.419,-196.043,-1.937,-53.031,-50.123,-42.148,-27.305,2.759,-62.602,-56.411,-67.751,-58.399,-41.658,-25.193,-47.48,-77.89,-0.363,-79.969,-85.437,-81.487,-80.416,-90.091,-84.705,-72.072,-94.938,-66.28,-104.315,-129.989,4
-87.526,-91.173,-212.753,-16.792,-58.614,-57.245,-54.401,-34.45,-5.44,-68.688,-64.04,-73.831,-66.025,-54.936,-32.852,-55.117,-88.058,-16.244,-87.061,-93.037,-84.48,-83.41,-93.074,-97.428,-84.808,-100.991,-73.386,-111.383,-162.135,4
-87.95,-91.595,-209.979,-19.849,-58.043,-62.823,-45.126,-31.854,1.737,-65.545,-63.463,-70.683,-61.86,-53.857,-30.77,-48.402,-89.507,-16.227,-80.314,-89.87,-80.809,-73.593,-87.346,-89.134,-95.482,-92.181,-70.752,-109.222,-156.337,4
-74.542,-79.208,-197.986,-3.435,-52.349,-51.49,-39.445,-21.576,10.445,-59.332,-54.691,-57.293,-52.577,-44.069,-24.592,-36.058,-78.659,1.72,-71.524,-76.972,-74.068,-68.908,-84.697,-74.188,-87.702,-82.867,-58.898,-100.404,-137.225,4
-77.542,-81.69,-198.3,0.154,-54.859,-52.975,-43.504,-29.239,1.725,-66.445,-61.808,-69.019,-64.307,-58.37,-37.375,-48.83,-86.265,-5.967,-86.31,-91.24,-85.265,-86.258,-95.883,-88.458,-88.639,-96.104,-67.036,-105.426,-155.531,4
-82.075,-88.268,-203.225,-9.067,-57.878,-62.656,-41.924,-43.555,-5.449,-71.501,-66.87,-80.22,-73.977,-70.094,-51.17,-58.003,-100.011,-24.404,-94.933,-102.419,-91.327,-90.782,-100.398,-99.128,-97.771,-105.742,-77.727,-111.981,-164.085,4
-73.284,-82.032,-201.997,-8.034,-54.746,-55.421,-39.32,-38.388,0.192,-64.258,-58.093,-65.795,-63.657,-56.704,-42.922,-43.6,-92.226,-10.035,-79.981,-84.386,-78.941,-75.322,-89.027,-83.147,-94.088,-91.291,-66.891,-106.233,-143.941,4
-83.969,-86.049,-203.332,-10.075,-58.277,-61.513,-39.793,-38.35,-2.37,-68.804,-65.208,-69.316,-68.204,-57.672,-42.367,-48.68,-88.036,3.295,-80.413,-88.912,-83.473,-81.395,-89.962,-89.212,-92.969,-92.225,-67.336,-110.226,-152.506,4
-101.816,-98.77,-214.399,-18.262,-69.49,-80.407,-41.29,-52.656,-11.077,-83.592,-82.049,-90.251,-83.505,-74.521,-64.866,-70.66,-101.78,-12.59,-98.776,-114.439,-103.369,-101.293,-105.754,-116.275,-97.999,-117.748,-88.786,-118.312,-181.555,4
-93.517,-90.987,-216.234,-11.583,-71.469,-73.154,-49.958,-43.894,-6.455,-79.41,-78.38,-86.575,-78.298,-69.835,-72.486,-67.003,-101.678,-21.286,-98.165,-109.714,-102.753,-97.094,-103.087,-110.011,-94.315,-118.655,-90.746,-108.46,-165.492,4
-81.128,-80.137,-202.698,-0.813,-63.713,-56.687,-51.957,-23.358,4.822,-63.962,-64.47,-72.144,-66.437,-54.909,-56.532,-52.592,-89.281,-8.457,-82.185,-93.21,-87.281,-80.603,-89.151,-83.261,-89.61,-93.945,-75.286,-100.667,-132.539,4
-80.535,-85.18,-193.786,-2.35,-55.965,-57.143,-31.926,-29.994,8.916,-61.336,-59.282,-64.899,-63.297,-49.731,-44.18,-49.465,-82.532,-0.252,-73.393,-86.969,-76.436,-72.325,-84.964,-77.542,-85.422,-85.142,-70.088,-104.665,-134.456,4
-76.356,-83.046,-194.617,-2.347,-52.835,-58.623,-20.111,-40.211,8.907,-63.324,-56.149,-58.174,-59.647,-45.07,-40.549,-44.293,-79.375,-1.276,-70.246,-79.71,-74.822,-67.13,-83.854,-86.686,-76.627,-87.106,-68.993,-95.339,-152.252,4
-75.767,-74.766,-196.984,3.803,-54.319,-58.052,-31.874,-29.924,7.874,-62.236,-58.654,-60.678,-58.563,-49.123,-45.12,-42.199,-80.833,-2.812,-74.274,-81.68,-80.895,-70.136,-83.77,-90.698,-79.112,-83.945,-68.412,-86.022,-148.513,4
-81.327,-81.351,-196.274,5.848,-57.339,-61.068,-35.94,-24.771,6.329,-67.297,-66.793,-67.277,-63.628,-55.222,-53.784,-50.354,-84.85,-6.908,-78.811,-91.332,-84.4,-77.239,-89.834,-88.558,-88.767,-87.447,-71.93,-99.768,-148.365,4
-83.807,-89.979,-188.393,0.207,-58.818,-63.568,-27.707,-33.456,1.199,-73.89,-68.263,-67.21,-67.15,-47.994,-54.754,-55.939,-83.229,-10.487,-78.732,-89.191,-84.316,-76.137,-91.794,-88.982,-92.264,-95.557,-72.37,-110.427,-156.926,4
-90.383,-91.426,-187.18,-12.089,-61.321,-69.652,-26.655,-42.644,-4.949,-75.353,-69.731,-72.778,-69.132,-46.922,-55.724,-59.981,-84.17,-7.915,-82.24,-92.688,-89.867,-76.573,-90.677,-98.627,-97.295,-95.461,-76.396,-103.656,-149.597,4
-91.829,-90.822,-200.313,-15.15,-62.284,-69.583,-32.264,-41.064,-0.846,-71.691,-71.711,-75.267,-69.575,-54.56,-58.742,-64.532,-86.647,-2.784,-83.182,-98.231,-91.314,-82.644,-93.148,-99.553,-97.198,-93.317,-81.443,-97.917,-137.152,4
-71.758,-82.022,-199.601,-1.303,-49.927,-54.656,-33.768,-26.678,9.913,-60.349,-60.881,-59.31,-59.772,-45.796,-47.925,-57.295,-80.925,-2.781,-72.853,-84.3,-81.489,-75.901,-87.932,-86.133,-85.83,-90.662,-70.091,-95.77,-133.428,4
-58.878,-76.817,-181.983,4.334,-37.581,-45.892,-25.538,-18.967,11.953,-50.042,-49.549,-53.103,-51.515,-41.139,-37.631,-50.578,-81.869,-6.877,-72.267,-76.019,-79.871,-69.165,-85.282,-87.072,-86.768,-87.497,-61.824,-101.822,-131.758,4
-72.139,-88.011,-183.85,-7.454,-44.204,-56.092,-20.389,-31.244,3.744,-58.189,-58.721,-64.833,-60.173,-56.98,-51.938,-62.823,-94.595,-11.481,-85.003,-90.8,-90.037,-82.929,-98.517,-104.915,-97.952,-97.144,-76.107,-117.602,-139.311,4
-81.801,-97.145,-200.572,-10.008,-57.48,-64.233,-35.226,-39.922,-4.969,-70.938,-70.958,-69.891,-69.847,-59.484,-68.28,-74.031,-96.037,-13.006,-87.479,-97.369,-93.533,-90.018,-102.005,-107.372,-100.416,-108.83,-84.74,-120.558,-151.467,4
-75.572,-90.388,-196.785,-3.85,-56.398,-62.12,-45.949,-32.197,-4.964,-66.257,-63.715,-62.136,-62.604,-43.543,-55.916,-64.735,-82.109,-4.796,-76.121,-85.489,-83.706,-71.997,-86.533,-90.871,-90.582,-96.425,-72.872,-110.704,-145.168,4
-61.151,-78.514,-180.707,-6.92,-43.534,-55.91,-30.021,-25.505,7.336,-52.871,-49.306,-49.779,-47.173,-33.253,-29.733,-49.301,-72.805,11.602,-61.7,-68.497,-67.74,-54.507,-76.201,-76.435,-72.56,-75.837,-58.967,-104.445,-126.579,4
-51.356,-74.337,-181.039,-11.524,-35.805,-49.194,-18.208,-27.016,12.452,-50.768,-47.208,-43.069,-42.002,-33.732,-24.58,-48.74,-75.806,13.128,-53.954,-61.769,-62.55,-57.014,-78.686,-74.31,-65.315,-75.761,-54.809,-99.73,-130.039,4
-62.576,-83.484,-196.739,-9.463,-42.43,-53.756,-28.948,-34.162,2.193,-58.915,-56.894,-55.321,-51.182,-45.994,-45.048,-64.06,-85.977,-2.767,-64.659,-74.002,-76.319,-69.764,-85.78,-84.482,-82.669,-87.468,-62.951,-103.217,-151.426,4
-76.858,-90.573,-202.69,-7.917,-48.535,-61.387,-37.116,-35.664,-3.444,-63.979,-62.473,-65.0,-56.254,-53.633,-55.761,-73.218,-85.891,-5.838,-72.279,-77.002,-79.829,-71.232,-87.743,-87.471,-93.344,-90.967,-70.573,-116.946,-151.787,4
-67.047,-81.773,-190.192,0.288,-41.826,-55.69,-30.419,-27.432,3.731,-58.792,-56.775,-52.64,-45.951,-41.284,-40.848,-63.923,-74.022,6.463,-56.325,-58.994,-65.405,-58.865,-80.995,-75.6,-83.005,-82.167,-62.818,-114.779,-127.044,4
-54.172,-75.032,-181.293,10.534,-38.711,-45.9,-21.167,-24.843,7.314,-50.024,-49.546,-45.415,-39.758,-39.706,-33.635,-59.761,-74.46,3.895,-52.682,-57.911,-61.753,-57.781,-79.378,-73.476,-78.823,-77.986,-58.657,-102.369,-122.306,4
-58.217,-80.08,-182.136,3.351,-43.283,-46.879,-16.535,-27.892,5.257,-49.461,-50.521,-54.591,-46.378,-52.474,-45.385,-69.435,-84.632,-1.744,-67.999,-70.66,-71.425,-70.531,-89.032,-85.185,-82.331,-86.105,-65.77,-104.828,-137.553,4
-63.794,-81.536,-180.929,-10.997,-42.727,-51.443,-25.228,-25.815,3.203,-55.56,-55.593,-58.635,-50.942,-45.761,-47.901,-73.976,-80.961,11.065,-68.955,-69.565,-73.915,-74.559,-92.529,-87.661,-81.224,-92.679,-67.241,-108.822,-141.514,4
-67.828,-79.406,-184.334,-11.498,-44.221,-57.539,-41.597,-30.912,-1.923,-59.602,-59.636,-58.064,-53.453,-40.08,-45.291,-76.464,-72.683,13.616,-66.325,-72.057,-74.866,-71.411,-87.826,-85.012,-81.655,-91.562,-66.149,-106.664,-147.008,4
-64.175,-76.252,-186.712,-1.24,-43.665,-53.895,-36.944,-33.955,2.689,-55.957,-56.503,-59.543,-52.887,-43.626,-49.857,-78.949,-72.098,3.356,-68.82,-73.01,-74.791,-71.852,-85.176,-83.903,-76.962,-90.445,-67.108,-103.484,-151.472,4
-47.204,-63.881,-171.668,6.958,-26.715,-33.862,-11.292,-15.478,20.105,-43.605,-44.151,-51.286,-37.977,-27.701,-39.561,-69.648,-67.415,11.037,-59.018,-56.031,-67.544,-64.608,-79.968,-75.622,-66.639,-82.158,-56.795,-92.109,-121.607,4
-48.694,-59.718,-168.935,4.902,-24.127,-31.266,-1.547,-11.364,17.011,-43.049,-43.082,-50.723,-35.89,-25.624,-26.714,-69.578,-71.446,11.026,-64.594,-60.073,-72.087,-64.543,-81.425,-77.595,-75.282,-76.44,-51.615,-90.993,-100.993,4
-69.65,-72.979,-187.209,-2.276,-43.058,-54.801,-19.476,-34.406,-6.06,-62.474,-60.97,-70.652,-57.884,-56.849,-39.495,-92.05,-91.867,-11.526,-87.583,-85.628,-86.872,-78.823,-91.59,-91.35,-91.6,-86.61,-62.834,-104.734,-126.507,4
-62.92,-74.443,-177.8,1.825,-39.941,-57.82,-33.289,-35.909,-5.541,-63.949,-61.934,-73.655,-58.85,-59.354,-41.504,-94.008,-92.287,-7.416,-76.737,-76.321,-79.101,-74.646,-86.375,-85.111,-81.775,-85.499,-61.747,-101.043,-135.09,4
-43.39,-64.634,-159.179,11.557,-20.433,-38.295,-19.423,-18.454,10.858,-41.343,-41.379,-54.114,-37.274,-35.728,-19.434,-72.909,-76.314,14.108,-51.045,-52.679,-60.066,-58.69,-74.506,-70.681,-67.861,-71.581,-48.877,-89.671,-115.487,4
-48.982,-67.131,-180.025,12.058,-20.925,-37.232,-4.035,-23.047,5.212,-38.74,-40.826,-53.035,-38.774,-43.889,-21.976,-73.348,-81.873,2.823,-59.191,-59.798,-62.568,-65.803,-80.067,-80.857,-78.552,-79.706,-52.414,-97.778,-130.741,4
-54.056,-69.626,-192.652,6.923,-28.589,-44.879,-12.74,-31.733,-2.99,-50.997,-53.592,-64.765,-50.006,-53.579,-39.372,-84.546,-90.5,-6.913,-68.865,-64.349,-68.14,-73.422,-85.11,-89.485,-86.67,-86.799,-57.485,-97.168,-147.516,4
-36.583,-55.724,-164.283,3.842,-23.437,-36.125,-21.436,-16.844,12.894,-39.675,-39.707,-54.454,-35.612,-31.497,-25.501,-71.141,-71.967,20.758,-48.304,-44.817,-53.215,-54.393,-73.241,-70.953,-66.091,-65.195,-43.083,-77.091,-114.581,4
-20.153,-38.762,-151.311,11.01,-11.631,-19.183,-3.484,0.591,31.324,-19.143,-17.125,-32.883,-15.084,-10.973,-4.983,-49.553,-55.501,38.668,-29.301,-28.379,-38.818,-37.433,-60.873,-55.0,-41.434,-47.712,-30.232,-66.768,-81.679,4
-24.231,-37.699,-166.529,21.246,-4.959,-19.163,10.864,-5.557,24.633,-25.272,-24.281,-34.899,-17.118,-15.573,-8.564,-51.553,-63.13,21.211,-36.956,-33.473,-45.439,-46.105,-63.886,-65.191,-47.54,-56.373,-37.887,-71.824,-105.675,4
-46.748,-59.69,-177.633,6.88,-17.762,-43.735,-13.225,-29.118,0.018,-50.862,-48.847,-60.992,-39.13,-38.611,-22.9,-75.067,-79.973,1.722,-59.461,-53.932,-64.861,-63.989,-79.703,-83.057,-78.744,-74.76,-52.706,-88.659,-137.845,4
-56.435,-71.926,-183.091,-13.107,-27.478,-54.45,-34.217,-36.261,-9.204,-56.959,-53.921,-71.177,-48.312,-53.429,-24.926,-82.165,-86.553,0.696,-66.061,-63.1,-69.407,-64.437,-83.722,-83.486,-88.399,-78.784,-54.702,-97.791,-144.367,4
-29.739,-48.288,-175.223,3.812,-5.421,-24.681,-6.518,-11.122,13.859,-30.262,-31.326,-49.077,-25.21,-35.957,-9.02,-59.029,-72.634,11.454,-49.601,-44.081,-51.407,-49.004,-68.782,-66.497,-62.183,-59.749,-40.303,-75.152,-112.972,4
-15.877,-33.382,-159.679,25.325,4.318,-5.701,21.666,3.746,29.214,-15.374,-17.462,-39.806,-11.353,-22.601,-3.888,-51.285,-63.34,15.028,-49.552,-38.402,-48.281,-53.053,-67.176,-63.868,-50.85,-54.054,-35.652,-60.22,-99.027,4
-43.526,-57.94,-169.765,11.98,-20.789,-28.237,-2.435,-17.262,12.279,-35.339,-35.888,-62.82,-30.809,-43.071,-20.278,-76.849,-79.67,4.255,-68.97,-61.417,-66.676,-69.394,-80.941,-82.76,-69.754,-76.542,-54.059,-85.775,-124.543,4
-52.191,-69.665,-182.403,-1.352,-28.453,-42.554,-30.097,-26.466,4.582,-46.574,-49.172,-69.929,-34.877,-47.126,-20.77,-82.408,-84.201,3.226,-64.802,-62.38,-64.56,-61.64,-77.786,-84.214,-69.172,-77.49,-59.128,-100.034,-132.103,4
-38.819,-59.349,-169.925,1.211,-17.666,-34.826,-22.894,-13.12,13.287,-38.331,-39.389,-59.613,-22.546,-25.562,-9.99,-65.419,-68.236,12.956,-48.344,-44.387,-51.688,-52.357,-69.512,-69.273,-54.246,-62.043,-46.774,-86.614,-113.528,4
-52.1,-71.073,-170.268,-2.889,-24.309,-41.964,-18.773,-21.304,4.052,-45.977,-41.911,-68.775,-33.795,-31.172,-26.374,-74.063,-74.315,5.259,-57.005,-52.027,-63.42,-66.137,-79.688,-77.401,-66.999,-77.35,-54.924,-91.138,-128.272,4
-53.585,-76.125,-182.393,0.188,-22.747,-43.971,-10.045,-32.553,-1.587,-48.493,-46.992,-72.805,-37.347,-42.412,-38.131,-80.137,-81.413,1.155,-57.972,-52.488,-62.844,-62.485,-78.584,-83.471,-75.642,-81.884,-61.017,-97.195,-147.099,4
-20.744,-45.823,-160.181,17.606,-0.183,-20.873,22.753,-11.516,19.931,-21.804,-23.891,-46.604,-10.67,-20.34,-22.211,-50.855,-60.839,22.671,-29.737,-20.16,-32.555,-34.245,-57.501,-55.723,-46.877,-49.014,-34.828,-72.507,-114.164,4
-13.551,-36.043,-142.09,21.687,5.965,-13.68,25.291,-0.746,22.985,-16.147,-13.621,-36.312,-8.61,-13.66,-28.337,-40.046,-56.168,27.259,-25.097,-12.967,-29.448,-31.649,-54.369,-42.859,-37.096,-38.719,-23.01,-61.676,-83.824,4
-37.616,-62.135,-162.953,10.395,-9.41,-32.622,-7.009,-19.188,4.007,-37.648,-34.612,-56.768,-30.63,-38.237,-60.584,-64.084,-78.141,3.666,-50.687,-37.545,-55.547,-55.696,-74.295,-70.481,-66.261,-64.808,-48.09,-86.717,-102.183,4
-38.603,-68.732,-169.962,6.286,-10.938,-35.151,-10.588,-19.169,9.126,-36.073,-36.115,-60.297,-24.452,-37.686,-73.843,-66.581,-76.014,1.1,-54.222,-38.02,-57.54,-60.251,-79.344,-81.169,-72.342,-71.915,-56.751,-94.827,-123.085,4
-23.707,-52.27,-154.423,10.89,4.442,-19.234,17.599,-3.268,24.486,-18.106,-19.172,-46.405,-6.497,-18.693,-61.986,-50.633,-59.031,18.005,-39.824,-23.125,-42.626,-45.334,-66.457,-61.62,-47.679,-56.474,-39.276,-72.191,-121.938,4
-27.27,-51.705,-164.515,12.416,4.95,-20.752,3.237,-7.876,13.19,-24.748,-27.862,-50.969,-15.712,-25.335,-55.777,-58.267,-68.194,11.84,-45.419,-30.274,-48.219,-44.264,-64.853,-58.997,-43.533,-52.319,-35.65,-68.02,-122.84,4
-41.075,-64.974,-181.256,8.818,-12.986,-36.1,-22.382,-20.676,-1.68,-43.167,-44.228,-68.336,-31.578,-40.166,-67.504,-77.164,-82.983,-8.152,-60.743,-45.613,-63.027,-61.126,-78.621,-73.795,-60.908,-65.075,-51.496,-91.006,-124.767,4
-45.644,-67.982,-170.829,7.784,-19.633,-42.724,-1.867,-27.827,-1.166,-46.71,-42.135,-72.366,-33.595,-39.614,-76.658,-79.137,-80.338,-7.632,-64.268,-49.666,-65.014,-70.286,-83.665,-77.82,-65.97,-76.793,-60.154,-98.087,-122.593,4
-43.55,-65.353,-163.486,8.801,-14.49,-39.608,23.75,-32.41,-0.652,-44.614,-42.605,-69.22,-33.562,-39.062,-67.872,-74.959,-78.208,2.11,-60.106,-46.542,-62.387,-63.044,-75.897,-77.23,-59.756,-72.105,-54.971,-82.62,-126.569,4
-46.068,-67.337,-169.982,3.157,-18.574,-39.568,5.283,-28.792,-4.75,-48.155,-49.735,-71.2,-36.602,-43.633,-58.583,-77.958,-81.716,-1.991,-56.972,-45.984,-62.325,-57.345,-74.284,-78.689,-58.672,-64.348,-50.305,-79.464,-127.467,4
-41.411,-62.146,-171.861,6.227,-17.531,-36.455,-13.165,-19.541,-0.647,-44.009,-42.0,-67.543,-31.955,-39.491,-54.938,-73.269,-73.95,-2.501,-50.255,-43.376,-54.578,-55.239,-73.698,-71.438,-61.175,-63.26,-48.718,-85.02,-114.531,4
-21.389,-44.153,-163.493,29.787,-1.632,-19.0,17.074,-10.3,13.699,-23.985,-22.491,-50.569,-15.529,-25.107,-40.538,-55.777,-60.556,21.068,-38.421,-29.5,-43.252,-45.45,-64.402,-61.121,-51.38,-54.999,-39.96,-72.639,-103.658,4
-17.269,-39.499,-150.009,36.418,4.005,-11.808,37.55,-5.167,17.271,-15.764,-18.37,-44.371,-7.829,-16.373,-28.203,-48.549,-59.983,31.293,-36.846,-25.372,-46.283,-43.355,-62.801,-62.597,-40.57,-50.334,-35.822,-63.857,-102.53,4
-45.429,-66.099,-154.982,5.643,-15.466,-34.85,5.237,-20.531,-3.239,-35.216,-40.381,-62.77,-25.752,-28.652,-38.933,-71.042,-73.756,5.646,-56.277,-50.45,-65.192,-62.779,-76.57,-78.928,-57.435,-71.288,-53.204,-89.921,-113.698,4
-66.901,-89.599,-184.029,-16.392,-34.919,-54.283,-27.044,-39.978,-20.142,-52.599,-60.833,-80.125,-43.657,-49.116,-51.702,-92.488,-85.465,-8.192,-71.59,-69.867,-79.984,-78.598,-87.765,-93.193,-81.456,-88.635,-70.057,-114.422,-141.762,4
-59.149,-78.239,-192.554,-3.056,-31.297,-42.958,5.771,-30.717,-6.801,-45.374,-54.624,-71.848,-35.416,-43.943,-46.527,-84.711,-80.256,8.21,-64.858,-59.551,-75.293,-70.835,-86.652,-90.539,-75.74,-77.788,-63.327,-98.426,-156.989,4
-43.208,-60.23,-171.357,15.903,-15.385,-26.521,38.553,-11.731,10.112,-31.496,-38.176,-56.407,-21.036,-22.895,-31.111,-71.306,-67.368,11.788,-55.572,-46.684,-61.385,-60.006,-80.418,-80.202,-60.295,-65.927,-52.505,-77.323,-132.754,4
-40.091,-62.731,-166.575,17.424,-14.345,-28.032,33.903,-14.28,7.028,-30.953,-38.65,-58.4,-24.601,-27.483,-21.858,-74.821,-70.887,-3.593,-58.078,-51.761,-60.299,-60.458,-75.214,-77.048,-62.796,-67.398,-52.453,-86.467,-109.567,4
-49.273,-67.791,-175.63,11.771,-24.576,-36.713,11.328,-24.0,-5.275,-41.168,-48.857,-70.637,-36.872,-47.435,-25.423,-84.48,-86.186,-7.688,-62.118,-59.906,-67.411,-60.91,-74.115,-76.971,-65.807,-67.331,-53.425,-93.041,-116.117,4
-45.125,-56.965,-163.671,14.321,-20.453,-35.139,5.681,-24.488,-7.831,-41.127,-46.759,-67.493,-36.323,-42.777,-23.86,-81.834,-81.489,0.004,-54.884,-51.649,-59.147,-49.066,-72.504,-69.209,-52.421,-55.993,-46.712,-69.382,-116.514,4
-23.051,-42.051,-147.113,23.016,-8.65,-20.76,16.434,-17.804,3.96,-24.692,-30.319,-48.982,-20.917,-23.779,-8.467,-65.358,-63.476,10.251,-37.923,-34.179,-44.231,-37.746,-64.746,-58.894,-39.049,-41.592,-36.419,-51.894,-113.836,4
-27.126,-48.157,-153.114,20.943,-15.814,-22.276,14.368,-12.151,7.03,-25.692,-31.825,-48.421,-19.359,-26.317,-7.434,-62.732,-66.999,12.802,-41.471,-39.268,-53.408,-50.516,-66.731,-64.471,-48.231,-50.26,-40.993,-66.699,-132.165,4
-56.301,-71.163,-170.379,7.09,-30.142,-45.307,0.009,-22.385,-8.347,-49.232,-55.872,-69.889,-39.32,-43.709,-27.407,-83.673,-79.74,2.031,-60.897,-61.77,-73.335,-70.958,-78.447,-80.288,-68.675,-73.775,-58.37,-89.174,-132.545,4
-51.121,-73.141,-173.283,5.034,-24.477,-45.262,16.403,-30.559,-9.875,-48.158,-55.816,-66.233,-39.281,-37.517,-28.404,-82.565,-70.951,3.053,-52.639,-54.024,-67.626,-59.616,-72.733,-75.597,-65.02,-66.017,-54.214,-89.597,-105.26,4
-28.528,-56.161,-161.326,12.713,-10.108,-23.188,36.879,-18.745,8.578,-25.568,-31.169,-42.601,-18.237,-21.086,-14.031,-58.916,-57.56,18.419,-33.631,-29.891,-50.14,-38.552,-63.439,-61.689,-51.123,-43.41,-35.716,-79.261,-110.278,4
-39.771,-59.691,-161.165,8.602,-14.196,-28.8,10.202,-17.702,3.958,-31.178,-33.7,-47.681,-21.805,-33.36,-24.263,-65.518,-66.724,16.352,-48.455,-39.595,-57.262,-50.809,-75.671,-74.947,-61.318,-57.711,-44.39,-83.792,-134.758,4
-49.977,-71.927,-173.812,6.544,-24.94,-43.628,-7.226,-31.004,-9.878,-43.442,-48.011,-58.904,-33.054,-48.696,-36.022,-81.846,-75.879,6.089,-59.165,-53.9,-67.963,-65.102,-79.182,-84.094,-65.868,-70.973,-55.616,-88.319,-130.013,4
-36.095,-62.634,-173.126,20.882,-21.329,-29.752,19.421,-21.752,1.403,-28.03,-36.179,-42.964,-18.164,-28.155,-19.08,-65.882,-66.581,15.305,-39.638,-38.989,-56.112,-47.107,-62.196,-61.98,-43.26,-48.361,-39.679,-71.325,-125.272,4
-40.157,-58.472,-169.879,23.423,-18.234,-24.599,22.475,-9.947,4.475,-25.953,-30.508,-39.847,-14.047,-14.807,-8.814,-59.157,-61.392,19.9,-38.574,-36.901,-54.007,-41.424,-64.183,-58.844,-40.655,-44.726,-37.59,-65.618,-144.102,4
-58.048,-76.345,-177.906,4.957,-27.437,-44.555,-1.113,-24.794,-14.485,-46.419,-49.945,-60.3,-35.55,-40.408,-22.638,-80.102,-74.138,2.462,-59.54,-56.332,-71.884,-65.973,-85.124,-84.913,-66.742,-70.297,-58.045,-89.631,-143.446,4
-52.354,-75.244,-167.482,5.464,-28.435,-42.461,5.035,-27.843,-11.909,-43.811,-51.944,-58.19,-36.539,-48.564,-20.054,-81.047,-76.113,-0.102,-56.406,-53.202,-70.275,-67.444,-80.94,-84.316,-71.799,-70.739,-54.401,-97.738,-117.175,4
-35.908,-53.652,-146.309,24.926,-14.062,-20.901,18.863,-5.786,3.473,-24.299,-32.937,-37.127,-19.084,-20.339,2.508,-58.424,-58.106,20.903,-35.858,-32.656,-52.786,-40.225,-59.855,-60.153,-53.796,-48.126,-35.391,-80.735,-109.373,4
-33.823,-54.11,-157.946,20.29,-11.998,-21.393,11.672,-6.805,-0.629,-24.787,-30.343,-35.041,-19.065,-12.121,1.481,-54.779,-51.388,29.591,-31.211,-31.086,-53.758,-35.061,-58.258,-61.118,-49.644,-43.98,-36.892,-77.068,-128.731,4
-44.548,-71.987,-183.916,-0.222,-27.355,-37.765,10.635,-27.29,-11.899,-38.083,-46.194,-48.326,-28.78,-32.602,-20.55,-71.118,-68.243,15.217,-41.426,-42.838,-63.95,-50.908,-69.983,-72.84,-60.865,-53.67,-47.614,-87.237,-138.336,4
-49.114,-73.452,-181.683,-0.222,-31.939,-44.9,15.235,-30.849,-15.474,-46.754,-53.32,-57.499,-35.923,-41.278,-23.091,-78.732,-79.445,2.906,-45.483,-48.431,-63.887,-50.857,-70.425,-66.619,-61.829,-53.616,-46.029,-88.174,-130.001,4
-42.917,-64.669,-171.255,6.951,-23.71,-43.318,8.048,-27.745,-19.557,-49.781,-49.168,-57.442,-42.035,-36.626,-10.26,-77.116,-74.243,4.44,-40.827,-48.895,-63.31,-44.658,-64.719,-62.454,-51.521,-46.902,-41.373,-82.963,-137.556,4
-40.313,-63.58,-174.67,5.407,-22.149,-37.127,4.966,-30.278,-16.976,-44.096,-45.533,-51.749,-36.87,-33.516,-10.25,-78.576,-69.558,12.12,-40.273,-47.821,-64.784,-49.737,-66.704,-69.564,-48.908,-46.855,-43.381,-77.757,-150.226,4
-41.809,-63.004,-172.446,12.061,-23.664,-27.868,10.596,-23.076,-3.639,-32.781,-40.877,-44.525,-23.513,-25.798,-13.826,-74.399,-64.877,22.867,-42.795,-45.724,-61.133,-48.662,-70.223,-70.007,-53.982,-50.907,-42.313,-77.167,-123.948,4
-36.644,-58.33,-165.101,19.734,-21.591,-24.254,3.926,-16.393,2.0,-28.137,-34.176,-38.845,-17.854,-14.501,-8.689,-64.591,-55.079,28.479,-35.067,-43.117,-57.486,-39.392,-66.567,-66.863,-53.416,-48.807,-37.147,-79.651,-97.184,4
-36.608,-59.809,-176.207,5.882,-23.619,-28.841,-16.058,-25.598,-6.711,-34.257,-35.678,-38.294,-21.422,-16.023,-10.217,-67.6,-53.999,23.84,-31.446,-40.512,-61.014,-38.84,-62.914,-72.431,-52.338,-50.295,-41.208,-79.571,-123.727,4
-46.817,-69.483,-185.765,-8.469,-30.255,-34.96,-22.702,-33.257,-14.389,-42.42,-42.303,-45.94,-29.086,-30.352,-20.453,-75.217,-63.679,19.718,-39.612,-42.009,-65.052,-45.462,-67.974,-77.482,-63.044,-57.929,-47.827,-86.664,-149.218,4
-47.795,-73.512,-174.308,-2.312,-31.762,-36.462,3.961,-29.125,-7.202,-41.865,-41.236,-48.456,-29.569,-33.908,-19.408,-70.531,-67.714,19.698,-39.572,-44.528,-63.962,-47.978,-71.492,-74.843,-70.153,-58.896,-44.193,-99.385,-136.262,4
-36.989,-62.68,-163.375,12.547,-21.996,-28.74,31.621,-21.924,5.101,-31.577,-31.461,-36.112,-16.219,-19.529,-4.532,-62.264,-58.424,22.752,-27.237,-38.848,-57.751,-43.319,-63.224,-66.571,-55.226,-48.591,-34.928,-85.454,-136.638,4
-30.292,-50.834,-164.236,21.756,-11.728,-19.49,15.196,-10.631,7.145,-20.787,-24.257,-25.829,-6.981,-11.313,4.694,-56.566,-48.632,28.365,-21.574,-30.1,-52.57,-37.128,-54.964,-55.234,-36.215,-39.321,-30.282,-55.142,-147.259,4
-35.385,-55.394,-170.732,18.66,-19.913,-23.057,-11.459,-8.059,-3.109,-26.914,-29.868,-37.587,-16.708,-22.06,-3.507,-59.071,-58.317,21.676,-30.774,-35.706,-58.153,-40.677,-62.593,-60.814,-39.253,-42.355,-33.838,-62.771,-132.255,4
-51.743,-72.757,-184.906,3.272,-38.849,-37.891,5.458,-28.543,-15.401,-45.33,-45.207,-58.554,-31.549,-39.969,-18.873,-78.992,-80.801,1.675,-44.064,-54.625,-73.464,-53.956,-75.851,-81.245,-53.046,-59.219,-47.636,-92.422,-128.537,4
-61.425,-83.955,-192.406,-6.977,-43.933,-47.587,27.994,-45.933,-19.484,-51.944,-54.896,-64.643,-35.615,-49.15,-31.149,-95.307,-84.818,-2.426,-49.655,-63.28,-80.562,-61.587,-76.8,-84.75,-60.678,-71.968,-54.761,-93.867,-140.704,4
-53.167,-78.236,-178.893,-0.823,-36.717,-42.928,13.109,-36.153,-15.366,-45.745,-50.23,-59.967,-33.018,-44.49,-35.217,-89.064,-74.487,6.286,-46.019,-55.02,-72.797,-56.915,-71.6,-73.907,-66.252,-67.797,-50.095,-85.576,-122.632,4
-45.429,-66.375,-164.37,10.449,-33.094,-33.664,3.362,-25.359,-13.301,-42.113,-42.496,-56.834,-30.936,-30.613,-23.911,-80.265,-71.339,6.28,-43.412,-46.768,-66.577,-49.173,-71.016,-72.809,-66.698,-59.533,-48.508,-90.614,-104.579,4
-44.359,-63.747,-163.181,13.512,-31.012,-30.556,18.728,-30.969,-11.751,-36.948,-37.33,-50.629,-27.319,-24.948,-10.055,-77.624,-67.681,12.421,-40.807,-43.135,-65.998,-44.513,-69.92,-71.711,-56.898,-55.375,-48.46,-81.302,-123.942,4
-39.192,-68.294,-170.702,9.913,-27.907,-32.063,13.586,-32.987,-5.592,-33.325,-35.756,-45.455,-21.144,-29.533,-13.631,-74.985,-60.441,24.192,-33.593,-39.506,-62.346,-43.956,-68.826,-66.004,-56.329,-53.27,-42.776,-65.339,-139.699,4
-36.591,-67.713,-182.315,10.415,-29.928,-32.543,-10.506,-23.732,-2.512,-36.877,-38.281,-50.533,-20.61,-29.504,-23.351,-76.959,-66.529,15.971,-34.585,-40.491,-62.796,-42.888,-69.781,-67.475,-63.957,-54.754,-43.245,-70.396,-131.875,4
-38.603,-60.473,-175.472,17.577,-30.923,-30.974,-8.958,-20.635,-6.096,-36.328,-39.268,-53.044,-22.639,-25.888,-24.352,-81.493,-72.61,6.733,-41.722,-42.499,-65.807,-41.82,-66.126,-69.969,-56.721,-56.236,-48.838,-81.085,-120.985,4
-37.54,-61.949,-153.78,13.973,-26.793,-27.869,4.883,-25.225,-5.065,-31.681,-33.593,-48.38,-20.567,-28.936,-26.889,-79.362,-65.877,11.337,-42.193,-41.945,-66.253,-45.365,-66.059,-70.411,-45.393,-54.13,-47.764,-83.565,-111.642,4
-40.064,-73.671,-160.799,-3.459,-28.816,-30.402,-6.393,-29.81,-5.06,-36.26,-36.121,-51.406,-19.522,-32.493,-27.375,-82.356,-66.836,7.228,-43.688,-44.464,-70.285,-53.516,-77.776,-79.05,-58.668,-59.199,-49.766,-90.654,-121.265,4
-48.733,-80.257,-186.765,-10.116,-34.422,-39.593,-31.489,-36.953,-15.301,-41.347,-45.307,-60.576,-26.163,-36.047,-22.224,-92.008,-77.015,-0.977,-51.328,-53.641,-75.338,-59.61,-82.822,-87.168,-80.126,-68.362,-56.888,-97.735,-147.271,4
-47.148,-75.054,-181.968,-1.909,-29.265,-43.652,-26.335,-40.502,-19.897,-41.818,-45.774,-63.589,-30.235,-38.572,-25.276,-94.477,-76.938,3.123,-48.716,-59.735,-73.214,-56.477,-74.03,-84.007,-80.046,-66.244,-55.294,-95.076,-150.71,4
-35.318,-65.757,-164.88,5.266,-25.65,-36.436,5.455,-32.265,-11.68,-39.727,-38.555,-59.939,-25.082,-34.948,-28.325,-88.235,-70.201,7.73,-37.908,-57.626,-67.505,-45.662,-69.345,-77.263,-64.084,-55.419,-46.53,-82.173,-133.653,4
-29.647,-61.593,-171.375,9.871,-31.772,-31.277,11.085,-27.622,-11.156,-35.077,-35.443,-57.318,-21.47,-33.376,-19.075,-87.122,-71.668,6.186,-35.309,-55.52,-62.827,-44.079,-71.325,-76.161,-59.409,-50.241,-45.459,-72.357,-126.859,4
-38.326,-67.167,-175.302,8.324,-34.301,-36.881,-19.665,-36.816,-23.44,-39.652,-42.068,-63.408,-31.183,-44.101,-24.691,-94.72,-77.232,2.593,-40.909,-60.075,-64.301,-52.232,-73.303,-78.647,-70.108,-55.314,-52.073,-82.019,-123.146,4
-48.534,-71.71,-160.27,-0.905,-31.705,-42.479,-33.99,-40.365,-31.101,-54.469,-52.272,-75.64,-42.422,-52.254,-45.671,-100.773,-80.741,0.542,-43.43,-61.552,-72.434,-54.741,-75.791,-77.543,-76.698,-61.918,-54.07,-91.671,-115.339,4
-40.801,-64.978,-149.351,8.317,-28.6,-39.363,-12.439,-31.103,-22.873,-53.39,-48.121,-73.003,-35.208,-43.492,-49.211,-95.549,-75.537,5.152,-40.312,-53.805,-70.312,-47.514,-70.592,-70.806,-63.814,-56.733,-48.893,-76.722,-111.125,4
-24.366,-54.155,-153.812,28.289,-17.301,-30.615,10.627,-21.85,-9.018,-34.894,-32.704,-56.024,-19.803,-28.592,-65.556,-87.769,-65.215,10.27,-33.612,-40.432,-59.995,-40.807,-60.275,-63.05,-47.356,-47.967,-43.209,-61.788,-111.014,4
-23.83,-53.076,-160.831,23.137,-9.599,-27.51,11.129,-20.804,-7.472,-31.785,-28.572,-56.48,-18.759,-24.977,-97.766,-88.706,-66.687,7.698,-32.554,-31.682,-61.472,-41.791,-60.215,-63.5,-49.87,-50.481,-44.19,-66.85,-117.563,4
-35.589,-66.855,-163.744,2.11,-21.884,-36.192,-8.35,-30.005,-19.248,-45.073,-37.253,-71.793,-28.986,-34.686,-119.697,-98.863,-78.403,4.616,-43.28,-39.847,-72.682,-53.02,-71.938,-76.756,-63.141,-62.214,-52.343,-76.004,-125.13,4
