Cz,Fz,Fp1,F3,C1,C3,T7,C5,CP5,CP3,CP1,P1,P3,O1,CPz,Pz,Oz,O2,P4,P2,CP2,CP4,CP6,C6,T8,C4,C2,F4,Fp2,Label
3.799,-12.309,-128.342,-2.651,2.545,15.666,553.754,167.556,21.686,20.327,3.423,1.014,-2.198,9.099,-10.827,-1.413,23.064,11.185,15.477,0.8,-116.402,-2.439,-10.388,-0.092,49.255,-4.135,1.017,-39.401,-141.896,1
8.918,-5.124,-132.312,-7.772,8.178,24.36,573.692,174.048,24.226,18.77,7.518,3.062,-3.732,-4.743,-5.694,0.126,18.43,11.174,14.437,3.361,-112.187,-2.949,-8.328,-10.85,81.993,-0.544,6.139,-40.386,-138.68,1
-6.46,-27.148,-134.229,-39.527,-14.884,-7.94,605.906,141.599,-2.95,-6.864,-12.982,-10.773,-18.586,-18.57,-25.156,-16.781,3.555,-1.645,-10.68,-14.573,-127.444,-26,-31.373,-27.745,54.246,-18.987,-10.261,-64.424,-149.3,1
-1.33,-28.658,-126.923,-33.852,-13.845,-8.957,590.443,139.92,3.2,-0.71,-11.432,-8.201,-17.03,-1.646,-24.618,-15.739,8.674,2.967,-4.01,-9.436,-125.78,-18.802,-28.781,-19.009,21.917,-15.382,-7.689,-57.187,-143.003,1
17.626,-10.186,-124.747,-1.031,9.223,23.84,557.577,172.568,31.374,23.882,8.559,8.201,0.918,10.651,-5.126,0.67,19.937,15.772,15.462,8.505,-110.285,0.685,-5.698,-5.157,47.51,4.614,8.712,-41.761,-129.54,1
10.436,-14.274,-136.917,-6.153,1.017,19.205,586.734,171.371,23.146,16.173,4.965,3.07,1.941,-1.655,-12.805,-4.454,10.695,3.461,4.688,-1.75,-115.81,-7.001,-12.865,-11.3,49.512,-0.514,2.556,-54.015,-137.095,1
-4.943,-29.117,-151.125,-30.737,-17.94,-2.331,600.492,139.436,3.143,-2.798,-12.459,-12.815,-16.504,-14.973,-30.723,-18.794,-1.611,-12.936,-7.612,-16.093,-128.502,-20.826,-30.27,-25.633,22.822,-16.907,-10.767,-65.744,-162.574,1
5.82,-20.891,-141.24,-15.85,0.009,14.065,567.616,161.838,16.972,7.45,-5.274,-5.63,-14.95,-9.835,-18.909,-10.578,5.563,-2.165,4.179,-3.781,-120.689,-12.608,-20.506,-23.558,45.853,-9.718,-1.022,-60.555,-161.386,1
20.671,-7.038,-121.119,8.245,16.403,32.494,578.319,190.878,33.349,26.911,13.174,9.233,4.02,2.983,-2.497,3.265,15.803,11.157,13.908,4.932,-112.884,-1.325,-8.702,-11.752,66.812,-0.487,9.225,-58.445,-132.024,1
10.404,-17.789,-128.17,-4.571,-0.007,14.531,610.528,158.412,17.434,17.15,5.476,1.539,-3.156,-3.168,-13.765,-2.886,7.078,1.924,2.624,-5.32,-122.505,-8.496,-18.428,-13.789,34.47,-10.733,-2.055,-65.047,-134.453,1
-2.414,-29.554,-142.899,-22.497,-8.204,-8.025,642.705,125.978,-3.076,-4.384,-12.46,-9.733,-21.596,-20.583,-26.559,-13.642,-5.736,-9.861,-9.674,-10.95,-133.653,-21.295,-29.168,-25.046,14.456,-19.943,-12.299,-70.105,-161.983,1
4.761,-15.18,-128.923,-9.155,6.661,4.279,609.787,151.98,8.198,4.842,-0.664,0.523,-9.791,-8.267,-12.188,-3.894,5.54,3.982,4.68,0.332,-126.859,-13.589,-20.429,-20.922,46.204,-11.727,-2.553,-61.838,-150.55,1
14.49,0.204,-111.376,7.76,16.9,32.451,576.902,184.615,31.756,29.94,20.341,13.842,9.686,17.869,5.755,13.016,26.539,23.958,25.168,14.164,-115.974,5.38,-2.478,-5.02,70.236,2.118,10.77,-44.87,-127.346,1
8.328,-10.555,-118.437,-5.567,7.662,26.783,587.596,174.185,25.576,23.25,10.587,6.656,1.992,7.092,-4.497,5.318,18.828,14.712,13.872,7.49,-124.567,-1.286,-7.086,-2.453,63.506,-1.471,4.611,-49.436,-143.613,1
3.197,-25.913,-131.126,-21.443,-4.641,0.629,619.796,141.735,6.595,0.685,-7.354,-6.158,-11.843,-16.481,-19.861,-12.105,-0.658,-7.844,-5.61,-8.911,-136.226,-20.752,-26.035,-18.333,44.487,-19.912,-7.689,-72.952,-149.617,1
13.952,-17.69,-123.31,-0.417,4.073,10.874,638.132,152.864,21.446,11.443,4.436,1.02,-3.121,-8.268,-8.058,-4.921,7.027,-3.738,5.666,-1.73,-123.794,-13.559,-20.373,-20.363,43.418,-17.331,-1.021,-69.806,-119.753,1
18.549,-6.402,-108.843,19.051,16.876,35.454,605.218,185.499,38.33,30.387,17.239,9.728,5.591,-0.062,3.22,6.867,16.754,9.074,13.345,10.567,-115.473,-1.762,-11.131,-8.048,63.355,-2.457,7.689,-52.317,-115.023,1
3.161,-19.203,-121.029,-7.608,0.978,12.365,637.401,158.673,14.214,10.377,-1.733,-2.064,-12.345,-15.432,-13.177,-9.021,0.855,-2.206,-7.16,-6.35,-135.338,-20.204,-32.637,-15.212,46.385,-18.336,-5.638,-67.122,-144.621,1
-5.551,-36.09,-144.474,-29.63,-14.392,-13.775,669.551,126.239,-4.756,-10.126,-18.126,-11.284,-27.19,-23.613,-25.459,-20.283,-6.83,-10.401,-17.399,-17.102,-144.936,-33.503,-41.826,-30.054,14.063,-36.76,-13.83,-80.375,-161.383,1
2.139,-26.833,-137.67,-9.108,-1.57,9.293,636.606,155.827,12.155,9.864,-1.714,-1.539,-13.843,-15.905,-13.65,-6.943,8.546,-0.657,-1.5,-0.691,-129.934,-17.588,-21.804,-18.753,42.226,-22.379,-3.57,-58.777,-156.611,1
6.235,-10.924,-114.478,2.684,7.141,30.8,603.694,188.459,27,29.834,13.657,7.172,-1.021,-4.106,-4.928,1.773,17.247,5.492,8.235,6.482,-123.657,-5.275,-14.098,-4.389,74.972,-9.549,1.045,-45.399,-138.011,1
9.815,-9.376,-111.802,-1.929,7.646,25.646,635.878,182.123,29.022,27.243,11.594,9.214,0.517,7.681,-1.849,2.796,17.229,11.634,7.202,4.939,-122.509,-4.758,-17.157,-1.824,42.621,-8.003,0.531,-51.501,-115.332,1
16.977,-9.879,-118.35,3.196,17.372,24.596,668.03,170.67,30.53,25.166,14.144,12.791,4.102,9.211,4.301,7.916,20.798,20.331,9.244,10.569,-117.775,-0.142,-12.53,6.375,16.451,-0.822,6.166,-51.962,-116.241,1
7.227,-12.431,-119.257,-3.467,11.719,18.936,700.149,154.105,20.253,20.018,14.13,8.167,2.561,1.517,-0.314,3.81,19.753,15.7,8.21,5.435,-124.83,-5.265,-15.591,4.832,49.222,-4.92,5.135,-57.033,-137.642,1
-2.514,-18.566,-127.847,-16.784,-2.125,9.183,667.174,144.73,14.598,13.338,5.407,3.036,-1.54,-0.022,-6.462,-3.366,14.61,6.463,5.128,-0.205,-131.877,-11.92,-21.723,-8.493,64.03,-16.186,-0.505,-61.074,-145.701,1
6.71,-17.523,-133.866,-8.058,4.537,17.883,634.231,168.663,24.317,20.497,3.865,5.595,0.511,-2.583,-1.844,0.223,11.009,3.895,5.635,5.942,-126.622,-5.76,-18.627,-4.898,41.937,-12.071,0.52,-54.353,-138.895,1
6.703,-21.604,-132.708,-9.587,5.557,11.718,666.385,160.81,13.534,12.28,-1.262,-3.632,-10.248,-17.438,-7.99,-6.949,0.24,-7.892,-4.616,-4.31,-133.156,-13.439,-25.781,-4.893,24.476,-16.67,-6.653,-66.082,-141.318,1
-4.062,-27.73,-135.649,-23.409,-3.67,-3.663,698.506,134.522,-0.824,-2.59,-8.946,-10.801,-22.533,-20.494,-16.179,-16.676,-6.42,-16.593,-14.346,-14.039,-139.683,-23.672,-31.391,-14.622,20.866,-24.85,-12.794,-77.287,-150.91,1
10.286,-3.112,-123.218,-3.918,16.314,28.104,665.532,167.175,28.378,27.127,14.117,12.263,0.543,1.556,4.842,4.345,12.541,3.916,5.136,10.566,-119.563,2.48,-10.867,8.446,46.973,0.278,5.15,-44.422,-136.415,1
25.645,20.458,-103.627,19.139,35.253,54.715,666.404,198.258,50.379,51.691,36.645,25.571,23.084,13.85,24.817,21.759,28.41,24.916,24.599,27.974,-108.685,22.457,0.927,33.028,68.955,22.307,18.977,-20.811,-110.663,1
7.177,-7.74,-122.479,-8.032,8.066,22.385,698.525,165.785,18.053,19.363,7.919,0.955,-1.017,-6.144,2.763,-2.853,14.037,7.985,5.107,4.379,-130.093,-4.205,-21.103,6.355,43.783,-1.282,-1.022,-53.066,-126.434,1
-9.737,-35.396,-150.021,-37.226,-18.582,-8.888,680.408,133.344,-9.117,-9.345,-18.729,-15.44,-27.144,-22.532,-22.855,-22.83,-0.834,-13.54,-16.415,-15.605,-142.771,-25.206,-37.476,-20.291,28.882,-26.383,-18.952,-77.091,-158.583,1
6.667,-14.356,-129.891,-16.696,0.391,22.372,647.452,165.998,20.094,19.866,3.831,1.482,-10.723,-7.653,-7.976,-5.901,9.926,0.306,-0.517,-2.269,-128.283,-9.299,-23.606,-0.803,51.395,-12.525,-5.101,-59.083,-141.518,1
28.177,7.687,-101.584,9.961,26.519,48.477,650.903,198.62,45.177,41.363,26.881,18.386,13.879,7.724,18.672,12.035,25.797,21.823,21.512,17.201,-112.274,10.178,-6.676,24.301,59.028,12.591,12.323,-42.118,-112.175,1
25.075,1.532,-109.167,3.291,23.931,39.207,683.04,180.49,32.836,32.612,18.657,15.806,9.254,1.569,14.043,9.462,25.259,17.19,20.979,18.72,-109.6,12.217,-5.645,24.789,49.235,16.164,10.261,-43.1,-123.334,1
9.681,-10.765,-124.94,-11.057,7.513,25.336,686.968,159.305,14.872,23.358,5.831,6.057,-7.662,-4.068,-5.951,0.743,13.963,3.853,10.199,5.382,-117.175,4.008,-12.812,16.567,46.624,2.828,0.517,-53.816,-134.481,1
7.11,-19.464,-129.425,-13.095,1.87,18.138,677.571,147.363,13.321,18.724,3.776,3.489,-9.191,-2.527,-6.97,-2.332,9.338,1.8,6.09,1.278,-121.156,0.418,-13.824,12.964,54.775,-3.835,-3.069,-62.984,-129.224,1
13.762,-18.932,-125.71,-15.132,8.528,22.731,644.619,161.56,24.578,22.291,9.92,8.096,1.577,-3.549,3.283,1.769,14.964,5.384,12.744,11.01,-115.399,8.614,-7.15,15.513,68.04,2.317,1.544,-53.187,-133.705,1
13.236,-11.741,-116.875,-13.579,11.593,32.442,664.979,177.28,33.263,29.954,13.496,9.113,1.063,-2.521,0.718,2.28,16.486,6.916,12.732,10.487,-114.259,8.606,-6.63,18.059,55.164,4.876,2.568,-38.789,-137.67,1
8.612,-15.315,-121.369,-6.394,5.947,26.262,697.101,155.586,28.106,23.776,6.31,3.981,-8.16,0.555,-8.504,-4.382,11.859,4.86,2.473,0.743,-118.244,-2.162,-13.796,13.43,37.178,-2.301,-3.07,-47.972,-137.532,1
11.678,-19.911,-132.518,-3.313,8.502,25.723,664.129,150.307,26.029,22.728,6.816,8.075,-3.541,3.629,-1.835,-1.817,16.458,5.879,6.056,5.353,-109.416,1.427,-13.27,6.757,69.929,-2.811,-3.067,-53.559,-139.444,1
14.74,-12.718,-123.164,-5.872,17.203,42.091,631.189,182.944,34.712,36.537,15.006,13.703,6.709,2.6,8.925,4.845,23.102,10.484,12.198,9.958,-104.184,6.036,-11.72,2.139,76.006,1.29,2.059,-44.796,-130.083,1
4.991,-17.316,-116.893,-18.161,7.452,31.803,663.346,177.638,26.481,27.791,4.233,2.93,-4.056,-10.21,-4.404,-5.918,13.857,4.326,-6.77,-2.347,-117.399,-9.851,-25.54,-5.547,43.655,-9.982,-4.603,-56.022,-126.367,1
-0.649,-28.57,-129.584,-24.803,-6.388,10.767,695.47,145.185,10.573,9.321,-9.604,-5.269,-17.372,-17.372,-20.793,-15.646,5.134,-5.924,-17.009,-10.029,-122.405,-16.502,-33.199,-8.616,26.193,-18.169,-12.796,-71.848,-138.023,1
12.671,-13.684,-128.43,-0.187,6.938,30.736,662.499,163.996,26.956,25.193,5.775,9.08,-3.522,0.576,-4.379,-2.31,14.863,-0.283,5.55,3.813,-105.377,2.47,-15.235,3.176,58.954,-2.781,-2.537,-56.407,-128.151,1
19.831,0.674,-121.129,15.694,23.325,50.173,629.561,196.619,46.397,41.561,19.089,15.731,8.264,7.236,10.995,6.401,18.946,3.816,11.179,12.518,-100.66,6.566,-10.097,4.197,77.851,3.369,3.101,-47.129,-115.728,1
2.905,-21.356,-133.816,-16.597,4.859,18.359,661.719,164.147,21.247,16.417,-2.447,-4.777,-11.212,-17.362,-12.07,-10.511,1.509,-12.582,-15.984,-5.425,-118.491,-18.543,-34.165,-21.935,50.108,-22.762,-13.808,-71.16,-143.277,1
-8.881,-40.29,-143.416,-48.855,-13.077,-6.762,693.845,131.708,-5.414,-4.604,-17.301,-13.481,-25.033,-26.567,-26.402,-20.235,-6.177,-21.279,-22.628,-17.715,-124.52,-26.209,-39.767,-33.696,42.374,-34.522,-22.503,-82.36,-162.089,1
2.399,-21.294,-133.026,-21.142,5.892,19.372,660.876,156.679,15.596,18.454,3.721,5.488,-4.516,-9.634,-3.835,-3.821,11.247,-4.863,-0.576,2.283,-105.44,-3.642,-17.185,-10.096,35.159,-9.385,-5.575,-55.637,-139.385,1
11.618,2.293,-117.524,11.667,24.329,44.456,627.94,189.31,39.147,41.49,21.648,16.241,9.321,-2.452,9.489,8.479,21.482,6.925,9.158,17.137,-93.551,9.17,-7.434,10.407,21.292,10.092,8.263,-28.942,-122.852,1
11.606,5.877,-105.623,11.655,19.694,41.85,660.1,183.998,32.96,38.887,19.577,11.101,4.189,0.624,7.431,8.47,18.899,6.918,9.661,10.973,-93.97,9.161,-8.964,10.909,48.423,11.107,8.767,-21.74,-115.557,1
19.792,8.433,-102.956,9.594,24.797,44.882,692.227,177.666,34.464,40.897,24.68,17.238,12.382,10.87,18.182,16.146,26.053,15.108,21.435,16.597,-83.63,18.373,-2.807,13.971,81.162,16.219,13.369,-19.669,-97.511,1
25.407,9.961,-110.026,14.195,35.531,51.497,659.26,189.784,45.188,48.028,28.754,24.393,17.492,-0.924,20.725,20.741,29.1,18.166,23.463,24.777,-77.399,19.379,-4.341,13.445,88.253,16.203,15.917,-25.797,-102.024,1
11.55,-3.369,-115.551,6.497,21.663,39.15,659.113,176.786,31.31,34.66,13.868,11.561,-0.968,-18.342,4.31,5.863,12.677,1.242,6.021,6.822,-91.666,4.503,-16.12,-3.474,55.889,3.891,4.118,-40.629,-126.513,1
1.804,-13.099,-121.071,-6.318,7.297,25.279,691.241,151.506,13.348,19.769,4.121,2.84,-9.677,-5.003,-2.866,-4.389,6.517,-2.345,-2.182,-2.919,-97.21,-1.137,-20.202,-13.717,28.169,-2.26,-3.57,-45.199,-132.534,1
14.098,-8.988,-125.56,-7.848,12.925,30.377,678.255,161.601,23.581,31.02,12.314,11.547,3.653,8.834,2.772,3.813,18.294,14.051,10.115,10.404,-87.379,6.549,-14.034,-3.97,60.928,4.402,2.069,-34.907,-133.938,1
23.817,-4.88,-115.701,1.894,21.109,42.129,645.301,187.055,40.463,48.92,18.961,19.732,11.334,1.141,7.892,10.469,22.886,15.061,21.376,14.492,-84.217,13.202,-3.262,8.842,77.261,15.156,6.677,-24.626,-136.878,1
13.547,-4.875,-106.876,4.453,22.112,49.26,612.38,194.04,40.423,48.871,17.918,19.712,11.323,-3.471,9.421,9.946,16.203,6.337,15.719,9.867,-84.645,10.627,-2.234,6.784,44.909,15.653,3.597,-26.139,-122.909,1
3.8,-8.969,-120.602,-7.334,16.455,44.087,626.113,182.575,28.087,36.014,11.752,14.057,5.676,-3.468,4.801,4.301,11.576,6.843,1.871,7.295,-87.122,-1.166,-18.113,-8.592,26.933,-1.781,-5.116,-42.506,-120.737,1
10.969,-17.157,-129.702,-11.425,7.729,24.576,658.274,153.191,15.764,26.244,3.543,5.846,-4.576,-6.538,0.186,-1.851,12.589,6.324,2.894,3.702,-90.621,-5.264,-24.755,-15.243,48.935,-7.415,-8.697,-54.247,-135.985,1
20.179,-8.943,-113.179,4.467,11.308,20.452,690.404,143.304,23.945,32.366,11.737,10.963,5.163,4.227,6.845,7.884,22.311,10.416,20.309,13.432,-80.797,11.136,-6.287,0.653,72.453,12.573,3.607,-37.799,-126.115,1
18.11,11.046,-100.77,16.246,25.641,46.047,657.438,175.949,46.975,49.752,29.656,26.322,24.113,14.981,17.597,22.733,33.047,23.213,29.511,28.788,-69.958,21.883,7.039,12.948,90.311,22.806,15.386,-18.293,-113.182,1
17.067,10.523,-104.256,13.156,27.665,60.858,624.505,203.437,50.002,53.8,28.602,24.246,17.941,6.257,16.555,17.075,30.964,23.702,25.895,23.124,-73.474,15.713,1.396,3.201,99.954,13.562,9.736,-22.886,-121.265,1
25.247,-0.246,-99.028,9.044,20.465,47.99,656.668,181.205,36.632,43.5,19.351,12.951,10.239,8.3,9.878,8.861,26.835,21.629,23.308,15.416,-72.376,13.136,-2.703,-2.437,99.342,11.499,3.578,-27.474,-114.484,1
27.271,3.34,-91.757,9.035,21.469,42.306,688.799,167.703,40.693,41.92,24.455,19.086,19.962,24.685,11.918,15.512,35.005,29.292,26.358,23.085,-66.668,18.758,1.91,8.324,78.238,16.098,9.722,-21.811,-107.71,1
21.096,3.337,-104.473,5.44,25.546,48.412,655.835,176.245,47.313,46.489,27.505,26.751,21.479,22.099,18.053,17.034,37.019,22.603,28.893,23.574,-72.237,20.276,1.396,13.438,45.885,16.082,12.274,-27.937,-128.094,1
20.562,-5.376,-121.787,-6.348,22.959,43.24,659.79,164.286,34.97,41.832,20.817,19.552,14.285,8.757,17.011,12.406,23.15,7.211,24.254,16.891,-75.238,16.158,-6.29,5.228,45.839,12.48,7.651,-41.741,-140.261,1
22.079,-8.444,-122.69,-11.977,17.813,32.951,691.918,145.678,26.226,34.105,17.722,14.41,14.783,5.674,11.358,9.32,15.955,10.278,16.545,15.337,-76.188,7.945,-13.456,-9.634,78.58,3.758,3.033,-45.798,-136.023,1
17.446,-11.51,-118.981,-1.207,15.233,31.893,668.172,150.143,32.347,37.145,18.217,18.494,14.769,6.181,10.835,5.724,23.111,15.903,19.602,15.322,-95.067,3.326,-15.492,-14.748,70.817,-0.856,1.493,-42.678,-135.887,1
12.305,-15.597,-119.374,2.893,16.755,35.96,635.229,164.338,37.438,43.768,19.736,21.037,13.729,8.224,11.848,7.255,26.162,10.764,25.218,17.356,-117.001,9.47,-10.866,-2.437,38.471,5.292,3.54,-39.049,-129.091,1
13.83,-12.507,-117.718,-8.381,19.3,41.559,607.441,175.957,37.913,46.798,21.253,18.966,15.252,8.728,13.374,11.859,20.5,6.655,22.631,19.9,-117.396,13.559,-8.293,4.737,47.142,9.386,4.049,-39.01,-125.888,1
20.989,-10.958,-116.063,-3.25,20.817,44.592,639.621,180.391,39.924,45.726,19.695,17.411,12.676,0.01,15.409,8.261,19.967,6.648,20.559,16.806,-103.959,8.423,-9.822,-7.05,79.882,7.327,2.508,-41.02,-134.471,1
21.48,-12.996,-113.386,11.611,21.309,41.473,671.769,168.428,38.347,43.119,17.626,17.905,10.614,-1.527,13.345,7.228,26.095,9.715,19.514,14.74,-97.707,6.877,-9.3,-12.167,78.778,6.295,3.018,-40.979,-127.677,1
12.237,-11.958,-100.465,-0.184,18.726,37.333,639.334,155.964,29.6,38.465,16.583,16.351,10.091,8.721,7.696,9.27,25.044,11.755,13.859,12.164,-100.171,5.333,-11.852,-6.519,54.108,1.678,0.966,-42.988,-114.229,1
9.663,-11.946,-79.36,-7.868,12.56,36.271,606.42,158.882,22.91,33.816,10.419,11.724,4.445,8.2,4.614,0.552,15.798,0.985,9.235,4.467,-100.583,-2.356,-19.012,-9.586,54.567,-2.934,-5.183,-40.896,-103.869,1
15.801,-6.299,-47.005,16.218,15.109,39.309,638.601,168.457,33.133,36.344,8.872,14.786,5.978,4.606,8.196,-0.986,18.343,0.984,13.836,9.073,-88.7,0.72,-13.87,-8.04,69.881,0.655,-4.153,-19.338,-70.977,1
14.761,11.638,-14.17,37.206,24.315,47.979,670.75,175.461,44.371,46.041,20.134,22.455,18.779,14.847,12.286,11.823,30.621,23.012,22.531,23.921,-75.291,13.527,-1.049,6.313,59.565,10.9,4.048,1.174,-38.118,1
11.16,23.409,18.632,41.268,26.34,54.078,637.804,176.822,40.228,49.069,24.724,20.896,19.785,15.857,13.811,11.811,29.565,24.526,27.632,23.385,-69.58,15.562,1.001,12.967,46.186,18.574,8.655,5.784,-10.928,1
20.37,26.972,37.056,52.497,25.801,52.487,665.855,171.01,40.188,45.946,20.089,19.338,16.692,5.083,17.896,6.676,23.9,9.132,29.141,17.214,-67.974,14.522,-0.024,9.88,74.829,19.58,10.695,14.487,11.624,1
31.621,37.704,49.314,71.912,34.997,59.607,697.977,176.474,57.054,56.146,29.29,30.077,27.433,13.274,24.538,19.477,33.098,21.931,33.723,26.418,-61.758,23.217,7.66,14.993,102.418,25.708,17.857,28.305,32.105,1
30.052,48.937,54.901,85.16,44.183,77.478,665.004,196.79,64.682,74.021,44.118,37.732,37.14,25.557,30.148,29.704,39.213,38.815,39.325,36.638,-51.962,29.341,11.239,20.613,90.533,36.953,26.036,27.764,35.659,1
25.411,45.814,39.989,77.391,42.09,77.913,632.063,196.593,52.321,72.41,40.488,31.547,31.467,14.26,29.094,23.526,28.415,25.968,37.748,28.917,-52.423,27.263,4.055,12.396,77.122,35.379,26.01,20.052,21.279,1
23.849,30.911,15.87,50.673,35.9,57.855,664.219,174.88,40.998,53.895,28.152,24.343,21.702,5.024,23.942,17.355,23.263,16.209,32.075,20.691,-61.592,22.625,1.49,2.137,65.775,23.561,16.762,12.347,-9.993,1
21.776,23.708,-9.249,38.839,32.278,51.138,696.343,172.143,39.42,46.668,24.538,24.318,16.557,18.852,23.405,17.85,32.462,24.389,34.605,23.232,-59.481,21.578,7.124,6.234,62.123,23.025,14.184,5.675,-38.672,1
17.656,25.734,-33.83,44.436,29.172,55.185,663.371,179.144,37.844,47.646,24.001,23.782,13.979,21.907,23.382,16.808,33.454,24.365,34.57,21.159,-55.323,21.044,5.067,7.252,94.848,24.026,15.707,8.231,-50.929,1
12.515,12.9,-56.338,24.924,20.434,37.711,695.495,159.497,28.585,35.303,14.755,16.073,6.793,5.491,11.575,8.082,21.637,14.094,20.191,6.281,-67.563,7.703,-7.745,-12.223,99.876,7.609,6.47,-0.487,-70.858,1
7.892,-7.605,-83.434,0.308,11.704,22.304,711.194,144.993,27.532,27.583,8.08,13.496,3.712,0.362,4.904,1.926,18.029,13.056,11.974,2.176,-71.594,-4.088,-12.348,-20.92,67.501,-3.158,-3.783,-26.614,-91.28,1
9.421,2.136,-96.158,10.554,18.352,43.799,678.207,168.926,42.873,47.536,21.392,25.778,21.127,10.608,17.194,13.707,29.282,22.776,26.819,17.543,-54.104,11.797,-1.578,3.692,51.552,12.215,3.393,-22.489,-81.967,1
17.096,24.163,-79.668,24.888,33.191,63.735,691.873,185.151,50.003,61.833,36.74,32.412,35.45,14.696,25.886,27.013,31.814,27.877,38.575,26.747,-46.878,27.155,6.109,17.52,84.288,27.06,14.148,7.247,-77.786,1
24.251,25.164,-72.928,27.425,35.719,59.573,702.452,181.38,45.854,54.599,32.093,24.695,25.169,10.071,21.762,21.863,22.049,20.677,33.413,21.085,-49.392,20.98,4.566,2.134,94.962,22.934,14.646,10.826,-95.639,1
28.838,24.114,-87.712,46.865,35.171,65.149,669.474,200.666,53.493,56.593,30.011,26.207,21.045,13.134,25.839,18.767,28.174,22.705,35.429,24.138,-41.658,24.033,6.61,-1.455,125.606,20.35,15.144,-2.505,-89.908,1
19.587,14.356,-104.019,43.232,27.964,60.985,701.593,194.83,48.829,51.926,26.907,25.156,21.024,12.609,19.665,16.699,33.269,26.269,32.32,22.577,-44.69,22.472,1.481,-0.941,142.899,14.694,7.957,-19.92,-89.306,1
-3.999,-17.934,-135.678,10.913,-1.266,28.649,733.679,162.36,16.505,19.599,-1.296,1.565,-7.686,-6.871,-11.093,-4.322,9.158,-0.398,6.672,-4.086,-65.138,-8.289,-21.575,-23.994,110.48,-8.887,-12.031,-51.151,-121.492,1
-2.97,-28.162,-155.522,-5.491,-11.511,17.349,700.67,150.414,10.34,12.407,-11.029,-2.023,-18.437,-13.525,-13.131,-10.465,1.976,-13.205,1.03,-9.205,-62.511,-11.867,-23.602,-25.507,78.095,-11.44,-13.556,-50.076,-140.326,1
20.599,2.605,-127.702,27.302,15.653,50.12,667.694,183.052,38.507,45.182,19.721,24.107,14.369,11.08,15.571,15.161,32.2,18.571,27.669,20.006,-38.37,18.884,-0.013,-0.891,110.804,15.212,6.437,-17.75,-112.521,1
11.357,0.553,-119.377,16.516,15.638,48.533,699.814,176.721,34.37,43.6,20.725,21.009,16.404,18.753,8.383,14.121,35.242,22.651,23.031,14.351,-37.307,9.131,-5.648,-16.771,143.481,8.024,2.332,-31.052,-122.655,1
-9.659,-29.161,-151.533,-15.776,-7.944,19.795,666.838,145.806,13.331,17.429,-5.423,-0.529,-11.277,0.291,-16.216,-12.021,10.104,-6.573,-4.657,-14.865,-52.127,-19.568,-31.258,-45.956,111.062,-23.235,-20.212,-63.297,-154.808,1
4.183,-24.521,-161.116,3.708,2.822,34.12,633.896,175.374,26.638,27.657,0.218,7.156,-1.532,-1.758,-5.953,-6.886,14.192,1.118,2.52,-4.604,-44.903,-7.765,-22.005,-29.004,78.676,-16.039,-17.117,-51.45,-145.431,1
7.253,-13.738,-146.61,17.536,9.479,42.282,666.05,180.834,30.709,33.265,6.878,10.735,6.154,0.293,-0.312,2.343,22.887,12.388,13.788,6.159,-34.099,0.44,-9.175,-16.167,84.745,-3.215,-7.367,-39.616,-135.04,1
-19.395,-29.606,-159.271,-7.072,-14.609,14.063,698.172,148.378,5.576,8.129,-13.622,-9.768,-18.955,-15.589,-20.804,-17.64,7.495,-7.092,-2.107,-13.315,-43.799,-17.491,-24.535,-36.643,110.275,-21.143,-20.679,-59.044,-149.761,1
-18.351,-35.212,-163.21,-8.09,-19.205,8.926,665.198,148.229,1.984,3.51,-18.731,-11.807,-24.059,-19.159,-23.345,-22.233,2.364,-6.061,-7.74,-16.888,-49.391,-16.962,-28.097,-35.07,108.628,-22.659,-25.782,-60.009,-149.099,1
0.111,-29.541,-151.264,2.165,-8.427,15.065,692.198,155.766,6.593,10.166,-11.54,-4.111,-16.863,-7.357,-16.149,-8.891,8.51,6.753,-2.61,-9.186,-44.218,-11.309,-19.872,-22.227,83.417,-8.804,-18.071,-54.314,-136.655,1
-5.012,-33.61,-159.822,-9.108,-10.98,5.828,724.293,139.728,-4.172,-0.602,-15.115,-7.693,-22.481,-5.301,-20.744,-11.443,5.94,0.599,-7.73,-14.812,-42.125,-18.47,-24.975,-34.5,116.121,-18.016,-20.615,-68.092,-133.957,1
-6.544,-24.868,-160.687,-4.489,-1.235,16.581,691.293,152.396,7.615,9.132,-5.878,2.561,-13.237,-0.685,-12.014,-9.383,10.545,6.746,-0.038,-6.601,-34.91,-9.743,-21.876,-35.49,148.792,-19.535,-16.496,-61.364,-133.823,1
3.708,-14.084,-149.255,13.959,11.574,32.446,658.327,170.175,25.026,30.128,6.936,12.804,0.096,3.415,-1.243,2.41,13.095,11.862,10.209,2.627,-28.215,-1.024,-12.121,-15.987,116.368,-5.171,-7.77,-45.421,-142.911,1
-2.443,-24.829,-158.84,10.359,0.291,23.704,625.393,162.32,11.168,19.339,-3.317,-1.041,-9.638,-9.397,-8.927,-5.789,-2.799,-8.642,-0.56,-7.621,-36.384,-13.318,-20.305,-18.533,83.976,-12.338,-17.496,-63.306,-148.403,1
-13.711,-30.439,-169.439,1.127,-7.394,19.582,636.551,162.67,7.571,10.611,-10.486,-4.626,-13.214,-16.047,-11.479,-12.444,-7.919,-12.732,-2.609,-8.126,-39.934,-15.354,-25.921,-33.883,116.68,-24.109,-23.626,-79.125,-133.398,1
-11.648,-24.261,-162.098,-1.436,-2.263,22.636,668.702,160.458,22.933,21.358,-1.254,5.625,-1.93,-5.273,-4.808,-0.136,3.359,2.138,7.64,1.616,-32.722,-7.142,-20.259,-29.239,102.219,-15.376,-15.918,-66.238,-129.166,1
-1.391,-22.188,-154.763,0.103,2.35,21.589,646.516,152.101,18.811,21.849,4.895,4.082,2.682,-1.169,-2.754,3.963,5.917,-0.938,8.145,1.614,-29.615,-3.036,-16.653,-13.328,69.841,-2.553,-10.779,-50.29,-135.697,1
11.419,-9.358,-144.362,15.472,13.618,37.449,613.594,176.027,20.842,29,13.087,10.226,6.266,-1.68,7.495,4.983,6.424,-4.011,17.358,10.322,-19.852,12.336,-5.365,1.03,102.559,10.77,-0.522,-37.432,-125.315,1
8.333,2.435,-140.119,18.018,16.166,44.584,645.768,190.195,34.653,41.266,17.684,17.388,5.747,4.469,12.611,12.151,13.59,4.702,25.025,16.972,-13.684,18.984,1.812,2.054,135.244,16.907,6.139,-31.247,-127.239,1
-11.655,-16.011,-160.984,-5.054,-3.83,18.924,677.91,157.73,15.151,21.757,1.273,0.977,-5.529,4.977,-5.845,1.892,11.015,6.234,6.557,-3.025,-27.503,-1.527,-13.046,-13.83,138.695,-4.627,-11.286,-46.073,-140.431,1
-8.057,-22.655,-165.434,-1.975,-5.875,13.27,644.957,144.252,-2.283,12.002,-3.852,-0.561,-6.548,4.972,-8.913,-5.282,8.442,6.741,5.526,-4.047,-29.012,0.011,-15.083,-10.742,106.281,-10.77,-12.299,-49.1,-114.163,1
17.054,8.619,-135.554,30.815,22.82,46.044,612.037,176.896,25.384,44.777,24.841,27.104,12.414,17.263,16.199,18.802,21.241,18.517,34.722,26.696,-6.954,28.188,7.986,19.495,99.003,21.004,13.841,-21.899,-86.897,1
16.525,17.832,-130.296,35.395,29.457,56.756,644.212,184.916,39.703,53.442,34.55,29.126,20.086,19.295,19.769,28.005,26.343,22.597,33.15,28.718,-6.435,25.086,5.417,22.037,119.396,27.643,12.29,-19.828,-117.036,1
-2.96,-13.949,-158.342,10.768,2.787,25.961,676.356,152.455,11.487,21.113,4.29,5.019,0.598,-0.705,-3.817,1.337,9.923,6.693,4.428,-0.512,-25.383,-3.628,-20.204,-9.748,93.149,-4.66,-13.338,-52.083,-149.194,1
-2.444,-24.181,-162.283,1.536,-5.925,12.615,643.404,148.204,3.278,16.481,-4.936,5.014,-10.161,-9.926,-9.448,-5.325,4.79,-3.048,2.374,-3.073,-19.21,-6.186,-20.184,-13.837,60.78,-13.877,-11.275,-55.105,-134.188,1
13.44,3.507,-135.48,15.879,18.672,41.804,610.485,180.844,31.964,45.154,22.733,23.452,13.415,8.527,11.566,18.759,23.228,15.398,26.45,21.521,5.912,17.898,2.89,14.354,91.97,17.9,11.278,-22.262,-101.266,1
14.963,13.75,-127.66,25.597,27.363,55.082,642.662,184.249,44.74,52.281,32.445,27.527,28.259,24.4,22.312,26.937,32.427,25.629,37.695,28.671,12.566,29.664,10.572,21.512,121.592,31.714,16.389,-17.117,-91.944,1
5.214,-9.83,-149.049,11.227,8.892,29.412,674.807,151.79,24.203,32.249,11.92,15.716,7.226,15.155,10.507,14.103,17.537,7.16,22.8,15.323,-3.328,14.265,-2.246,3.559,99.441,9.653,2.541,-41.691,-117.467,1
9.307,-16.48,-152.999,3.531,6.834,24.772,641.857,159.835,15.47,28.118,7.809,11.09,0.559,7.455,6.398,8.965,10.86,7.153,13.556,10.697,-7.936,3.492,-10.441,-2.592,110.613,-2.139,-4.634,-44.21,-132.207,1
24.155,7.103,-132.354,29.655,25.27,54.973,608.94,192.463,37.996,49.607,28.806,20.812,22.587,20.255,19.712,19.203,25.706,31.224,28.911,22.469,7.442,16.808,0.328,6.632,143.29,15.281,8.691,-24.186,-113.119,1
25.156,16.829,-132.733,49.606,30.368,61.578,641.119,185.098,45.13,57.754,36.974,25.402,25.639,23.309,22.254,25.331,30.291,29.656,37.079,28.082,13.07,24.476,8.012,13.798,110.871,27.049,19.44,-12.379,-102.76,1
20.52,8.616,-146.945,36.748,24.702,47.172,673.265,152.637,28.691,45.913,27.204,20.766,15.367,16.113,15.571,19.67,23.088,19.893,26.796,22.418,4.347,20.353,3.906,20.444,78.485,21.899,14.81,-13.904,-113.928,1
24.598,10.144,-132.966,27.49,23.141,50.711,640.317,160.682,33.273,46.38,26.664,21.258,23.548,27.368,20.166,19.138,31.774,30.631,28.819,21.884,4.343,25.968,4.414,25.034,111.194,22.389,11.209,-20.55,-112.277,1
15.864,7.572,-124.124,21.827,16.458,48.611,607.401,169.23,40.412,46.846,25.613,18.163,23.012,27.34,13.999,20.144,34.816,22.404,29.302,18.276,2.289,19.795,0.311,8.616,143.87,16.732,5.563,-30.775,-112.677,1
-2.083,-8.829,-153.201,1.825,5.683,29.607,591.937,151.13,17.318,27.331,9.193,3.8,-0.064,-2.401,-9.582,4.755,12.752,-7.845,8.781,2.888,-9.496,-1.23,-15.058,-13.422,111.451,-2.241,-7.251,-39.966,-132.032,1
3.555,-11.382,-168.93,-3.812,6.702,27.528,593.394,143.807,7.054,22.181,5.598,4.821,-7.237,-5.985,-5.986,-2.423,6.08,-6.812,2.112,0.324,-8.974,-1.229,-17.092,-9.823,79.064,-0.189,-3.657,-39.414,-134.974,1
11.748,-7.784,-164.15,7.463,10.281,33.648,625.588,145.712,20.88,30.868,15.839,14.037,0.455,9.903,10.926,7.314,14.783,11.125,9.282,7.496,-3.842,6.97,-14.514,-4.178,95.891,8.52,6.592,-43.473,-134.326,1
-1.584,-16.998,-176.281,10.017,5.66,27.979,595.249,147.103,18.297,25.714,8.65,6.339,-3.131,-7.013,-0.868,2.696,4.522,1.38,1.588,0.828,-8.449,-3.283,-21.159,-13.907,93.746,-4.808,-3.66,-55.725,-156.221,1
-1.07,-11.346,-168.42,19.228,7.704,35.636,562.378,168.985,20.84,33.885,9.666,6.845,0.97,-8.543,-4.965,1.156,6.054,-5.281,5.173,4.414,-2.293,2.355,-9.867,-1.086,93.653,-3.779,-4.681,-46.447,-140.696,1
19.423,9.158,-135.464,28.431,23.577,54.043,594.604,186.747,41.312,56.393,31.174,26.306,18.9,24.253,19.118,22.672,29.614,17.266,29.758,23.877,11.029,24.382,10.635,21.969,126.347,20.303,13.254,-20.273,-107.767,1
18.379,4.026,-137.89,10.471,26.115,46.817,626.797,164.019,36.148,47.115,29.093,23.205,19.393,21.155,20.124,21.625,28.048,24.933,29.728,19.755,6.408,21.796,6.013,16.312,154.397,19.259,10.679,-20.253,-113.295,1
1.967,-11.348,-170.028,-0.298,12.769,28.327,602.604,141.826,19.205,29.137,12.67,8.838,7.591,-0.895,2.173,1.623,14.187,5.953,14.329,5.39,0.766,8.454,0.884,11.173,121.967,10.018,-1.627,-32.528,-143.408,1
7.088,-3.139,-179.079,3.801,14.293,31.373,569.726,153.979,26.358,38.329,17.781,15.489,7.583,8.327,7.806,8.281,20.321,2.873,20.463,12.557,7.937,15.618,8.568,22.944,108.525,19.229,7.597,-24.811,-122.772,1
17.327,3.524,-165.58,-11.572,21.964,34.415,577.353,156.387,25.82,37.779,19.3,19.572,7.063,9.343,15.483,15.445,21.325,15.166,25.053,15.618,7.929,19.701,3.949,23.434,131.471,20.235,11.175,-12.491,-105.231,1
7.576,0.446,-172.587,-18.22,13.745,25.159,609.563,132.664,10.937,21.347,11.596,10.843,0.909,0.112,8.807,6.721,21.304,18.736,18.368,8.43,3.311,15.583,1.383,24.947,124.167,16.116,5.016,-7.868,-124.081,1
1.421,10.18,-184.197,4.852,14.756,31.282,628.421,133.044,16.049,30.547,22.855,15.955,7.055,21.629,12.897,15.423,35.627,25.89,29.108,19.693,10.48,26.326,15.726,37.73,137.363,30.444,15.257,-2.224,-127.031,1
16.276,16.317,-185.038,14.581,27.036,45.595,595.518,158.014,29.865,46.398,33.078,25.673,16.782,29.805,23.13,26.166,35.592,30.987,37.276,29.407,15.08,34.496,16.223,34.618,170.013,36.562,22.927,-5.808,-119.219,1
20.871,5.03,-182.291,3.808,20.862,41.963,562.647,163.491,26.762,39.692,23.824,20.524,12.667,3.647,21.058,16.918,21.211,17.636,25.968,18.107,8.405,21.654,3.399,27.924,142.178,25.254,13.17,-17.586,-126.272,1
3.944,0.414,-180.06,-5.93,8.545,34.237,535.956,154.106,19.05,32.48,17.652,15.381,7.019,0.57,13.865,13.828,19.141,9.422,21.844,11.941,5.323,15.485,1.346,36.093,109.761,19.594,7.521,-19.617,-130.757,1
-2.208,-0.098,-187.564,-18.219,10.586,33.178,568.208,148.317,18.007,33.472,18.659,15.365,8.037,19.012,8.215,16.375,21.683,19.146,25.92,15.515,5.83,19.568,3.394,35.032,135.779,14.963,4.952,-21.134,-138.311,1
7.016,-13.931,-199.16,-29.984,8.014,22.898,600.428,131.262,17.476,28.828,16.079,15.35,9.053,18.481,3.084,11.236,23.711,22.713,21.796,14.987,2.238,15.45,2.366,26.288,168.431,7.264,-0.176,-34.946,-152.517,1
5.984,-23.65,-199.473,-40.2,-1.216,12.117,630.566,116.274,11.311,23.163,12.989,14.822,5.97,7.704,1.544,8.663,25.736,17.055,21.774,11.386,-1.351,13.897,1.852,28.823,146.233,9.306,0.849,-45.157,-154.926,1
-6.829,-22.09,-204.397,-50.406,-4.288,14.154,597.66,124.867,4.127,22.628,8.365,10.709,-0.183,5.135,-3.068,6.093,17.001,9.866,20.728,4.715,-4.936,13.883,-3.786,27.257,119.447,7.247,-1.201,-46.649,-157.333,1
-10.409,-22.58,-215.463,-44.208,-4.796,14.652,564.787,130.89,4.123,22.605,5.795,7.624,-0.696,9.74,-6.139,1.476,15.96,10.368,11.485,1.636,-5.955,3.623,-7.88,19.546,131.111,-1.469,-3.761,-46.602,-163.835,1
6.508,-10.262,-200.903,-21.622,3.918,17.199,597.009,127.685,14.878,31.292,18.597,21.961,11.088,26.124,9.236,16.332,37.461,29.313,22.745,18.541,8.908,15.403,4.935,34.895,156.595,15.438,12.636,-31.698,-147.278,1
29.043,17.413,-174.062,-5.207,26.455,40.748,569.772,148.562,29.72,51.241,40.608,39.87,29.52,41.98,35.867,40.906,52.793,49.264,49.874,42.088,28.879,48.175,25.935,65.599,167.197,46.674,32.604,-6.051,-125.101,1
25.94,16.371,-176.962,-10.325,32.577,56.077,536.927,165.832,32.764,59.899,45.69,36.244,32.052,36.302,36.343,39.328,45.055,40.505,48.287,41.534,25.776,47.102,27.446,65.021,152.685,45.09,30.522,-10.656,-130.611,1
6.959,-14.896,-201.376,-28.758,14.101,35.016,569.178,136.977,17.874,43.445,27.714,19.814,14.089,17.823,11.204,16.235,29.129,17.923,24.673,20.488,4.746,16.829,8.975,38.828,127.429,16.868,13.073,-36.773,-146.362,1
9.513,-21.029,-210.908,-30.266,5.378,20.124,601.397,115.835,12.733,31.618,17.952,16.208,4.854,9.096,4.533,9.046,20.39,13.807,20.55,13.295,1.155,15.788,1.794,35.203,121.666,10.704,5.375,-35.199,-156.974,1
20.262,2.558,-195.328,-12.817,16.643,39.572,568.52,147.995,28.602,44.907,28.693,22.34,17.144,10.624,18.361,21.845,24.981,19.941,31.288,25.065,13.449,31.653,15.112,56.173,118.983,25.55,13.054,-16.209,-163.477,1
9.484,6.142,-176.689,-15.366,21.237,52.34,535.676,171.925,31.135,50.497,30.713,19.756,21.226,6.515,13.731,20.286,28.029,16.847,28.695,24.015,12.411,26.499,16.122,58.166,89.663,26.549,17.14,-19.779,-156.142,1
2.814,-7.185,-176,-21.498,13.019,37.43,567.928,155.872,19.321,35.59,15.826,11.539,8.909,-2.201,-0.627,4.385,16.731,6.584,15.346,9.134,-0.409,13.665,2.786,37.615,95.721,12.178,5.34,-34.616,-138.567,1
9.984,-8.202,-182.484,-4.058,5.834,24.073,600.148,138.298,17.252,27.357,8.125,7.429,0.703,-3.223,-0.626,1.306,11.079,-0.595,7.134,4.002,-6.044,5.966,-1.828,25.282,128.413,-0.13,-6.449,-41.241,-132.281,1
-1.809,-10.243,-180.765,-4.054,-1.857,17.901,632.335,124.839,9.55,20.67,3.506,2.299,-5.445,-3.733,-7.286,-0.744,11.58,-1.619,-0.558,-0.1,-10.649,-5.823,-8.486,23.72,149.289,-11.913,-11.053,-48.372,-139.833,1
-17.689,-14.331,-175.461,-21.468,-9.027,16.346,610.698,120.104,-1.73,15.014,-1.108,-1.802,-7.489,-9.364,-19.061,-7.916,5.933,1.457,-4.656,-7.273,-14.737,-8.379,-16.674,26.258,116.864,-12.413,-12.579,-44.738,-143.279,1
-2.815,-2.022,-170.675,-4.029,3.277,34.773,577.812,152.259,17.739,34.979,13.238,9.47,9.425,-2.695,-2.649,7.461,13.099,10.677,9.694,7.079,-2.939,10.585,-0.776,42.113,96.767,9.116,-2.32,-20.615,-132.89,1
17.168,7.202,-161.283,8.271,20.18,49.595,553.156,175.673,38.214,54.412,28.082,22.269,21.711,9.603,16.822,25.897,27.431,15.789,27.102,25.003,10.896,26.456,17.668,60.002,127.409,26.525,11.514,-5.737,-128.146,1
9.466,-3.051,-160.609,-17.353,11.963,33.664,585.39,143.222,22.294,40.013,18.32,17.123,10.93,4.471,6.559,15.113,20.231,8.601,21.952,17.293,5.762,23.868,11.502,57.892,118.572,22.913,7.404,-22.125,-141.851,1
0.748,-9.196,-170.695,-17.848,3.242,25.946,601.199,128.222,16.124,31.263,15.74,11.471,7.333,-4.755,-2.157,8.437,13.551,6.543,11.172,10.616,-1.416,16.672,3.806,44.515,127.675,15.718,0.225,-41.058,-145.807,1
7.919,-9.699,-179.746,-1.948,12.972,40.265,568.322,160.881,32.502,43.527,23.921,15.045,16.035,-5.263,5.018,16.626,22.759,13.709,12.697,17.778,1.659,13.069,1.753,37.298,160.335,12.628,3.811,-42.554,-136.44,1
4.838,-17.886,-192.886,-26.025,9.373,33.564,550.848,157.134,24.273,35.287,11.602,9.395,6.798,-10.893,1.426,6.876,17.613,6.011,9.611,9.563,-2.953,7.421,-2.347,35.724,131.486,7.492,0.221,-36.364,-147.062,1
-6.438,-18.381,-198.841,-36.757,-1.395,17.137,578.474,125.726,6.83,20.907,0.832,-0.348,-4.992,-19.591,-7.797,-4.914,4.788,-9.877,0.38,-3.767,-11.147,1.266,-0.808,36.712,99.079,4.411,-5.927,-34.791,-162.284,1
-4.895,-10.165,-184.297,-9.056,7.316,28.391,565.6,135.847,14.508,30.108,12.102,3.751,1.161,-15.986,-4.715,2.263,12.467,-0.646,-1.158,1.36,-7.55,-0.273,-2.344,35.651,105.64,3.894,-0.798,-41.928,-144.703,1
4.332,-12.204,-181.551,-14.17,12.432,36.047,594.236,150.055,22.178,36.225,16.188,11.431,6.795,-2.137,0.413,7.384,25.263,17.286,2.43,9.044,-0.882,2.289,-6.952,36.128,79.406,5.427,0.227,-51.62,-132.775,1
4.84,-17.828,-202.374,-33.623,5.247,25.252,605.937,142.221,20.106,31.578,11.561,11.932,7.813,5.037,0.925,7.889,24.213,12.145,7.55,8.522,-1.393,8.435,2.788,43.264,70.618,12.594,-1.822,-47.982,-160.307,1
-0.801,-15.248,-199.61,-11.561,6.779,25.739,573.056,145.152,21.111,32.571,12.574,9.359,6.78,-11.362,-2.15,7.881,13.43,-5.797,4.469,2.878,-6.003,8.426,3.298,38.098,103.335,11.557,0.741,-40.762,-177.053,1
-5.411,-17.795,-186.091,-1.303,5.747,26.738,605.27,140.909,14.942,27.928,8.975,5.763,0.113,-28.769,-10.345,0.7,4.707,-10.402,-4.757,-3.272,-9.583,-1.316,-13.099,23.203,117.064,0.275,-4.383,-48.918,-161.507,1
1.255,-20.338,-208.959,-20.257,4.717,28.761,637.453,135.645,20.562,31.999,13.577,10.881,8.31,-10.297,-3.674,6.847,15.973,3.953,8.055,6.465,-3.938,5.345,-2.328,36.499,84.671,8.471,-3.354,-50.406,-158.784,1
15.598,-5.461,-228.217,-9.478,18.032,51.273,604.54,166.248,48.719,55.533,34.056,25.727,32.893,13.279,17.846,27.333,36.45,20.342,33.663,27.463,7.849,29.418,24.315,64.64,89.197,33.054,13.556,-33.962,-174.507,1
13.021,-1.357,-212.62,-1.272,20.576,54.296,571.66,173.254,46.621,53.428,32.485,22.115,26.712,-2.103,14.754,22.695,28.216,15.199,25.945,22.825,5.28,28.364,18.143,56.378,121.896,31.996,14.567,-37.002,-181.504,1
1.225,-20.823,-212.407,-32.009,5.186,24.528,603.876,140.805,14.299,24.173,9.399,5.187,-1.492,-24.13,-5.753,3.717,10.257,-2.235,4.402,3.334,-9.07,6.819,-0.318,31.219,104.868,9.935,-0.817,-61.556,-179.786,1
7.371,-21.315,-221.929,-35.563,6.718,26.553,600.711,140.664,17.358,27.735,9.901,9.792,3.121,-19.495,0.401,7.299,22.03,2.891,13.619,11.015,-5.475,11.423,7.366,37.848,93.492,14.023,3.795,-59.957,-170.897,1
14.024,-1.826,-204.801,-5.302,20.031,53.166,567.835,173.311,43.981,51.273,28.335,23.615,21.561,-12.304,16.282,18.563,33.791,15.696,25.388,24.324,6.313,27.293,17.093,52.154,104.157,30.915,16.598,-37.868,-161.505,1
2.227,-6.435,-200.497,-8.37,16.425,44.916,600.054,162.379,40.863,43.537,25.745,16.931,13.342,-15.877,7.044,15.47,23.511,6.971,13.067,12.005,-0.865,17.02,6.317,44.93,88.172,23.2,10.946,-39.879,-167.491,1
1.2,-16.162,-212.08,-22.194,9.236,28.477,632.242,132.503,25.965,31.199,15.473,10.766,5.132,-14.325,-0.648,12.381,24,0.304,9.468,7.382,-6.5,8.806,2.213,40.786,85.522,12.418,5.812,-51.623,-168.348,1
16.568,-4.875,-195.986,-5.778,14.862,44.843,599.334,152.351,31.063,42.438,23.142,18.953,14.861,-12.773,11.649,15.955,32.685,9.013,18.68,21.207,2.728,19.555,12.969,49.455,104.904,20.09,9.393,-49.522,-152.81,1
10.916,-10.506,-193.229,-4.235,11.773,48.384,566.46,167.055,36.667,40.346,23.631,13.811,9.21,-24.031,6.514,10.303,21.382,-0.73,8.415,14.013,-4.447,12.876,8.345,40.696,90.967,13.923,3.236,-62.28,-159.83,1
-4.976,-32.525,-218.139,-27.797,-2.583,23.232,598.681,141.785,26.384,21.863,6.189,1.501,-7.705,-31.18,-14.497,-1.49,11.114,-15.587,-6.45,-3.419,-20.324,-4.555,-6.52,23.749,66.797,-2.485,-6.501,-82.198,-182.724,1
4.25,-24.295,-206.137,-29.306,0.494,22.697,630.87,138.57,20.722,26.452,6.183,7.648,-3.599,-22.439,-8.847,3.635,21.349,-2.251,3.803,6.318,-12.107,1.597,1.171,27.824,67.243,7.763,-0.86,-69.308,-173.32,1
7.32,-15.562,-188.513,-24.666,4.079,35.482,597.964,153.288,24.288,30.524,11.812,8.665,0.503,-22.929,-0.129,9.266,22.865,3.899,10.971,11.435,-9.533,4.669,7.317,23.698,60.516,10.829,0.678,-65.14,-158.802,1
-12.667,-41.161,-219.575,-44.622,-12.831,15.466,584.046,136.228,16.579,9.489,-5.618,-5.689,-15.379,-39.812,-20.109,-6.112,7.985,-14.548,-7.995,-8.044,-28.991,-13.779,-12.67,-2.966,58.918,-14.284,-14.692,-97.35,-180.672,1
-5.995,-41.12,-227.552,-44.577,-8.207,11.352,573.216,128.92,15.538,13.065,-4.588,-1.072,-13.827,-37.723,-21.626,-6.106,10.026,-12.996,-9.012,-3.938,-22.814,-8.642,-11.633,-0.914,86.524,-11.196,-12.115,-96.228,-191.25,1
24.75,-8.291,-194.537,-11.745,24.588,44.129,540.367,159.017,39.601,45.328,27.18,21.983,9.753,-22.316,8.622,20.028,26.41,1.873,18.15,25.268,3.848,20.056,14.507,30.338,87.462,21.09,13.512,-63.344,-166.98,1
22.676,-4.185,-194.855,-4.561,26.613,48.183,572.614,153.223,43.147,41.696,29.202,20.936,8.719,-33.052,14.248,22.057,23.822,-8.887,21.205,23.193,0.258,22.597,13.468,34.406,55.099,25.168,16.06,-63.793,-153.493,1
1.648,-25.697,-203.369,-34.782,5.582,19.446,604.829,120.794,21.075,19.625,10.217,8.107,-6.659,-49.926,-1.647,5.129,14.065,-19.124,4.278,7.289,-9.988,11.304,3.72,23.101,52.995,14.896,4.261,-91.906,-151.803,1
9.331,-13.376,-180.624,-33.723,15.822,34.283,571.949,142.19,31.812,37.024,20.965,18.345,4.106,-40.142,7.576,14.857,19.686,-7.834,12.983,21.114,1.805,23.076,17.549,31.275,80.094,26.152,14.503,-82.593,-137.819,1
21.105,-0.043,-180.956,-3.975,27.077,54.741,539.102,171.762,50.736,54.406,32.215,25.499,16.398,-33.442,16.79,24.064,21.203,-10.9,24.753,29.802,2.316,29.2,20.093,33.805,75.916,32.786,20.124,-76.363,-139.218,1
7.252,-20.535,-207.928,-13.193,6.046,25.997,571.35,139.315,26.094,28.736,15.789,10.105,-0.013,-48.265,-2.182,8.671,10.424,-32.406,9.359,12.353,-13.568,10.216,2.142,19.427,54.835,16.359,3.197,-96.779,-157.522,1
-1.977,-32.298,-207.207,-44.43,-3.182,8.041,603.567,106.9,10.699,15.899,7.064,6.508,-10.259,-50.266,-9.352,3.539,13.999,-30.325,0.64,9.78,-13.042,4.058,0.603,13.26,58.366,5.072,-1.416,-104.367,-157.876,1
9.808,-18.433,-191.631,-38.751,17.826,36.209,570.688,139.581,35.791,40.474,22.426,21.871,4.096,-34.847,10.637,15.319,28.33,-7.24,12.935,27.701,-1.246,17.886,11.361,13.759,75.214,12.24,9.856,-103.238,-153.108,1
15.946,-11.242,-192.464,-16.17,28.054,53.079,537.842,172.229,43.44,48.118,31.113,23.386,10.24,-35.836,18.311,18.377,28.302,-3.135,18.045,29.722,3.366,22.479,12.374,12.72,73.09,20.936,12.407,-108.257,-159.102,1
8.245,-13.793,-192.271,-14.105,18.805,37.657,570.092,139.781,26.49,31.676,24.934,14.141,-1.041,-48.096,9.071,13.748,21.101,-15.939,13.416,22.008,1.825,20.407,9.8,20.392,50.475,21.94,11.37,-102.514,-155.357,1
5.676,-10.705,-184.394,-13.578,17.249,30.447,602.309,120.686,25.439,30.108,21.323,18.226,-3.602,-47.023,12.648,13.734,21.592,-14.386,16.989,26.084,1.311,26.022,13.889,28.056,42.74,26.017,15.97,-98.825,-135.734,1
13.354,-6.084,-181.136,-5.88,24.404,41.687,569.432,149.767,32.586,38.787,25.913,24.355,3.574,-41.341,20.32,17.819,24.132,-4.126,22.608,31.693,4.896,30.095,15.924,25.979,64.726,31.626,19.54,-108.972,-118.692,1
21.026,0.07,-179.93,-4.337,27.966,52.916,536.587,169.085,38.701,41.31,33.571,25.355,8.181,-48.984,21.324,21.387,26.157,-6.171,23.097,33.711,10.527,28.528,12.834,29.027,73.371,29.545,20.033,-109.376,-115.5,1
25.615,12.878,-163.869,2.839,37.159,64.134,532.976,179.162,50.446,49.978,41.735,30.965,12.784,-54.57,27.963,25.464,29.205,-7.189,28.71,40.337,17.688,35.159,19.482,36.17,56.391,31.053,26.16,-93.897,-117.946,1
24.565,19.525,-142.701,8.984,43.27,64.582,565.231,166.175,45.784,50.952,41.181,31.447,10.209,-48.881,32.034,24.927,25.077,-10.768,27.144,39.785,20.745,37.173,27.147,29.986,50.7,36.657,30.233,-89.192,-111.168,1
17.881,7.722,-144.607,-6.906,25.296,40.439,597.453,133.734,21.66,29.897,25.77,21.681,-4.658,-51.393,19.194,13.631,14.806,-27.152,13.797,28.986,10.478,25.865,16.873,21.247,49.624,27.399,20.981,-100.374,-106.958,1
18.375,-1.507,-156.246,-10.998,12.975,31.69,569.704,132.575,26.249,26.793,22.158,20.635,-6.702,-59.026,13.539,11.056,15.304,-28.661,14.808,28.957,7.906,27.376,12.758,31.984,35.23,23.785,17.374,-106.934,-110.437,1
25.017,6.691,-147.892,8.993,29.868,55.224,536.859,165.23,53.375,48.795,37.505,29.324,6.624,-51.795,22.747,22.315,26.559,-12.751,26.576,38.662,23.779,42.206,28.115,42.711,37.244,39.131,27.603,-107.339,-101.105,1
22.942,9.759,-144.158,5.398,37.011,62.341,518.391,167.114,48.199,48.234,38.492,27.245,4.056,-49.694,22.212,19.732,24.995,-17.349,20.402,35.55,25.292,38.065,26.55,29.86,64.359,34.993,27.575,-116.966,-95.881,1
17.796,1.552,-159.896,-15.612,21.092,44.861,550.66,134.672,24.585,29.743,24.622,19.533,-8.755,-65.526,15.018,6.904,16.261,-30.652,6.549,25.268,12.972,23.683,10.129,17.535,73.516,17.027,17.814,-126.582,-115.253,1
18.291,-1.011,-161.785,-16.109,13.386,37.643,582.897,125.316,21.486,26.127,23.572,17.977,-11.308,-73.145,13.978,6.897,17.27,-31.133,7.055,23.194,15.008,24.171,11.144,24.69,44.241,21.109,17.796,-123.894,-119.748,1
15.711,2.064,-154.963,-14.044,12.861,41.192,550.039,135.437,25.563,27.638,24.573,17.447,-12.322,-71.535,11.915,7.915,17.765,-30.59,11.658,27.269,18.067,29.783,19.842,31.325,17.557,30.309,22.389,-119.672,-104.772,1
19.794,8.209,-158.907,-14.542,15.922,50.885,517.214,147.596,31.685,31.709,24.037,18.966,-9.748,-72.488,14.977,6.882,16.21,-29.022,13.696,33.389,19.073,34.876,22.383,32.831,36.495,30.279,26.465,-114.941,-108.253,1
31.557,15.886,-154.137,-4.281,26.152,64.154,549.484,158.72,43.437,42.948,34.771,24.07,-1.029,-68.317,23.159,14.56,23.366,-23.358,18.805,37.454,28.276,39.964,25.435,39.458,62.586,34.859,31.561,-108.167,-110.194,1
26.915,12.796,-143.224,-8.375,23.564,58.454,581.722,145.753,40.832,39.831,34.224,19.948,-4.102,-67.736,16.476,13.009,22.83,-29.995,14.688,33.318,27.735,33.264,20.799,37.369,43.056,30.726,25.894,-117.792,-96.252,1
15.617,2.025,-150.766,-24.761,13.807,47.125,548.865,138.435,32.082,29.545,21.382,14.292,-13.319,-77.403,5.188,1.725,14.611,-39.186,6.989,28.674,22.072,25.546,13.093,24.524,17.91,20.449,20.233,-134.068,-103.328,1
17.651,-4.637,-168.034,-33.958,14.305,46.565,556.001,141.883,27.439,26.954,18.287,13.766,-17.404,-83.473,6.208,-0.838,15.621,-40.172,5.957,24.035,28.71,27.058,14.617,18.352,15.843,21.453,21.75,-137.008,-123.204,1
14.047,-11.293,-180.673,-43.657,8.656,35.248,588.233,113.564,11.017,16.681,14.682,8.117,-25.584,-85.439,4.152,-3.911,15.605,-44.23,1.853,17.351,27.657,23.444,13.578,20.383,4.556,19.895,14.043,-141.994,-123.081,1
8.398,-5.134,-177.931,-34.905,5.061,34.188,555.369,112.426,13.568,15.64,13.131,7.596,-24.533,-83.816,2.099,-3.395,15.589,-38.038,4.412,22.969,26.605,23.421,14.077,25.486,17.359,18.85,11.468,-143.901,-108.101,1
19.148,12.802,-155.212,-5.668,21.962,56.696,522.538,145.101,41.219,36.628,27.462,19.884,-9.14,-73.999,11.831,7.879,25.308,-24.168,17.728,34.217,40.41,35.693,21.747,27.509,50.129,28.565,22.727,-134.536,-93.648,1
18.616,5.617,-145.835,-16.933,21.428,51.004,554.803,135.735,32.469,31.981,23.849,15.253,-16.303,-81.097,10.282,3.26,17.598,-37.464,11.05,27.01,39.345,32.071,17.115,19.285,37.272,24.438,17.581,-142.086,-93.555,1
7.327,-10.782,-163.62,-48.679,3.476,29.948,587.036,103.323,8.87,10.432,7.431,3.967,-34.217,-100.483,0.025,-11.6,1.699,-55.869,-4.842,17.762,30.084,22.305,10.95,16.704,4.959,13.655,6.805,-156.289,-112.929,1
19.615,4.598,-160.382,-32.237,16.28,48.361,554.174,124.737,31.915,25.279,23.305,16.771,-20.351,-95.772,10.784,0.195,16.042,-43.518,9.507,30.039,45.936,36.115,25.283,32.569,10.077,28.499,20.119,-140.251,-110.767,1
30.866,22.524,-136.656,-12.225,34.707,65.731,586.407,137.42,46.74,44.209,38.651,27.513,-7.523,-80.82,24.093,13.515,29.858,-31.691,23.842,41.792,58.698,45.301,33.455,36.635,40.805,38.716,30.345,-125.766,-83.504,1
17.003,9.181,-144.204,-31.68,19.815,48.247,618.609,108.081,19.029,24.697,19.657,13.653,-25.446,-85.862,10.237,-0.843,15.996,-39.857,7.425,28.943,45.831,27.324,18.565,16.106,37.178,18.698,20.068,-144.083,-87.006,1
9.814,-3.123,-159.429,-38.821,9.037,42.051,585.715,115.145,11.325,12.377,10.416,5.955,-35.667,-93.461,-2.581,-11.601,10.344,-42.891,-4.366,18.155,39.125,17.563,9.837,10.454,40.727,9.457,14.413,-160.845,-104.85,1
20.05,7.638,-134.166,-19.314,25.421,58.915,577.444,135.522,31.294,29.271,27.311,17.732,-21.799,-88.244,9.204,-1.856,23.142,-39.261,8.446,32.482,50.869,32.915,21.098,30.424,57.593,27.891,23.62,-150.438,-78.105,1
28.739,26.074,-104.83,-6.487,38.204,67.565,609.655,125.141,38.947,41.537,38.555,27.448,-11.018,-79.959,24.564,7.368,29.778,-40.759,20.221,49.868,63.626,46.714,33.372,40.127,46.777,41.695,34.355,-131.845,-48.826,1
30.76,31.683,-104.726,-1.87,35.092,64.424,605.459,122.454,36.859,37.397,37.492,25.371,-12.544,-78.342,23.515,6.848,29.749,-39.694,20.713,45.72,64.587,45.131,32.826,30.866,16.504,39.605,33.296,-125.053,-55.437,1
26.63,30.627,-87.202,5.304,32.495,66.921,572.578,133.602,39.896,37.359,36.43,23.809,-15.606,-86.973,20.418,4.792,27.157,-39.142,21.204,41.575,63.498,47.135,33.818,34.933,11.877,41.614,29.676,-121.854,-29.766,1
30.702,48.527,-54.328,19.131,43.733,81.199,559.198,142.69,49.077,49.105,46.127,32.494,-9.442,-87.91,31.668,10.423,29.179,-39.103,27.843,54.854,74.193,61.432,45.055,55.391,44.652,56.429,43.479,-97.654,3.052,1
40.918,65.897,-31.219,28.334,51.374,85.216,591.426,138.449,46.467,50.593,52.741,35.536,-5.334,-80.65,36.247,17.072,34.786,-37.527,28.84,57.36,78.217,62.908,44.498,53.798,77.395,57.91,52.145,-80.138,32.25,1
32.68,48.925,-41.434,13.448,31.855,63.102,623.622,106.035,22.342,29.538,36.807,21.668,-22.235,-96.963,17.768,7.321,26.042,-45.686,19.077,40.397,63.282,45.426,26.01,28.129,45.043,40.434,34.674,-101.574,13.262,1
22.401,41.704,-29.098,8.824,23.626,58.428,590.723,97.732,19.246,25.922,32.159,19.597,-29.385,-110.699,13.14,-0.371,20.38,-47.177,21.108,42.918,63.731,48.967,27.009,30.663,12.722,43.467,32.59,-112.744,19.397,1
41.334,70.351,-0.379,40.066,53.829,88.595,557.857,130.422,49.965,55.61,58.255,41.606,-4.765,-77.8,38.229,20.122,41.877,-25.613,42.091,67.466,88.258,73.509,51.573,62.395,33.714,69.039,58.173,-87.015,48.579,1
53.588,77.965,-10.625,46.686,64.533,97.216,590.087,137.977,57.6,64.776,66.393,46.176,2.924,-56.718,46.388,31.885,53.106,-18.928,44.098,70.472,90.731,73.948,55.107,64.382,47.513,68.458,60.164,-84.879,44.944,1
36.116,53.297,-42.89,14.364,36.292,76.114,616.649,109.662,41.66,43.706,44.298,27.686,-19.108,-85.863,24.825,11.873,35.634,-40.426,24.074,51.959,70.148,54.406,37.634,40.751,17.239,46.36,39.611,-113.996,12.624,1
27.371,44.022,-64.364,4.103,29.596,74.501,583.757,119.798,42.643,39.052,37.081,23.048,-23.7,-103.195,17.628,3.152,26.377,-48.07,18.415,46.784,67.004,50.766,36.059,39.174,20.808,43.24,38.035,-125.153,-12.492,1
32.466,45.002,-76.595,3.075,39.812,77.501,580.612,122.752,36.453,42.087,40.118,27.636,-20.09,-95.92,24.27,13.907,29.424,-43.411,24.032,53.909,73.597,55.326,39.609,44.77,52.55,45.758,42.095,-128.614,-25.287,1
27.311,35.736,-97.01,-23.568,26.452,59.492,612.819,93.94,16.437,27.188,30.344,18.899,-35.951,-103.509,17.586,9.283,25.297,-53.101,16.835,50.269,64.302,51.172,28.299,31.917,37.128,35.978,32.319,-148.465,-46.266,1
21.136,30.577,-116.381,-28.156,17.717,54.31,579.931,99.482,19.494,22.55,27.24,14.269,-40.014,-106.479,10.396,4.15,28.345,-52.536,13.232,46.633,59.115,46.51,24.172,24.201,4.816,30.819,26.139,-157.026,-72.86,1
24.701,27.473,-137.269,-13.783,25.896,63.477,600.868,106.554,29.208,29.7,32.336,21.939,-30.752,-99.712,14.484,12.343,32.415,-44.799,18.342,51.197,65.203,47.488,30.296,28.787,-11.583,31.301,30.212,-153.283,-99.427,1
26.725,15.662,-159.674,-32.724,21.259,54.192,633.055,74.172,22.519,25.571,29.229,21.405,-36.869,-114.982,10.371,12.843,20.087,-59.611,11.664,47.047,60.015,43.854,23.093,23.636,-30.014,22.56,29.669,-165.425,-112.135,1
28.235,14.622,-162.588,-44.987,18.677,55.675,600.146,78.197,30.181,32.206,33.811,20.871,-31.709,-121.527,7.799,15.392,19.555,-62.113,9.603,43.926,54.832,40.224,17.947,18.489,-8.98,18.439,27.078,-177.555,-94.093,1
29.744,26.39,-152.179,-25.987,31.466,80.722,567.271,110.906,50.131,51.641,46.072,31.097,-12.722,-97.839,18.037,29.209,38.491,-38.997,22.401,55.666,66.56,45.819,31.761,25.643,23.817,26.618,31.149,-169.18,-81.703,1
25.104,20.728,-153.564,-34.158,26.823,79.104,588.22,103.623,42.396,42.368,38.854,28.504,-25.005,-98.766,14.946,25.593,35.378,-46.13,17.768,54.585,65.469,46.286,32.242,25.105,16.109,23.517,28.044,-169.523,-107.749,1
24.054,7.388,-161.095,-54.103,15.526,58.021,590.706,80.466,22.886,23.37,26.008,14.643,-44.447,-119.672,3.66,14.297,18.437,-68.626,6.992,42.235,53.62,42.141,24.013,23.543,-16.183,13.248,22.893,-182.161,-128.646,1
32.739,16.09,-167.081,-39.705,27.293,67.697,557.84,96.267,28.499,31.544,35.203,19.239,-33.132,-113.405,13.39,25.553,22.005,-60.36,19.28,52.439,62.788,53.37,39.358,40.425,-17.704,26.042,33.629,-171.221,-120.32,1
33.219,21.197,-181.259,-39.153,31.364,72.752,590.07,83.363,27.958,32.537,38.754,23.319,-32.587,-108.168,18.5,32.7,24.544,-60.812,20.285,57.51,67.336,60.489,47.003,50.631,-5.39,37.799,39.231,-159.267,-127.372,1
21.402,2.732,-191.324,-62.167,18.525,48.601,622.267,51.004,6.413,10.987,24.371,12.537,-52.022,-124.454,0.55,21.397,13.761,-75.608,0.797,41.058,51.9,45.571,26.464,36.236,-4.36,22.392,24.847,-180.112,-141.077,1
18.819,2.73,-183.448,-50.322,22.605,51.626,589.37,71.445,12.042,16.1,26.395,14.574,-47.359,-121.255,1.062,24.449,21.944,-60.676,5.92,45.116,52.36,41.94,24.388,28.515,21.772,15.197,24.822,-191.715,-126.592,1
25.973,24.244,-182.24,-32.341,30.267,73.091,556.505,104.162,34.059,35.551,38.152,22.756,-37.066,-111.4,14.893,35.183,32.681,-49.344,19.746,57.366,62.554,52.144,36.147,34.634,27.897,27.478,39.142,-174.105,-117.756,1
25.947,20.121,-194.353,-52.289,18.454,57.137,588.736,71.782,17.631,19.634,27.868,11.462,-51.373,-125.634,4.12,26.439,19.328,-66.201,7.943,43.476,54.807,44.407,24.327,34.599,-4.406,22.839,32.955,-174.955,-131.47,1
24.896,5.244,-189.036,-64.532,16.386,41.71,611.201,43.021,-1.854,4.245,18.618,9.402,-59.006,-129.606,-3.056,21.289,15.723,-65.11,5.886,40.359,52.703,40.776,21.229,34.565,-11.061,14.62,24.725,-191.174,-133.388,1
32.556,14.973,-174.502,-49.098,33.276,66.772,578.315,75.766,23.251,25.758,34.481,25.274,-46.14,-114.62,11.804,38.174,34.15,-50.188,22.274,59.274,61.872,57.13,40.676,45.289,0.22,25.363,35.459,-183.811,-126.082,1
36.622,26.228,-178.938,-39.827,38.366,84.123,545.973,103.867,41.158,38.028,44.693,25.761,-38.921,-114.505,16.915,48.894,38.214,-52.187,23.789,60.24,60.273,59.634,43.709,52.416,-4.903,29.949,39.009,-169.282,-129.03,1
28.388,21.079,-189.518,-46.96,29.106,67.133,578.215,71.488,20.625,19.034,30.816,13.952,-47.592,-119.514,8.189,40.136,26.393,-56.746,9.932,48.909,53.04,45.742,29.321,45.703,-5.41,20.697,29.237,-178.847,-132.487,1
14.015,7.738,-196.501,-65.868,14.732,42.475,610.425,39.141,0.112,1.084,14.391,7.278,-66.499,-118.882,-3.09,26.264,16.633,-70.009,-2.885,41.175,40.18,34.938,18.533,29.776,-8.479,9.918,20.498,-199.672,-139.527,1
9.903,1.07,-204.501,-77.585,5.496,35.773,581.125,42.175,-0.913,-1.478,11.815,3.685,-74.117,-129.009,-12.309,22.139,10.469,-84.796,-6.468,35.498,27.332,29.267,17.49,22.062,-6.933,2.224,15.867,-203.571,-148.609,1
19.627,18.488,-196.1,-53.942,19.323,56.229,548.268,71.847,13.945,11.843,25.636,10.853,-58.674,-134.003,-1.538,33.9,15.581,-67.805,9.42,47.758,40.112,42.046,30.792,36.384,25.861,12.98,27.122,-180.826,-142.313,1
26.78,33.838,-175.923,-31.346,34.673,75.128,515.445,98.927,24.69,25.664,33.807,20.576,-51.955,-125.16,11.271,44.112,23.25,-52.368,16.582,58.981,53.392,56.861,37.934,48.131,37.619,26.287,38.878,-162.202,-129.875,1
11.896,8.189,-183.432,-59.492,16.195,51.487,547.717,69.627,1.099,3.609,13.281,5.186,-75.982,-135.793,-10.257,27.674,7.858,-78.443,-9.049,33.307,29.26,34.262,15.354,31.177,5.306,5.768,20.908,-187.143,-136.918,1
-6.559,-22.557,-212.963,-91.708,-14.047,19.16,579.957,37.282,-28.104,-28.67,-10.811,-14.799,-93.324,-155.125,-34.325,6.13,-7.519,-95.271,-26.459,14.318,9.251,9.125,-4.129,11.678,-26.975,-20.365,1.932,-219.231,-154.199,1
2.669,-11.264,-220.947,-88.03,-8.91,29.9,583.475,42.368,-13.731,-13.785,3.032,-1.976,-77.862,-138.064,-20.458,18.931,8.37,-73.146,-8.502,37.87,26.66,27.047,11.245,17.814,5.84,-10.611,14.737,-213.889,-165.316,1
26.233,13.85,-200.746,-56.691,20.812,62.657,550.617,75.113,12.923,19.017,29.669,20.567,-57.804,-111.286,1.079,43.503,29.878,-52.069,11.999,57.812,43.54,49.049,30.189,32.141,34.523,9.892,31.629,-180.887,-162.076,1
29.792,15.373,-183.126,-48.95,28.989,65.668,535.209,80.673,9.836,14.899,28.103,17.473,-58.771,-121.933,0.566,40.898,22.676,-56.115,7.889,50.582,36.836,41.828,26.06,35.182,26.804,9.882,30.06,-178.657,-143.984,1
16.443,2.038,-190.628,-62.221,13.078,48.697,567.462,56.514,-0.932,-0.485,15.779,6.185,-71.007,-144.353,-9.169,27.025,5.235,-76.039,-9.538,39.773,26.553,27.953,13.226,29.512,25.752,-1.399,21.833,-203.069,-132.057,1
8.742,-6.673,-212.979,-65.745,5.893,48.648,534.619,64.655,1.118,1.053,13.202,5.154,-75.547,-140.11,-15.82,22.899,2.668,-88.258,-22.336,31.024,22.428,19.729,2.967,18.724,28.8,-13.693,15.152,-213.625,-146.269,1
9.245,-7.179,-217.889,-67.216,7.936,48.087,502.833,67.152,-1.957,-2.022,8.066,2.075,-78.545,-129.724,-19.902,17.753,7.276,-79.973,-22.313,24.845,19.332,16.123,1.427,15.631,9.304,-18.29,12.063,-207.776,-165.078,1
12.31,-2.049,-196.154,-75.346,4.854,39.33,535.118,44.543,-10.152,-6.119,7.033,0.024,-80.516,-135.229,-18.858,19.272,8.294,-75.795,-10.508,34.042,21.362,27.377,14.233,30.472,-5.562,-7.001,19.735,-197.322,-157.741,1
17.933,6.15,-184.687,-73.733,10.997,51.073,559.174,53.72,-3.482,4.646,18.297,9.245,-71.214,-143.291,-10.642,32.061,7.261,-81.867,1.285,46.816,28.513,43.231,26.514,40.176,9.813,4.789,29.961,-185.342,-140.165,1
19.964,7.681,-207.044,-75.197,16.621,61.781,526.339,71.085,1.132,6.178,18.791,8.723,-69.094,-147.759,-8.07,32.029,2.13,-80.76,-4.351,41.133,27.972,36.016,15.729,24.766,13.901,-3.412,26.858,-188.23,-153.857,1
19.944,-0.011,-226.305,-89.978,10.457,46.862,529.911,47.96,-10.652,-6.123,9.038,0.518,-81.832,-148.123,-15.234,19.701,-2.995,-82.216,-18.179,31.871,19.235,22.148,2.394,12.446,-0.457,-15.192,18.122,-203.411,-177.781,1
24.535,4.599,-207.635,-81.179,17.107,50.914,497.106,52.522,-7.568,0.543,17.226,9.739,-77.14,-138.753,-13.17,25.317,5.205,-83.671,-10.476,42.085,22.289,31.859,17.248,24.729,21.06,-6.98,22.714,-200.134,-156.599,1
23.486,17.403,-192.571,-64.192,28.873,73.917,464.334,85.258,13.445,15.911,29.504,18.438,-61.181,-132.467,-4.959,36.05,14.421,-73.341,2.854,49.215,29.951,43.61,30.551,37,47.167,4.298,31.401,-188.151,-124.167,1
13.216,9.701,-215.432,-84.62,13.475,60.523,496.657,65.705,6.259,6.674,20.253,5.1,-71.366,-139.507,-13.151,25.768,6.722,-73.268,-9.956,37.383,20.188,33.833,14.127,29.278,14.844,-4.416,25.734,-195.647,-139.924,1
15.765,-0.555,-223.413,-102.466,2.703,34.847,528.948,33.364,-17.314,-9.727,9.987,-2.077,-86.664,-141.417,-23.384,18.57,2.105,-81.904,-19.68,35.296,11.458,29.188,6.94,25.663,-17.446,-11.071,20.585,-198.525,-164.888,1
26.507,11.228,-193.476,-84.433,17.045,44.546,496.144,41.015,-16.272,-7.155,17.149,8.171,-79.405,-135.127,-14.652,26.236,10.812,-73.625,-4.804,48.069,22.205,41.455,23.327,36.396,15.359,1.235,27.225,-181.933,-155.501,1
23.407,17.365,-185.598,-79.225,19.077,59.358,463.372,73.762,-6.521,0.536,22.767,9.7,-75.739,-140.115,-10.026,26.722,8.24,-73.039,-0.188,46.996,25.769,40.389,23.816,37.896,48.131,3.283,28.222,-177.14,-149.198,1
17.236,10.175,-205.393,-89.905,11.885,53.151,458.81,75.737,-10.613,-2.026,17.109,3.542,-80.787,-149.197,-16.676,23.622,-0.478,-87.311,-10.946,39.777,18.059,30.614,12.009,28.124,30.665,-11.065,24.095,-188.234,-151.61,1
22.342,14.263,-205.187,-78.544,19.046,51.561,491.139,68.489,-11.627,-2.024,17.604,8.662,-73.534,-141.363,-12.049,28.721,8.232,-80.563,-5.812,47.934,21.627,37.244,19.682,31.682,4.506,-7.467,28.682,-190.095,-138.139,1
24.881,17.323,-197.297,-69.244,23.637,61.756,458.373,77.13,-3.931,4.126,23.222,12.751,-67.825,-128.414,-5.377,31.254,15.908,-69.212,5.464,51.472,25.191,47.453,27.347,45.483,-15.99,6.885,30.702,-182.732,-134.927,1
17.171,8.084,-207.346,-79.421,16.442,60.157,425.639,78.59,-6.489,0.024,15.514,4.029,-78.515,-134.946,-16.13,21.489,2.06,-81.95,-6.324,38.101,13.383,38.696,14.512,40.827,-35.442,-2.344,22.475,-183.062,-151.186,1
9.982,0.904,-217.385,-91.637,8.228,38.58,458.001,50.334,-23.388,-18.932,0.642,-5.708,-91.244,-151.717,-29.434,10.196,-8.701,-90.578,-25.786,25.767,2.611,20.214,0.665,17.732,-2.619,-23.346,15.28,-194.662,-153.084,1
12.021,0.903,-211.02,-101.279,5.658,29.832,490.331,32.353,-31.562,-21.474,3.203,-1.604,-88.079,-147.979,-26.843,12.235,3.091,-81.266,-23.198,29.328,6.195,16.608,2.201,9.518,30.171,-24.347,16.802,-202.152,-145.246,1
19.694,6.025,-201.587,-101.69,16.411,51.832,457.565,65.108,-15.137,-3.522,16.52,8.131,-76.208,-129.388,-16.058,23.494,16.408,-77.086,-8.318,36.983,13.361,28.887,13.47,24.365,8.112,-13.052,21.908,-191.191,-149.711,1
16.088,5.507,-209.07,-96.465,19.981,58.44,424.832,81.437,-9.486,-4.543,11.38,3.512,-81.255,-132.332,-19.115,17.323,7.17,-81.619,-14.97,29.774,6.175,27.321,9.87,29.976,-24.172,-16.625,19.325,-188.439,-157.759,1
4.289,-8.843,-224.231,-104.053,1.518,29.692,457.195,49.08,-30.481,-27.08,-5.025,-9.811,-98.08,-145.52,-31.904,2.449,-6.669,-81.026,-31.349,18.473,-7.663,12.437,-5.509,16.626,-21.586,-30.441,7.522,-207.206,-158.113,1
4.284,-13.958,-221.957,-107.023,-3.094,23.515,440.344,44.42,-32.5,-26.029,-2.459,-4.678,-94.908,-138.202,-29.31,8.594,1.022,-73.26,-19.534,27.676,-5.094,20.109,1.669,18.659,8.662,-26.312,9.564,-210.584,-153.857,1
7.354,-5.747,-221.223,-102.305,8.179,44.496,407.628,77.164,-15.049,-11.146,9.327,5.573,-83.03,-133.965,-21.084,18.319,7.681,-71.65,-1.584,39.944,3.62,37.507,17.036,34.009,-5.691,-12.453,21.85,-197.054,-160.875,1
6.322,-8.815,-235.859,-113.474,6.634,40.353,440.008,61.205,-19.645,-13.696,8.805,0.444,-87.558,-150.738,-25.674,12.665,-5.134,-80.8,-11.829,34.269,-1.506,31.834,8.31,28.34,-12.858,-17.052,17.217,-201.468,-172.497,1
15.537,-4.708,-222.815,-108.237,13.288,38.263,472.356,52.434,-22.187,-10.096,11.358,4.03,-83.372,-152.124,-21.037,15.727,-8.715,-84.305,-17.965,34.747,-1.505,26.679,3.691,18.578,11.746,-21.133,15.663,-202.803,-154.906,1
22.182,14.765,-194.928,-77.903,26.082,57.693,439.608,82.608,-10.894,2.209,19.031,16.833,-70.993,-131.992,-12.307,22.371,3.076,-78.073,-7.7,43.933,6.694,34.337,12.909,26.756,22.492,-8.817,28.455,-188.768,-131.185,1
9.352,8.602,-209.077,-87.046,8.638,44.827,471.956,61.009,-21.641,-10.601,9.791,7.595,-82.705,-127.761,-26.64,11.59,2.049,-75.433,-13.328,37.229,-0.998,29.692,6.236,21.606,19.396,-13.419,23.816,-193.702,-146.936,1
11.904,-1.14,-217.577,-111.038,1.457,32.999,471.997,41.992,-28.28,-16.738,6.195,2.977,-85.696,-130.707,-30.711,12.091,-0.003,-72.796,-13.315,33.606,-2.534,31.199,5.205,15.949,13.741,-20.065,16.107,-198.632,-154.473,1
28.286,20.378,-189.183,-85.311,28.608,65.242,439.249,74.738,-3.661,10.431,26.169,21.929,-60.507,-121.867,-9.676,29.497,9.731,-66.064,4.629,47.405,10.277,47.05,19.544,35.401,-3.691,-4.164,31.46,-181.527,-127.167,1
15.962,18.308,-204.363,-73.955,25.505,64.664,471.598,73.639,-6.218,8.372,22.044,19.858,-66.082,-128.918,-16.839,21.271,3.574,-76.756,-5.621,40.697,-1.004,32.146,6.205,29.218,-8.81,-13.893,28.867,-193.128,-136.773,1
-0.448,-8.35,-236.434,-103.083,-3.21,32.324,503.914,41.29,-36.438,-23.912,-3.594,-0.142,-92.144,-145.695,-39.876,0.757,-9.237,-87.95,-28.157,20.677,-17.397,9.06,-13.269,-3.087,10.666,-42.056,7.834,-216.501,-167.887,1
17.996,3.441,-206.996,-93.246,7.04,42.538,471.134,59.179,-28.717,-17.741,4.095,8.567,-80.269,-131.205,-27.54,7.416,4.092,-74.03,-14.297,30.39,-3.548,24.932,2.114,2.552,17.828,-28.694,17.56,-195.793,-148.252,1
26.175,16.758,-180.149,-73.685,20.353,57.352,438.388,90.371,-16.393,-2.866,16.386,16.243,-73.016,-119.803,-16.242,13.557,7.674,-71.394,-5.061,36.507,-0.983,33.104,8.259,17.918,-4.219,-15.346,27.276,-182.789,-134.783,1
9.243,-2.214,-211.732,-99.227,4.451,38.34,470.737,61.079,-30.721,-17.72,-0.024,0.346,-92.411,-143.249,-32.62,1.248,-10.265,-84.13,-22.474,20.589,-17.375,17.19,-9.168,6.63,-22.658,-32.749,11.88,-199.512,-159.239,1
19.992,11.62,-205.372,-97.078,14.18,59.818,437.991,91.756,-16.858,-5.919,9.71,8.542,-75.412,-142.081,-26.439,9.443,2.553,-58.943,-13.743,30.815,-3.013,31.517,3.649,17.894,0.418,-18.884,22.114,-176.771,-142.174,1
40.976,38.249,-172.379,-68.292,37.22,91.521,405.278,124.452,7.749,16.628,33.778,28.514,-52.795,-112.225,-5.408,26.34,25.605,-33.269,7.276,51.276,10.31,53.515,23.626,35.294,33.206,5.214,42.584,-152.516,-114.879,1
22.492,6.447,-195.261,-93.839,13.616,59.155,437.66,92.052,-24.022,-13.614,10.178,8.505,-84.506,-121.335,-23.334,8.383,1.501,-65.511,-9.638,31.757,-15.316,31.432,1.06,6.057,23.951,-21.944,21.025,-184.639,-147.04,1
1.465,-23.273,-224.267,-123.971,-10.988,26.82,470.01,59.685,-56.273,-41.265,-13.91,-10.459,-107.475,-146.316,-46.877,-12.118,-23.604,-91.573,-31.657,12.258,-28.621,9.884,-16.871,-15.978,-8.348,-44.976,0.511,-212.119,-170.971,1
18.37,5.44,-203.038,-100.281,8.491,54.97,437.265,92.413,-34.187,-16.633,9.158,9.532,-83.801,-132.85,-30.948,3.776,-7.187,-68.428,-18.818,29.664,-10.661,28.829,3.638,8.629,1.906,-20.852,18.442,-179.119,-140.574,1
34.745,24.902,-195.663,-84.812,24.364,78.994,411.724,118.448,-15.71,-0.735,21.444,18.231,-71.934,-120.422,-17.085,14.531,1.53,-62.212,-2.405,39.88,-5.528,45.194,17.466,25.014,14.2,-2.901,29.182,-157.936,-130.188,1
20.366,5.409,-211.861,-98.047,10.507,64.058,379.037,106.034,-28.502,-16.616,2.467,2.332,-84.158,-136.183,-31.925,1.708,-13.841,-77.519,-10.088,25.496,-17.305,30.292,3.104,11.669,-14.504,-19.292,15.32,-177.758,-147.988,1
3.439,-3.305,-210.112,-98.973,-0.262,55.284,346.383,114.125,-27.961,-20.698,-2.659,2.842,-86.123,-141.682,-39.577,-0.855,-16.389,-70.269,-21.348,19.323,-21.899,14.892,-10.219,-3.199,-9.366,-36.178,7.62,-187.826,-149.889,1
12.145,6.944,-203.242,-87.604,7.423,65.988,378.824,125.794,-15.126,-10.431,7.078,11.036,-79.889,-126.171,-28.779,6.831,-3.052,-53.292,-14.667,28.013,-15.729,22.562,-4.573,0.39,23.431,-29.995,15.297,-174.83,-142.567,1
28.015,14.622,-194.842,-81.368,18.174,74.118,402.524,124.131,-16.647,-7.859,10.145,10,-75.711,-114.262,-21.578,7.848,2.586,-46.579,-0.82,35.157,-8.541,35.86,9.264,17.296,22.383,-14.595,23.991,-155.188,-132.691,1
23.888,15.632,-179.79,-84.361,17.644,69.946,419.027,119.909,-19.705,-12.462,9.11,11.527,-72.561,-115.172,-24.631,8.865,-2.539,-49.094,-3.893,33.585,-11.094,30.701,9.767,20.352,6.479,-13.556,23.967,-146.836,-125.386,1
11.057,9.981,-185.246,-90.937,10.966,65.265,451.396,116.715,-14.05,-13.986,6.027,11.515,-71.464,-123.254,-30.754,7.319,-11.246,-59.291,-16.697,26.891,-21.329,17.862,-4.588,4.45,16.206,-24.813,15.746,-155.911,-144.216,1
6.947,-0.275,-213.75,-95.456,6.344,61.614,418.669,111.475,-21.208,-18.071,-0.127,1.77,-79.589,-133.377,-36.871,-4.471,-20.456,-70.503,-22.828,19.692,-25.919,14.258,-11.243,-4.776,-4.302,-30.424,9.071,-166.513,-169.687,1
4.379,-9.497,-228.393,-106.119,-2.371,44.646,445.403,86.773,-42.704,-34.447,-8.324,-4.379,-94.879,-142.465,-39.395,-10.614,-28.633,-76.068,-23.317,14.549,-29.479,14.756,-7.646,-1.697,-29.401,-31.93,6.5,-171.47,-166.443,1
3.862,-8.463,-212.795,-111.649,-3.394,36.404,477.745,73.878,-44.71,-36.974,-6.778,0.748,-96.321,-137.712,-36.794,-3.944,-25.53,-71.381,-19.708,17.096,-30.474,19.865,-5.076,2.915,2.904,-29.849,9.567,-172.835,-145.272,1
14.104,6.403,-190.553,-91.557,14.028,63.008,444.992,106.592,-21.099,-12.346,9.11,12.018,-76.245,-118.619,-26.511,6.306,-13.209,-54.403,-10.979,27.838,-18.66,30.603,-0.461,12.134,18.782,-18.036,18.779,-160.879,-130.27,1
24.336,16.13,-187.289,-74.559,23.748,81.388,412.272,138.761,-9.807,1.499,17.298,17.641,-64.386,-110.303,-16.751,11.423,-9.61,-44.615,-6.869,33.445,-12.494,33.134,5.688,21.343,-13.512,-11.871,25.42,-146.886,-134.238,1
18.677,8.43,-191.2,-76.534,16.552,65.425,444.647,121.204,-19.531,-9.261,9.596,11.476,-75.08,-119.415,-21.857,7.826,-14.724,-48.156,-10.449,29.826,-23.752,26.953,4.145,18.761,-7.863,-18.006,20.272,-150.838,-151.523,1
3.801,0.737,-190.497,-78.507,6.289,53.064,476.99,103.664,-30.783,-20.011,-1.684,2.755,-88.325,-128.004,-36.18,-0.891,-20.857,-53.744,-17.611,20.574,-32.95,21.803,-4.568,7.471,24.933,-23.624,10.006,-162.47,-154.445,1
-3.887,-3.363,-199.015,-90.724,-3.963,47.888,490.346,89.728,-42.023,-26.138,-7.83,-0.321,-90.798,-129.926,-41.779,-6.526,-26.471,-61.887,-24.253,12.869,-34.966,15.121,-11.224,0.291,14.661,-26.674,6.409,-163.332,-142.507,1
8.412,2.276,-196.255,-94.731,2.189,45.791,522.643,78.88,-39.419,-20.477,0.887,4.29,-81.485,-124.673,-31.491,-0.372,-22.346,-58.239,-15.007,23.102,-30.833,20.742,-3.016,12.586,-3.284,-19.987,16.649,-146.262,-138.779,1
24.797,23.278,-174.542,-64.41,24.728,66.238,489.845,108.003,-18.887,-0.989,17.792,14.019,-69.109,-115.326,-17.115,12.949,-15.664,-44.348,3.963,40.498,-18.507,40.701,13.381,30.505,17.212,-4.086,26.879,-125.112,-142.226,1
18.112,22.743,-182.052,-56.661,20.092,72.831,457.08,128.899,-18.356,-5.086,10.089,11.956,-74.163,-121.871,-21.197,8.325,-28.968,-55.062,-2.188,31.748,-21.05,35.537,6.195,22.789,3.362,-6.131,20.192,-128.573,-147.207,1
3.75,-2.383,-210.047,-88.88,-3.494,49.192,489.41,107.766,-35.244,-25.573,-9.901,-0.351,-86.384,-136.606,-39.106,-5.516,-41.747,-69.352,-23.703,13.273,-38.959,11.936,-14.303,4.324,-19.695,-27.642,7.876,-143.813,-151.158,1
8.357,-2.893,-199.59,-89.816,-0.417,48.119,521.708,103.56,-32.135,-20.937,-5.792,1.186,-80.662,-135.445,-38.042,0.638,-33.508,-51.352,-18.044,17.358,-38.408,16.022,-8.141,8.418,13.112,-30.176,8.893,-137.522,-143.835,1
9.885,7.868,-181.46,-74.869,3.682,53.194,532.97,99.87,-35.177,-18.354,-1.176,5.283,-78.02,-130.699,-29.807,6.272,-30.913,-47.202,-5.218,21.952,-31.197,28.301,1.601,18.143,35.641,-17.338,12.47,-131.237,-145.228,1
-4.982,-6.484,-193.574,-89.139,-12.203,32.136,564.2,74.667,-54.609,-36.779,-15.007,-4.968,-93.823,-135.691,-41.561,-8.079,-43.178,-71.746,-20.582,9.122,-43.974,15.978,-16.331,9.928,3.33,-22.443,6.822,-143.913,-170.186,1
-1.903,-12.625,-196.967,-86.488,-9.117,37.227,531.36,88.937,-45.845,-31.107,-13.967,-4.963,-93.217,-137.092,-48.179,-12.169,-45.184,-74.748,-32.857,3.99,-51.615,3.666,-27.586,-1.865,-19.727,-35.229,3.229,-146.331,-172.577,1
17.055,-0.317,-183.45,-66.934,6.262,59.219,551.321,114.976,-28.381,-9.559,-0.633,5.8,-78.267,-131.32,-36.86,-1.911,-36.942,-61.353,-19.504,10.134,-40.292,7.761,-14.751,3.26,13.08,-33.144,6.812,-136.45,-143.203,1
17.55,3.269,-179.68,-70.453,4.206,52.499,583.558,103.078,-32.963,-9.549,-0.12,4.77,-78.189,-125.553,-34.262,1.677,-31.782,-57.705,-6.677,17.296,-32.567,18,-2.44,21.7,18.19,-19.791,14.49,-126.58,-132.814,1
13.946,8.389,-177.963,-63.723,9.837,62.693,550.699,122.442,-24.733,-3.904,3.978,5.79,-75.037,-122.866,-31.666,4.75,-30.725,-51.5,-7.183,23.426,-31.51,28.74,1.148,29.363,28.418,-9.525,22.672,-113.134,-143.951,1
20.08,9.918,-179.835,-49.314,17,82.61,517.873,153.058,-12.926,5.833,8.585,10.907,-67.277,-125.817,-24.462,3.208,-37.354,-50.936,-15.885,16.23,-35.577,21.027,-8.587,10.89,47.857,-16.176,17.014,-115.582,-152.004,1
10.326,-8.535,-194.512,-74.368,-3.51,50.252,550.142,120.63,-38.016,-16.714,-9.867,-3.961,-83.091,-131.839,-39.807,-14.214,-47.051,-68.304,-27.652,-0.18,-50.911,-1.024,-24.46,-6.539,15.534,-34.603,-0.421,-140.057,-163.123,1
-1.467,-16.212,-195.854,-92.225,-13.752,23.05,582.38,88.234,-56.421,-37.19,-21.64,-11.129,-95.816,-128.121,-52.575,-17.786,-43.418,-68.235,-21.989,5.968,-53.421,5.125,-14.701,6.787,4.248,-33.031,-0.421,-138.893,-165.009,1
14.928,2.248,-178.24,-63.955,10.852,52.741,549.522,120.933,-36.384,-15.123,1.948,11.424,-72.154,-113.648,-33.567,2.724,-25.956,-39.478,0.575,29.528,-32.363,33.809,8.367,25.736,37.031,-11.481,19.56,-111.089,-147.426,1
27.208,5.319,-173.451,-52.108,22.112,69.594,516.697,153.6,-21.491,6.921,16.803,21.658,-55.688,-99.702,-18.164,11.431,-18.758,-28.168,5.185,31.548,-27.208,33.263,1.186,17.513,32.896,-7.371,23.126,-108.929,-147.791,1
8.226,-11.08,-188.134,-74.598,2.622,52.106,548.968,136.54,-28.642,-3.844,-0.12,5.755,-69.977,-101.139,-30.441,-0.876,-27.96,-48.632,-10.702,14.098,-46.648,10.688,-20.844,-0.435,0.587,-24.782,7.734,-128.8,-174.795,1
-4.078,-14.143,-202.291,-80.159,-9.163,44.369,568.912,124.108,-34.761,-16.136,-9.854,-2.448,-78.104,-116.407,-44.243,-7.535,-36.642,-63.952,-17.864,5.887,-52.749,6.579,-20.311,-0.947,3.661,-29.881,2.091,-127.134,-188.965,1
4.635,-5.419,-202.601,-66.758,-4.031,45.35,601.13,120.398,-35.239,-12.534,-3.696,1.141,-72.39,-124.488,-43.686,-7.528,-39.166,-59.79,-15.284,7.418,-43.987,14.257,-13.631,5.202,36.445,-22.678,8.749,-109.588,-177.505,1
7.192,-6.438,-188.566,-64.642,-1.466,41.718,617.436,114.642,-36.228,-12.009,-6.766,-0.397,-76.416,-122.827,-39.032,-12.643,-41.689,-59.73,-22.953,3.825,-48.554,6.558,-23.863,-4.025,36.408,-27.779,5.154,-111.016,-161.446,1
-0.499,-18.215,-180.693,-74.824,-6.587,38.09,584.543,116.577,-41.315,-19.681,-16.493,-8.081,-86.074,-126.29,-44.628,-17.753,-42.672,-68.892,-34.714,-4.376,-57.215,-5.744,-34.598,-19.39,7.17,-40.046,-5.097,-125.249,-161.797,1
-0.499,-19.221,-190.758,-74.237,-5.556,38.052,568.077,121.583,-44.86,-20.686,-12.891,-9.61,-85.475,-126.164,-48.17,-13.637,-36.994,-64.725,-26.994,-0.273,-48.448,0.41,-25.342,-11.174,12.286,-34.371,-0.482,-120.001,-169.32,1
9.235,-2.296,-186.469,-57.256,8.282,51.846,549.578,134.269,-35.081,-6.833,2.491,4.232,-73.607,-112.205,-30.191,-2.353,-24.149,-49.291,-4.938,19.195,-36.105,21.414,-5.849,16.502,22.52,-10.77,15.913,-96.315,-154.294,1
16.398,9.489,-164.253,-45.928,19.032,69.725,516.753,156.677,-21.726,9.567,11.198,16.011,-58.164,-97.748,-14.279,5.334,-13.879,-43.094,3.264,28.909,-37.093,32.151,2.354,29.293,17.887,1.536,19.995,-86.997,-130.573,1
9.722,4.357,-166.651,-52.03,13.378,61.971,549.024,157.032,-20.167,8.021,5.552,7.285,-55.544,-95.601,-23.999,0.718,-17.451,-45.612,-5.961,19.146,-42.179,21.36,-4.82,17.481,21.967,-9.224,10.754,-99.205,-144.787,1
-0.534,-5.381,-188.001,-59.15,3.118,41.929,581.262,124.6,-31.418,-10.43,-4.7,-0.919,-67.272,-101.653,-36.782,-6.967,-23.581,-48.128,-9.029,11.443,-45.211,11.605,-14.037,0.557,37.827,-20.998,6.132,-107.303,-174.356,1
6.127,-5.376,-185.764,-55.505,2.603,37.276,613.469,99.372,-40.608,-18.617,-5.72,5.23,-72.328,-103.089,-32.647,-5.936,-20.996,-51.666,-3.897,16.042,-47.727,17.741,-13.511,-3.542,40.351,-18.928,11.762,-97.462,-168.034,1
14.83,0.265,-170.209,-48.79,7.211,43.899,580.58,124.888,-34.932,-9.376,-2.128,5.225,-64.571,-100.424,-28.516,-3.881,-23.024,-53.664,-9.016,15.514,-46.142,17.724,-11.96,5.683,34.163,-14.81,14.311,-86.606,-153.009,1
0.47,-5.371,-167.989,-51.302,3.618,45.392,547.724,151.916,-27.725,-7.83,-6.225,-3.49,-66.555,-106.471,-36.685,-12.586,-33.76,-57.196,-23.864,1.666,-49.682,0.287,-21.682,1.579,34.641,-22.993,4.051,-96.253,-159.004,1
-12.85,-16.636,-171.92,-59.96,-8.169,34.076,579.964,127.173,-37.943,-18.581,-15.952,-7.585,-76.735,-115.586,-47.406,-21.795,-37.312,-64.824,-32.037,-9.094,-60.904,-10.984,-32.931,-16.353,23.335,-35.777,-7.224,-114.6,-160.894,1
0.995,-10.472,-169.698,-55.29,-9.698,30.456,595.266,114.75,-40.467,-18.05,-15.424,-6.04,-73.072,-109.323,-42.748,-18.187,-30.103,-60.148,-23.296,-0.888,-58.793,-0.726,-25.726,-13.263,7.43,-29.594,-2.094,-109.362,-158.684,1
12.265,-0.728,-168.504,-44.476,-0.979,45.794,562.395,147.423,-24.545,-6.249,-6.187,-2.448,-65.314,-97.943,-31.435,-12.021,-23.925,-45.231,-12.514,6.797,-48.488,9.52,-13.917,1.607,27.915,-15.22,5.593,-90.81,-170.309,1
-3.117,-12.51,-181.656,-51.604,-3.54,47.286,547.488,155.473,-24.52,-6.755,-7.205,-0.909,-68.835,-97.845,-38.575,-14.058,-21.339,-42.624,-16.6,0.13,-53.051,5.925,-19.539,-6.079,54.015,-23.401,0.464,-98.404,-175.261,1
-9.774,-20.182,-191.72,-58.212,-8.659,32.894,579.728,123.554,-35.254,-10.847,-10.272,-2.957,-66.205,-91.6,-46.222,-13.532,-17.732,-43.606,-17.096,0.643,-54.022,2.845,-24.642,-10.171,36.543,-32.599,-2.61,-110.088,-169.451,1
8.679,-5.817,-172.573,-45.346,1.083,36.959,611.936,120.357,-31.12,-5.2,-3.089,0.632,-55.38,-77.676,-33.368,-8.395,-15.665,-37.415,-3.758,11.913,-41.161,11.551,-14.884,3.159,20.624,-18.222,5.077,-91.535,-168.769,1
13.281,3.922,-152.42,-38.129,3.132,44.095,614.398,123.823,-32.114,-5.195,-0.525,4.217,-57.374,-83.233,-27.187,-7.875,-23.334,-43.013,-0.681,11.901,-40.607,18.2,-13.332,4.692,30.85,-8.982,9.683,-77.099,-164.502,1
1.485,3.406,-159.953,-39.115,-3.532,40.977,614.296,122.674,-31.569,-6.215,-1.037,3.189,-58.341,-96.982,-33.819,-9.404,-29.458,-50.142,-4.779,10.864,-43.128,19.718,-16.392,4.688,31.331,-10.51,12.235,-83.682,-153.579,1
10.193,7.501,-161.842,-28.83,6.206,55.793,581.406,151.241,-11.558,11.21,10.748,9.333,-42.914,-88.689,-26.101,-6.32,-24.306,-38.309,3.935,18.026,-30.277,23.797,-8.179,14.929,46.669,0.259,16.833,-73.865,-151.888,1
21.966,1.858,-151.434,-29.826,9.786,63.421,572.628,159.287,-13.083,10.687,6.638,7.275,-46.457,-83.477,-25.05,-12.974,-26.843,-39.295,-4.778,9.811,-34.345,10.966,-15.856,-1.992,75.824,-9.988,9.132,-66.106,-161.983,1
6.574,-12.488,-162.553,-47.214,-8.155,39.279,604.843,129.413,-38.173,-15.964,-17.959,-9.127,-69.464,-102.861,-47.567,-27.818,-41.161,-62.822,-32.95,-10.691,-53.779,-14.661,-37.869,-26.581,49.108,-40.716,-4.197,-88.582,-171.042,1
0.42,-2.742,-166.489,-36.921,-5.585,38.728,591.943,139.53,-26.864,-10.313,-12.306,-5.019,-62.735,-108.906,-47.007,-23.692,-37.021,-58.661,-25.745,-5.045,-43.991,-5.937,-28.097,-4.012,16.784,-28.38,4.004,-89.518,-157.551,1
19.887,16.216,-142.244,-12.293,13.888,63.792,615.429,163.981,-1.734,20.948,12.81,12.405,-38.594,-92.915,-23.906,-7.274,-23.664,-38.11,-0.616,17.501,-26.529,21.734,-6.04,23.656,38.796,3.411,20.394,-60.739,-133.827,1
20.892,7.491,-140.053,-19.453,6.702,56.044,615.326,146.399,-15.565,12.731,2.551,3.683,-46.752,-93.847,-27.468,-13.415,-34.911,-55.49,-8.812,15.947,-38.285,14.54,-16.28,5.189,60.787,-9.912,11.152,-61.19,-147.526,1
3.453,-6.349,-159.38,-34.803,-6.625,37.545,582.435,138.056,-35.017,-10.336,-14.87,-8.616,-61.05,-98.876,-42.81,-24.16,-42.561,-76.439,-17.513,1.586,-45.932,1.205,-24.973,-7.111,47.918,-24.759,-0.642,-71.375,-176.58,1
1.912,0.83,-157.172,-29.133,1.579,39.556,614.641,141.504,-33.445,-6.227,-5.122,0.614,-53.304,-83.92,-39.181,-16.451,-26.637,-60.994,-4.175,4.146,-34.615,13.499,-14.19,7.241,65.801,-6.804,7.555,-57.984,-160.522,1
8.571,1.853,-146.768,-31.665,0.553,30.808,646.814,119.333,-36.998,-7.246,-4.092,0.101,-53.251,-81.787,-35.043,-16.947,-28.659,-55.81,-8.269,4.655,-37.654,9.387,-18.786,0.061,85.715,-9.871,9.085,-57.926,-139.869,1
7.537,-9.419,-148.159,-41.88,-10.719,23.604,613.892,124.337,-36.961,-15.948,-16.383,-9.633,-60.37,-91.952,-38.594,-28.201,-42.463,-70.098,-19.02,-6.109,-44.789,-4.454,-24.915,-12.234,62.063,-26.255,-1.171,-71.7,-156.123,1
5.481,-5.311,-147.498,-30.055,-3.023,40.999,585.101,153.926,-22.067,-3.124,-9.707,-3.988,-51.6,-79.564,-38.556,-23.049,-30.125,-63.881,-8.242,-3.029,-37.059,5.284,-12.082,2.635,59.44,-18.032,2.417,-60.87,-163.139,1
2.914,2.379,-150.424,-16.705,2.615,46.594,617.303,143.526,-19.996,6.101,-2.525,0.627,-49.5,-71.288,-39.542,-15.342,-24.46,-56.644,-5.672,4.659,-35.998,9.89,-12.07,8.78,88.582,-11.866,9.587,-49.026,-148.119,1
4.448,-2.747,-149.762,-25.397,-4.56,39.375,609.514,133.649,-23.562,1.484,-7.645,-0.398,-51.499,-80.95,-37.453,-17.376,-35.194,-64.272,-11.814,2.093,-39.548,3.732,-20.255,-0.963,81.321,-15.952,6.503,-50.514,-143.36,1
10.079,-2.232,-138.854,-32.544,1.08,48.045,576.629,152.983,-14.317,8.142,-3.027,5.75,-38.64,-73.185,-30.243,-13.772,-26.961,-63.696,-1.044,7.214,-30.799,12.437,-9.989,6.21,48.964,-7.227,8.033,-43.291,-151.926,1
4.433,-2.23,-147.936,-33.536,3.641,43.386,587.835,145.658,-18.913,7.622,-1.999,3.695,-39.626,-67.989,-37.385,-12.734,-21.811,-66.706,1.519,10.28,-31.281,11.913,-8.442,11.327,35.083,-6.195,8.025,-40.174,-167.656,1
-1.207,-10.424,-162.133,-41.187,-5.585,28.486,586.735,133.729,-31.19,-5.193,-12.243,-2.969,-49.833,-80.216,-44.52,-19.893,-30.499,-71.762,-9.754,3.61,-39.958,3.192,-18.68,-2.004,60.151,-15.923,2.894,-45.257,-171.586,1
9.041,-2.217,-145.577,-37.048,3.642,43.314,553.873,160.747,-14.252,4.546,-5.571,4.206,-36.463,-66.816,-32.693,-14.238,-17.661,-56.321,-0.522,9.242,-30.697,14.971,-8.415,-3.539,92.879,-6.173,10.576,-38.04,-149.898,1
8.519,5.982,-139.796,-22.666,9.787,54.541,537.438,170.833,-2.967,16.836,2.631,5.227,-31.303,-50.867,-29.586,-11.662,-10.983,-51.654,7.675,13.331,-25.543,19.055,0.303,7.735,93.298,-1.044,14.664,-39.538,-145.649,1
-10.957,-15.541,-168.858,-35.451,-10.203,27.847,569.688,138.387,-29.092,-2.648,-15.302,-8.611,-52.789,-70.797,-48,-27.532,-30.952,-69.533,-9.751,-4.101,-42.424,-1.456,-13.017,1.068,63.491,-18.974,-0.72,-58.454,-170.095,1
-12.995,-30.382,-183.546,-61.031,-19.927,6.814,601.906,105.973,-48.018,-19.552,-26.045,-12.701,-58.371,-78.41,-53.075,-34.677,-33.995,-67.927,-19.475,-12.293,-50.578,-7.603,-23.251,-15.327,58.817,-24.078,-7.379,-55.834,-179.146,1
0.85,-20.106,-176.702,-57.384,-11.198,11.931,617.698,106.891,-37.212,-11.335,-15.261,-6.54,-47.555,-60.914,-40.214,-26.957,-23.202,-54.539,-10.747,-3.572,-40.794,1.627,-20.153,-15.312,66.442,-13.295,-0.2,-40.921,-175.381,1
2.898,-13.425,-171.915,-38.883,-8.113,26.263,584.805,139.572,-22.318,1.996,-6.536,-0.386,-42.896,-58.291,-37.612,-22.32,-24.204,-53.972,-3.563,2.067,-32.556,6.748,-10.912,-0.44,70.474,-8.671,4.411,-43.442,-175.205,1
1.871,-10.85,-163.034,-33.209,1.117,41.606,551.944,169.146,-11.025,13.777,-1.407,8.836,-32.607,-58.745,-38.599,-14.613,-18.032,-47.258,3.612,9.75,-29.45,14.938,-1.679,7.758,89.872,-5.589,8.505,-39.813,-164.784,1
5.455,-11.352,-163.383,-36.25,7.264,41.052,584.18,151.559,-11.526,13.251,-3.454,5.241,-28.988,-55.1,-36.511,-15.623,-19.039,-43.112,-1.002,8.715,-34.543,10.825,-9.875,-4.545,89.27,-10.194,2.862,-35.674,-166.668,1
-0.698,-26.197,-178.589,-43.898,-11.187,23.081,584.621,129.378,-27.396,-3.668,-16.771,-8.597,-44.329,-69.902,-43.647,-32.001,-37.975,-58.439,-16.883,-8.2,-44.755,-7.117,-23.697,-20.422,63.565,-24.528,-11.486,-58.692,-183.408,1
-6.333,-28.22,-173.287,-46.928,-17.836,19.471,551.761,139.495,-28.393,-6.226,-14.705,-4.49,-43.26,-67.271,-48.214,-29.408,-32.814,-57.868,-9.693,-4.093,-40.612,-0.45,-16.501,-15.279,65.038,-21.43,-6.864,-68.368,-174.515,1
-0.691,-11.798,-154.158,-32.024,-0.399,35.333,550.184,159.848,-12.995,9.662,-0.858,6.273,-27.335,-35.44,-38.432,-14.521,-12.289,-33.219,8.759,14.866,-28.788,16.457,-7.263,-2.456,74.195,-8.601,5.951,-40.635,-162.045,1
2.384,-9.737,-158.615,-21.234,0.113,38.884,517.359,167.885,-10.933,12.214,-5.98,0.119,-30.894,-33.356,-37.882,-22.704,-16.375,-29.088,-2.008,4.605,-33.882,3.12,-15.965,-10.65,72.584,-15.764,-2.252,-27.786,-174.691,1
-2.229,-22.535,-168.703,-33.508,-16.281,24.501,549.629,153.885,-19.119,-0.094,-18.27,-7.053,-42.646,-56.376,-50.139,-35.489,-30.703,-48.014,-19.424,-14.867,-44.607,-13.789,-25.171,-26.009,84.806,-28.044,-10.447,-46.202,-176.566,1
-6.326,-27.124,-165.46,-48.331,-22.412,10.644,581.867,128.115,-27.297,-7.779,-19.276,-8.583,-44.14,-60.418,-55.212,-34.941,-36.82,-58.212,-20.942,-15.364,-44.05,-11.214,-27.195,-24.958,68.328,-27.504,-5.825,-58.451,-165.631,1
-9.393,-26.584,-163.245,-51.869,-22.39,8.072,549.01,126.963,-34.442,-10.332,-20.794,-14.21,-45.633,-61.382,-56.181,-40.029,-41.394,-58.154,-22.458,-15.861,-45.031,-12.739,-30.241,-22.372,35.984,-30.038,-8.381,-54.806,-175.199,1
-5.285,-20.922,-161.033,-43.62,-18.781,18.822,516.185,151.426,-27.748,-3.662,-19.236,-11.122,-39.952,-59.272,-53.051,-38.452,-34.693,-52.46,-17.312,-14.308,-46.523,-12.214,-25.6,-26.448,61.051,-30.52,-11.959,-42.456,-183.733,1
2.917,-13.217,-147.552,-23.084,-8.004,35.71,534.625,171.767,-10.301,10.174,-7.434,0.16,-26.08,-43.331,-42.24,-24.069,-19.289,-39.088,-1.413,-0.462,-34.181,1.118,-15.328,-21.811,93.778,-20.243,-2.725,-27.557,-170.741,1
0.352,-14.74,-145.355,-15.889,-5.947,36.698,566.878,165.448,-11.828,10.164,-6.402,-2.401,-27.591,-47.386,-44.247,-27.119,-22.343,-34.95,-4.998,0.563,-29.536,0.092,-18.387,-15.641,72.679,-20.735,0.351,-26.504,-165.448,1
-5.283,-21.898,-160.067,-34.828,-16.187,15.145,599.099,133.007,-31.284,-7.265,-20.227,-12.133,-41.395,-66.294,-60.596,-43.485,-34.616,-43.624,-21.387,-14.294,-44.363,-14.765,-31.689,-24.847,40.331,-32.498,-8.871,-37.749,-180.651,1
1.894,-21.876,-162.468,-40.429,-19.757,4.884,628.213,118.017,-32.789,-13.405,-24.306,-9.559,-40.329,-51.371,-60.536,-41.905,-27.922,-39.482,-15.218,-12.231,-43.806,-10.652,-28.071,-25.335,47.976,-27.342,-9.886,-35.662,-184.057,1
6.503,-12.12,-141.813,-15.798,-8.466,27.932,595.31,150.687,-11.752,6.076,-10.961,0.697,-24.92,-24.167,-47.668,-29.055,-14.574,-25.611,3.24,4.175,-25.832,4.216,-11.137,-8.403,80.715,-11.946,1.394,-20.257,-160.819,1
-5.286,-3.399,-128.864,-3.486,-0.261,45.835,562.439,182.299,-0.982,18.365,-3.778,2.745,-20.796,-27.729,-45.571,-28.002,-19.682,-29.683,1.188,2.122,-25.294,0.626,-14.199,-11.981,90.368,-13.983,3.442,-14.601,-153.998,1
-12.454,-11.592,-142.055,-20.901,-9.482,27.346,594.664,154.964,-18.399,-0.096,-17.094,-8.528,-35.12,-45.12,-51.673,-41.294,-34.007,-41.949,-18.793,-17.348,-39.101,-15.769,-32.628,-31.949,82.081,-31.387,-9.369,-26.882,-184.07,1
-9.367,-32.586,-159.844,-39.836,-27.916,0.679,626.857,123.046,-37.849,-22.125,-35.008,-22.352,-51.991,-53.272,-60.843,-53.548,-41.658,-48.055,-32.094,-26.552,-45.722,-27.536,-38.743,-38.577,86.61,-43.651,-21.143,-44.274,-202.329,1
-13.456,-38.188,-162.245,-37.235,-32.499,-0.346,593.955,125.997,-34.737,-20.054,-35.998,-22.33,-49.378,-55.268,-66.93,-52.47,-45.202,-56.204,-30.013,-23.964,-47.725,-29.045,-36.143,-40.075,86.523,-43.608,-21.122,-46.278,-186.245,1
-12.418,-19.707,-150.812,-15.168,-14.535,22.708,561.086,158.659,-11.648,2.508,-18.543,-7.963,-27.811,-50.602,-55.08,-38.585,-36.96,-49.488,-17.175,-14.718,-38.456,-17.233,-32.521,-33.375,56.211,-30.244,-10.342,-21.129,-175.301,1
0.402,-4.318,-132.731,-1.321,1.361,40.104,577.943,184.116,4.757,17.874,-6.229,1.267,-13.439,-38.768,-39.655,-25.739,-22.579,-27.409,-3.326,-3.433,-25.097,-0.822,-20.705,-8.751,60.765,-15.357,-0.598,3.483,-169.49,1
-5.746,-16.097,-127.987,-23.861,-17.596,15.985,610.153,151.656,-14.715,-0.587,-18.518,-8.469,-26.233,-36.68,-48.325,-33.397,-24.605,-28.918,-8.958,-10.602,-38.905,-7.481,-21.709,-11.816,93.492,-22.514,-8.794,-7.791,-158.05,1
-32.893,-41.184,-151.425,-53.551,-48.829,-16.306,642.33,119.229,-46.464,-32.349,-41.554,-27.415,-50.285,-49.963,-71.843,-54.369,-38.925,-49.894,-32.003,-34.157,-61.92,-34.626,-43.204,-44.08,82.64,-46.57,-29.79,-34.424,-169.675,1
-37.983,-44.729,-168.18,-45.813,-46.219,-13.728,609.413,150.873,-43.343,-32.317,-46.123,-30.974,-54.846,-55.036,-77.406,-59.437,-42.985,-50.356,-37.606,-37.709,-58.784,-41.252,-48.284,-45.573,50.282,-50.622,-30.785,-31.828,-191.534,1
-13.354,-21.63,-148.032,-14.516,-20.045,19.073,576.528,183.51,-19.222,-9.231,-28.146,-16.086,-37.885,-39.1,-57.349,-43.496,-34.745,-35.449,-17.076,-16.667,-40.794,-17.644,-26.206,-18.887,72.261,-25.468,-12.311,0.992,-181.097,1
1.516,-3.166,-126.879,1.38,-8.754,32.886,608.739,180.765,-12.03,4.611,-10.187,-3.263,-22.99,-27.79,-38.848,-31.158,-27.026,-30.803,-3.739,-6.917,-29.483,-0.208,-11.323,-9.134,104.976,-7,-2.053,21.483,-158.886,1
-15.392,-13.921,-132.9,-8.355,-17.967,19.533,600.958,176.998,-15.604,-0.005,-18.374,-8.895,-25.529,-36.984,-47.006,-37.786,-34.171,-38.457,-15.519,-20.23,-36.113,-14.553,-24.12,-15.273,82.842,-21.849,-10.247,0.457,-159.24,1
-36.381,-40.547,-145.575,-30.376,-36.904,2.095,568.082,170.673,-26.347,-19.472,-41.922,-26.304,-41.897,-45.144,-68.989,-54.142,-48.481,-47.64,-33.946,-36.603,-55.545,-38.104,-44.076,-30.627,56.119,-46.931,-26.119,-28.745,-175.987,1
-30.197,-47.166,-146.966,-37.006,-45.064,-5.591,600.301,151.035,-37.079,-28.674,-43.417,-29.352,-45.441,-35.877,-71.994,-57.674,-42.285,-43.494,-34.424,-36.567,-57.026,-39.603,-46.081,-44.429,76.043,-48.421,-29.166,-20.519,-184.52,1
-14.285,-33.287,-148.356,-23.649,-35.285,5.173,579.721,164.204,-30.382,-13.789,-28.516,-16.515,-31.564,-25.083,-59.114,-43.784,-28.411,-31.155,-25.169,-29.358,-44.161,-28.293,-36.813,-34.65,82.115,-36.589,-17.866,-3.08,-176.651,1
-18.881,-35.815,-155.38,-25.674,-32.176,7.729,552.501,171.724,-27.79,-11.726,-33.099,-17.523,-34.606,-28.131,-61.616,-43.741,-37.604,-31.636,-29.242,-31.89,-47.703,-31.85,-38.313,-30.517,67.688,-39.626,-19.898,-14.86,-176.986,1
-25.01,-43.976,-150.614,-36.407,-36.243,-3.549,584.736,147.986,-35.959,-22.985,-37.164,-22.116,-42.256,-29.128,-63.092,-49.845,-39.615,-30.58,-27.676,-30.833,-48.168,-33.868,-38.275,-41.757,94.773,-42.661,-26.538,-21.505,-187.056,1
-9.104,-24.977,-124.848,-18.952,-20.325,11.823,593.886,164.232,-21.579,-6.056,-15.098,-3.139,-18.135,-15.266,-41.512,-31.864,-14.985,-10.057,-4.594,-13.896,-30.189,-14.879,-22.355,-28.396,127.466,-27.761,-10.63,2.082,-167.913,1
-2.947,-10.095,-113.965,6.682,-9.546,35.89,561.016,196.343,-3.114,14.443,-3.812,7.111,-1.211,-11.153,-31.736,-19.537,-10.359,-3.387,2.583,-7.735,-27.597,-6.667,-15.673,-10.436,98.649,-17.999,-1.91,14.376,-150.839,1
-16.264,-21.356,-131.269,4.626,-23.369,25.608,569.677,184.876,-12.332,3.67,-18.665,-10.315,-18.628,-15.752,-46.049,-35.399,-26.23,-18.753,-10.74,-18.486,-38.328,-17.931,-25.903,-19.648,66.275,-24.129,-14.203,9.238,-179.89,1
-16.76,-25.945,-140.872,-6.649,-29.493,13.287,601.895,174.445,-20.005,-7.092,-23.769,-15.428,-25.269,-4.978,-49.589,-40.999,-23.13,-22.32,-11.241,-23.59,-37.265,-20.987,-32.537,-22.702,80.553,-26.154,-15.726,15.377,-195.591,1
-12.133,-27.968,-139.706,-16.376,-31.513,12.249,633.568,169.66,-23.059,-10.159,-26.819,-13.363,-22.683,-2.412,-50.564,-36.859,-23.107,-22.298,-16.353,-28.177,-41.839,-26.601,-38.14,-24.728,87.645,-33.813,-17.247,8.701,-176.953,1
-19.805,-40.236,-143.665,-21.483,-42.752,1.478,604.245,157.195,-30.208,-18.346,-37.551,-23.083,-32.906,-24.438,-62.809,-48.606,-42.039,-36.108,-33.243,-37.883,-51.531,-38.87,-44.25,-45.708,68.602,-49.148,-29.526,-18.972,-177.8,1
-12.613,-26.363,-129.689,0.055,-26.828,19.408,571.366,189.825,-8.148,0.628,-22.656,-13.327,-20.065,-19.803,-52.5,-42.922,-38.411,-35.559,-19.89,-29.136,-35.598,-25.511,-33.959,-36.953,101.321,-35.267,-17.201,-9.219,-175.573,1
-0.305,-4.82,-114.702,21.572,-5.796,49.614,585.139,222.423,19.012,26.755,-2.654,4.105,5.058,10.443,-32.98,-23.411,-17.368,-17.081,0.622,-12.201,-19.681,-9.092,-21.118,-11.813,128.884,-12.178,-1.302,23.578,-156.955,1
-13.112,-21.209,-133.031,4.644,-29.357,23.949,617.342,189.925,-1.499,9.822,-20.07,-8.707,-7.243,4.285,-45.755,-32.609,-22.986,-15.527,-16.797,-20.898,-34.518,-25.989,-32.88,-23.584,96.48,-27.022,-18.719,20.992,-173.704,1
-23.345,-36.557,-140.582,-9.193,-46.233,-2.202,598.794,166.169,-20.453,-9.143,-33.37,-17.407,-21.58,-15.7,-56.98,-42.823,-33.209,-22.684,-25.489,-31.123,-41.656,-33.135,-42.581,-32.782,69.231,-40.828,-26.897,1.504,-189.412,1
-12.564,-24.737,-120.462,4.137,-24.158,19.829,565.919,198.791,-3.527,4.186,-20.016,-5.094,-8.751,-3.389,-43.603,-30.997,-23.442,-18.562,-7.533,-19.309,-28.294,-16.196,-32.804,-20.967,101.95,-25.418,-10.477,8.162,-169.242,1
-15.113,-31.373,-131.612,-2.015,-27.72,16.223,598.141,192.957,-6.597,-2.99,-26.656,-11.237,-15.402,2.763,-45.608,-35.576,-21.882,-15.47,-15.722,-22.363,-30.315,-23.352,-33.796,-36.315,120.803,-30.003,-17.638,9.179,-177.27,1
-27.393,-48.76,-155.047,-21.481,-51.771,-15.044,630.331,160.488,-24.009,-24.504,-42.511,-24.033,-32.293,-9.023,-59.395,-48.861,-28.008,-13.918,-29.027,-40.784,-41.043,-40.235,-42.471,-49.086,88.407,-46.367,-32.478,4.559,-201.171,1
-25.316,-37.952,-134.912,-10.701,-39.936,-2.221,625.602,170.062,-12.202,-13.209,-30.173,-14.275,-16.891,1.744,-53.188,-37.541,-18.758,-6.219,-13.628,-34.596,-34.854,-30.461,-32.695,-25.471,100.102,-33.513,-21.687,21.46,-175.867,1
-20.68,-31.255,-119.407,6.216,-26.576,19.298,592.701,202.679,-0.919,1.149,-21.946,-10.163,-4.067,20.698,-45.45,-29.819,-13.616,-5.188,-10.028,-26.364,-28.159,-26.332,-28.564,-19.81,124.592,-27.331,-18.079,19.39,-153.15,1
-19.635,-40.957,-135.17,2.624,-36.796,10.57,559.833,209.649,-8.602,-3.975,-31.146,-18.349,-17.383,18.116,-48.991,-38.499,-21.8,-8.257,-24.363,-35.559,-32.742,-38.088,-40.831,-35.672,94.242,-39.087,-27.282,1.439,-176.563,1
-15.517,-32.719,-126.325,2.109,-31.123,11.584,592.061,198.169,-4.495,0.639,-24.967,-12.183,-13.779,13.487,-44.331,-35.898,-17.167,-1.076,-15.117,-28.351,-27.586,-29.853,-35.667,-21.804,74.68,-27.777,-18.546,21.418,-184.071,1
-15.501,-21.928,-107.243,11.328,-19.821,19.257,624.256,188.749,1.657,7.299,-14.696,-6.024,2.116,18.596,-38.651,-27.153,-8.953,4.56,-0.245,-16.54,-17.312,-17.016,-22.824,-7.437,107.393,-15.454,-10.843,38.303,-162.882,1
-20.096,-33.689,-121.993,8.243,-28.511,8.991,591.357,188.56,-8.591,-1.418,-25.952,-15.751,-6.595,17.553,-43.223,-32.249,-15.092,-0.567,-7.417,-27.282,-22.931,-26.22,-31.51,-24.336,125.728,-31.833,-24.152,13.674,-169.379,1
-20.076,-40.316,-130.068,1.062,-33.093,5.396,558.49,199.13,-13.193,-5.003,-33.098,-15.736,-18.372,13.437,-41.643,-32.217,-18.663,0.97,-8.947,-28.791,-29.568,-30.805,-36.601,-35.07,101.524,-36.412,-28.226,9.562,-195.85,1
-23.13,-33.615,-119.692,3.111,-29.474,11.026,590.719,195.857,-8.057,-1.924,-24.868,-5.986,-8.107,15.473,-37.503,-25.012,-16.083,3.531,-1.253,-18.004,-23.903,-21.553,-27.856,-29.912,90.664,-26.129,-17.952,30.557,-200.777,1
-31.816,-33.582,-131.868,6.694,-37.129,4.355,622.916,179.78,-15.221,-8.07,-27.405,-13.152,-8.611,14.945,-44.126,-31.135,-23.751,-9.281,-10.473,-29.769,-26.953,-29.728,-35,-35.518,110.041,-33.275,-23.569,25.403,-187.768,1
-23.075,-28.425,-134.297,15.908,-36.067,7.425,590.018,193.944,-14.694,-6.525,-30.451,-18.775,-17.824,19.029,-44.594,-35.203,-24.752,-11.321,-21.221,-37.936,-32.049,-41.994,-45.211,-33.945,114.542,-34.779,-28.669,25.89,-169.138,1
-3.584,-7.392,-101.375,34.336,-15.539,33.032,557.152,226.538,8.887,13.462,-14.539,-1.85,0.637,32.33,-26.618,-20.823,-10.895,8.671,-6.856,-18.431,-14.598,-25.046,-30.309,-12.907,105.206,-12.715,-11.222,53.529,-147.964,1
-10.241,-6.36,-89.491,34.301,-13.986,37.098,589.383,228.873,16.051,18.572,-9.402,0.714,12.419,25.125,-24.543,-17.728,-14.983,4.051,-2.238,-17.9,-7.924,-16.311,-25.156,-9.308,109.712,-10.141,-5.575,55.012,-153.964,1
-35.334,-35.043,-121.677,7.627,-38.051,5.298,621.581,196.369,-10.093,-6.038,-33.471,-21.316,-12.696,-5.126,-49.621,-39.74,-39.558,-28.228,-30.413,-45.034,-31.482,-43.96,-50.234,-36.963,102.942,-39.844,-29.135,27.805,-186.085,1
-31.2,-47.815,-137.949,-4.676,-46.21,-10.077,653.747,169.02,-18.792,-13.204,-40.609,-23.856,-19.856,-2.047,-56.232,-44.823,-38.494,-25.126,-34.481,-44.989,-33.5,-51.088,-55.307,-49.221,92.593,-48.514,-35.254,22.654,-191.534,1
-5.553,-25.226,-108.609,19.407,-26.184,19.647,620.818,201.127,9.404,18.06,-11.88,-1.803,12.439,30.742,-30.048,-18.65,-11.816,7.687,-1.658,-13.181,-3.24,-18.249,-22.464,-24.069,125.288,-18.239,-12.677,48.759,-164.703,1
-4.011,-7.27,-95.693,35.269,-12.325,41.144,587.922,233.713,24.763,33.923,0.428,6.395,24.21,33.786,-18.235,-5.824,-4.632,12.802,12.688,-0.873,3.423,-3.886,-9.633,-3.04,143.606,0.735,-2.931,69.715,-160.952,1
-19.888,-24.169,-114.553,13.205,-23.584,17.025,597.068,216.061,2.709,10.323,-21.09,-6.931,1.644,11.21,-33.073,-22.724,-17.947,-12.826,-11.403,-20.34,-15.023,-28.985,-30.116,-14.308,111.187,-14.635,-17.272,56.325,-172.574,1
-21.918,-45.149,-129.295,-5.252,-38.929,-5.021,629.259,183.57,-17.786,-8.13,-35.413,-19.219,-12.702,16.322,-42.262,-34.485,-22.54,-12.301,-24.2,-34.152,-22.181,-45.863,-44.431,-34.786,90.583,-34.088,-29.551,26.043,-171.377,1
-18.822,-43.567,-127.117,6.537,-40.939,4.717,596.354,189.534,-12.645,-5.048,-30.767,-19.2,-10.128,30.65,-41.707,-31.889,-19.956,2.056,-23.151,-30.531,-19.597,-44.792,-43.874,-42.436,123.28,-35.591,-28.496,19.356,-179.915,1
-23.414,-39.938,-118.28,9.604,-36.8,10.348,563.482,211.373,-3.411,-0.945,-29.712,-16.107,-6.019,21.398,-42.178,-32.881,-24.034,-8.192,-26.202,-27.939,-17.016,-40.649,-42.805,-37.27,140.575,-28.383,-24.882,32.145,-192.03,1
-22.366,-44.508,-113.551,-4.238,-33.689,5.727,595.706,212.187,-0.333,3.155,-27.633,-13.017,2.184,19.84,-38.549,-31.824,-25.547,-16.893,-20.028,-28.424,-11.363,-34.461,-36.615,-28.524,108.159,-22.72,-26.394,38.773,-179.03,1
-14.147,-39.853,-112.413,6.525,-30.582,15.967,588.451,212.999,8.889,10.324,-20.433,-6.857,12.428,36.214,-33.388,-23.595,-11.689,3.616,-12.323,-23.272,-9.815,-31.865,-30.43,-29.008,112.15,-24.234,-25.855,40.271,-172.704,1
-14.645,-36.739,-121.01,22.912,-34.137,18.513,555.587,217.397,11.441,7.752,-23.486,-8.387,10.878,34.128,-36.428,-24.084,-6.042,13.858,-20.508,-21.712,-13.391,-39.517,-37.572,-34.614,116.136,-31.894,-23.78,36.132,-195.073,1
-24.876,-48.998,-135.746,5.471,-43.325,-0.973,587.819,202.835,-4.964,-5.576,-34.221,-18.624,-1.94,12.065,-43.052,-33.281,-24.479,-12.283,-30.733,-31.936,-15.939,-47.162,-46.756,-36.116,83.745,-35.448,-28.879,30.461,-204.611,1
-22.802,-44.851,-126.901,-1.707,-39.183,-3.021,620.019,193.41,-8.545,-4.033,-29.576,-15.532,-1.426,8.979,-38.398,-30.174,-31.115,-19.443,-21.993,-31.904,-12.337,-39.943,-35.439,-33.006,105.178,-25.679,-25.777,45.799,-179.816,1
-5.361,-21.24,-93.986,30.058,-22.238,23.622,624.01,216.783,17.591,21.074,-9.567,1.902,22.141,34.586,-20.429,-12.726,-5.468,13.364,-1.991,-9.843,0.483,-21.972,-18.497,-23.752,137.86,-10.796,-10.894,67.27,-150.435,1
-4.331,-18.145,-83.646,40.274,-17.605,35.893,591.11,237.571,31.406,34.373,-2.897,4.974,34.415,51.969,-14.261,-4.004,7.857,32.818,3.646,-2.149,7.654,-18.364,-21.04,-18.605,145.919,-8.736,-8.321,60.543,-151.309,1
-21.233,-34.008,-105.079,19.229,-26.296,24.074,558.244,224.013,15.493,16.92,-14.165,-5.277,17.986,42.696,-26.542,-12.709,-7.52,18.441,-7.116,-18.54,-0.55,-28.592,-31.778,-28.833,113.498,-18.462,-17.022,47.675,-174.211,1
-23.773,-37.048,-113.684,17.673,-32.93,11.243,590.473,203.809,3.694,3.071,-24.397,-10.907,7.21,32.919,-32.151,-23.967,-15.197,6.127,-13.769,-24.157,-7.21,-31.637,-30.209,-32.902,87.257,-23.054,-17.518,53.775,-179.673,1
-19.651,-39.06,-111.008,19.192,-40.582,0.985,622.67,199.507,3.69,1.531,-31.033,-17.044,7.715,32.886,-32.118,-27.529,-16.206,-2.588,-18.366,-25.158,-10.276,-38.266,-34.79,-31.845,82.046,-25.592,-23.648,52.697,-182.054,1
-29.877,-48.242,-120.119,1.242,-47.201,-1.065,589.772,208.017,0.101,-3.594,-36.637,-23.175,1.047,24.144,-41.82,-29.551,-25.412,-11.295,-29.618,-39.477,-15.389,-52.06,-48.075,-48.207,89.649,-36.325,-36.432,43.422,-208,1
-25.237,-42.559,-117.437,4.827,-34.859,15.33,556.907,225.74,8.81,6.656,-27.891,-13.93,9.243,24.632,-35.118,-24.398,-20.775,-0.013,-21.392,-32.265,-6.152,-42.274,-38.805,-51.745,115.687,-33.727,-27.686,52.6,-204.718,1
-6.768,-26.635,-98.364,33.511,-18.942,28.122,589.138,234.223,25.195,27.654,-10.957,-0.084,31.263,44.588,-13.566,-12.078,-6.922,12.283,0.659,-9.179,9.223,-20.714,-19.299,-26.59,123.768,-12.689,-10.24,65.356,-171.726,1
-16.495,-31.731,-104.926,35.527,-29.169,12.725,621.336,212.472,14.411,16.868,-18.118,-6.744,22.523,41.469,-20.725,-14.628,-15.112,0.487,-9.588,-20.953,-0.007,-30.428,-31.062,-31.174,113.911,-16.262,-18.939,55.556,-168.992,1
-36.971,-52.192,-131.461,13.462,-45.534,-4.706,588.44,199.452,-4.559,-6.203,-37.568,-23.131,-0.554,20.936,-44.271,-31.519,-30.979,-9.247,-34.681,-46.548,-16.401,-57.037,-52.036,-58.295,108.161,-45.448,-38.9,42.181,-201.099,1
-27.713,-48.041,-126.719,16.523,-35.242,4.008,555.576,223.843,7.741,3.025,-31.895,-18.497,8.668,32.185,-35.005,-28.414,-21.726,4.082,-25.425,-35.743,-7.163,-51.857,-41.225,-44.404,101.906,-41.304,-32.201,50.848,-203.972,1
-10.779,-26.988,-101.489,33.412,-19.838,18.348,587.808,231.304,19.517,18.391,-13.932,-2.597,24.541,50.596,-11.916,-10.967,-6.848,16.886,-5.42,-15.727,9.238,-26.19,-20.692,-17.208,114.611,-10.524,-12.701,69.24,-170.98,1
-14.866,-29.011,-103.437,25.182,-24.941,13.207,620.008,204.945,6.689,11.2,-15.968,-6.18,17.857,36.713,-16.002,-13.518,-15.038,7.647,-12.074,-22.884,6.155,-28.725,-25.282,-27.437,133.452,-12.563,-16.275,70.708,-171.834,1
-22.536,-41.277,-113.579,13.886,-31.064,8.583,587.113,211.912,7.195,8.115,-25.685,-15.396,13.74,30.529,-28.794,-23.238,-25.269,-7.217,-22.821,-35.156,-1.024,-47.139,-38.577,-42.266,114.363,-33.555,-30.603,60.903,-185.494,1
-18.928,-33.551,-99.634,29.754,-23.348,22.919,554.25,244.488,26.656,20.915,-18.487,-8.208,22.436,49.966,-19.544,-13.993,-16.534,-0.55,-12.039,-25.899,4.613,-38.895,-32.903,-35.564,105.027,-24.812,-23.4,65.965,-168.402,1
-15.835,-27.882,-93.899,39.97,-21.276,28.019,586.484,238.096,27.141,24.48,-11.809,-2.052,24.463,57.089,-8.766,-5.27,-6.784,13.283,-1.781,-15.115,11.268,-24,-21.087,-25.795,137.71,-8.906,-11.081,80.244,-155.939,1
-19.917,-39.125,-110.199,29.172,-28.939,15.696,564.38,225.562,18.917,16.771,-16.408,-7.173,20.852,47.298,-17.466,-13.974,-11.388,9.683,-8.44,-21.76,6.646,-32.173,-24.652,-24.744,144.232,-12.995,-15.681,79.651,-172.689,1
-20.922,-38.574,-110.601,28.63,-25.324,18.754,531.54,249.415,27.607,22.39,-14.342,-7.166,26.979,48.275,-23.084,-16.522,-10.352,5.575,-14.579,-28.398,4.078,-39.313,-28.726,-33.429,123.596,-20.155,-20.788,70.35,-182.25,1
-17.315,-33.924,-97.682,35.262,-19.663,25.395,563.796,240.969,28.092,28.003,-12.791,-5.622,34.637,51.301,-16.913,-11.382,-6.243,11.717,-10.978,-26.833,5.611,-38.249,-25.623,-40.567,126.546,-23.721,-19.231,67.718,-176.945,1
-22.421,-45.161,-100.146,22.931,-35.013,1.291,596.02,208.453,6.035,5.945,-27.123,-14.838,20.257,45.102,-23.044,-20.08,-14.946,8.119,-15.066,-33.978,-2.592,-44.87,-29.696,-35.916,119.247,-25.234,-24.847,66.626,-178.817,1
-30.083,-46.141,-105.169,15.223,-47.273,-15.616,563.149,203.633,-0.631,-9.43,-34.268,-19.946,7.942,47.106,-34.292,-28.257,-16.98,5.038,-19.149,-40.604,-6.176,-42.776,-30.691,-29.733,108.882,-18.549,-27.384,68.096,-175.052,1
-23.393,-33.799,-98.404,34.164,-32.369,5.404,530.31,236.217,19.862,8.51,-22.451,-10.705,24.328,59.354,-25.548,-16.958,-3.643,17.328,-8.371,-28.268,6.638,-31.975,-20.926,-29.19,135.413,-13.919,-19.159,71.614,-161.045,1
-13.636,-32.741,-93.695,44.376,-20.553,21.28,518.509,251.35,30.6,21.822,-16.793,-6.083,36.599,61.344,-15.789,-8.744,-2.615,21.921,-2.728,-20.043,9.706,-34.505,-22.955,-30.698,141.938,-17.491,-17.091,69.494,-166.519,1
-14.647,-34.757,-95.138,35.622,-26.681,14.086,528.749,243.415,23.91,15.14,-19.85,-8.638,26.828,56.159,-19.359,-13.858,-9.273,16.776,-7.848,-25.658,3.548,-34.983,-27.542,-30.155,123.352,-17.986,-19.123,68.399,-179.672,1
-13.095,-27.55,-90.944,41.222,-25.629,14.072,546.664,244.708,24.91,16.662,-15.732,-6.581,29.363,59.177,-17.803,-12.82,-5.165,18.809,-4.254,-25.633,9.692,-27.263,-16.756,-22.953,126.815,-10.796,-13.469,72.942,-173.345,1
-8.983,-30.084,-84.193,52.964,-21.505,16.62,569.171,244.976,28.984,20.231,-16.74,-6.574,38.043,58.606,-14.711,-10.245,-8.233,15.716,-4.25,-24.07,10.707,-35.433,-21.863,-19.856,105.172,-11.81,-14.48,70.307,-166.512,1
-17.171,-46.96,-94.868,40.103,-32.754,4.82,577.311,231.923,17.684,11.502,-27.482,-14.764,24.685,52.912,-26.48,-20.993,-22.058,4.942,-21.152,-35.317,-3.648,-48.717,-40.284,-36.23,72.791,-25.63,-26.761,53.331,-170.444,1
-29.962,-57.672,-116.29,25.718,-44.505,-7.992,609.521,211.711,2.81,-0.293,-36.676,-22.434,11.34,55.42,-38.236,-31.219,-26.134,0.326,-30.864,-44.503,-9.28,-53.279,-39.731,-55.661,105.506,-40.462,-34.931,39.958,-172.835,1
-28.907,-54.028,-116.173,34.402,-44.46,-7.472,595.592,209.962,3.319,-3.879,-35.615,-20.363,19.526,58.951,-34.1,-25.04,-23.546,3.4,-23.661,-39.848,-2.098,-56.812,-35.593,-56.63,138.188,-41.446,-33.871,42.479,-181.884,1
-14.022,-41.678,-97.614,46.663,-29.047,9.954,562.721,241.516,20.222,9.958,-22.259,-10.096,33.851,55.818,-19.721,-13.744,-17.887,12.106,-11.854,-30.074,6.613,-48.558,-35.045,-45.815,105.775,-29.621,-23.591,53.707,-188.362,1
-5.298,-31.903,-93.93,49.69,-11.087,28.387,554.473,263.816,33.522,28.903,-9.429,-0.864,42.526,55.762,-7.918,-8.607,-12.746,17.729,-1.596,-21.847,13.266,-32.628,-22.715,-37.06,87.738,-21.395,-14.346,62.875,-172.804,1
-11.441,-34.433,-101.009,47.591,-16.711,21.186,586.707,244.596,27.34,23.239,-11.981,-2.4,41.971,58.268,-11.496,-8.086,-16.832,10.027,-4.156,-20.801,11.204,-36.182,-20.131,-34.462,112.241,-23.935,-18.942,62.3,-165.459,1
-19.626,-38.497,-93.736,41.908,-28.477,5.284,610.198,224.372,20.141,11.432,-17.093,-10.083,35.782,61.284,-19.682,-11.152,-19.377,5.406,-11.837,-26.928,6.582,-42.293,-29.844,-32.378,88.563,-22.374,-21.485,60.189,-178.613,1
-16.533,-34.36,-84.42,50.063,-18.715,15.524,577.313,241.566,27.805,20.643,-10.928,-10.585,39.844,66.345,-14.027,-13.702,-13.21,11.036,-8.239,-27.925,11.698,-33.542,-25.204,-27.735,81.302,-14.667,-13.779,66.276,-171.775,1
-8.832,-26.641,-84.336,67.431,-11.012,31.903,544.46,267.964,36.999,30.868,-6.818,-3.914,47.489,67.816,-7.353,-9.59,-12.684,13.074,-3.62,-21.237,14.761,-30.947,-18.518,-31.293,114.008,-14.652,-14.79,71.333,-152.648,1
-4.212,-22.516,-82.202,67.364,-15.099,28.285,576.703,262.061,37.474,28.276,-7.836,0.7,46.929,68.773,-8.37,-4.457,-11.135,15.622,-4.641,-16.605,14.746,-33.477,-22.086,-35.873,105.697,-16.687,-15.287,71.262,-155.057,1
-8.306,-22.493,-82.632,58.075,-12.01,14.936,608.914,229.523,30.777,20.563,-10.39,-2.374,43.296,69.729,-7.337,-8.039,-9.074,19.193,-6.173,-20.687,15.756,-31.907,-25.65,-32.763,73.316,-13.084,-9.124,72.215,-167.197,1
-19.569,-33.741,-95.87,52.382,-18.146,2.626,576.03,218.023,14.865,7.735,-21.65,-12.618,34.544,52.753,-14.502,-18.277,-20.336,10.977,-15.388,-33.474,4.982,-43.146,-35.871,-47.075,106.03,-21.268,-18.849,63.433,-176.251,1
-22.111,-41.392,-100.385,48.231,-29.399,1.087,543.179,242.396,9.727,4.141,-26.752,-14.142,28.874,41.429,-22.684,-21.333,-22.365,9.941,-16.91,-35.49,0.366,-48.226,-36.859,-64.446,138.712,-33.542,-28.052,54.148,-178.124,1
-10.818,-23.42,-77.743,59.966,-11.951,16.967,575.423,253.937,31.234,25.141,-8.282,0.216,44.214,71.102,-3.194,-6.455,-0.313,28.887,7.185,-15.474,20.858,-22.562,-10.183,-37.229,130.377,-14.553,-9.068,76.636,-158.478,1
-4.659,-5.466,-59.734,78.861,4.967,28.733,607.635,248.047,47.596,39.461,2.997,6.364,57.49,92.548,15.252,5.847,5.322,34.493,15.888,-7.262,28.521,-9.732,1.098,-9.015,97.971,8.003,1.699,103.199,-141.414,1
-14.901,-23.903,-76.068,66.487,-16.042,15.384,574.752,250.873,28.081,19.953,-18.523,-12.085,37.965,61.717,-5.255,-12.089,-20.298,8.331,-14.355,-34.919,5.439,-38.411,-28.104,-34.109,66.11,-14.034,-20.332,82.091,-158.691,1
-28.718,-50.52,-101.608,37.731,-40.105,-8.709,572.641,231.667,1.413,-7.219,-41.558,-28.467,13.848,37.576,-30.865,-35.643,-37.184,-13.194,-37.394,-54.352,-9.936,-61.939,-48.056,-59.178,66.044,-44.759,-39.267,49.734,-182.611,1
-27.153,-45.858,-98.432,38.718,-33.917,-14.848,604.856,204.795,6.022,-5.675,-35.881,-19.73,22.031,58.031,-25.711,-25.874,-26.388,-3.96,-26.086,-40.978,-0.704,-53.168,-33.663,-47.848,98.765,-35.492,-32.055,60.955,-181.403,1
-15.342,-27.882,-75.28,62.758,-16.464,7.196,571.976,237.378,32.144,18.922,-16.378,-3.828,46.088,76.416,-8.267,-7.405,-8.944,15,-7.104,-27.617,12.104,-35.696,-18.261,-39.091,131.454,-14.452,-16.654,88.559,-159.705,1
-15.327,-25.804,-62.909,72.429,-14.399,23.582,539.128,269.928,41.846,27.1,-11.238,-1.775,54.239,74.29,-2.624,-9.447,-6.885,21.645,-4.023,-27.077,11.58,-30.025,-19.267,-40.077,99.047,-13.413,-14.076,84.372,-138.028,1
-25.558,-36.025,-72.58,56.987,-27.192,6.14,571.377,237.383,27.972,13.24,-20.961,-8.433,45.475,76.778,-10.818,-15.585,-13.539,21.111,-12.216,-30.124,3.371,-36.143,-24.371,-34.914,66.673,-20.06,-24.308,66.869,-141.477,1
-23.483,-41.624,-85.828,48.221,-28.702,-3.6,581.052,222.801,26.407,11.178,-24.526,-9.45,42.868,83.873,-17.467,-14.545,-9.427,23.139,-12.204,-32.143,5.417,-40.205,-21.785,-38.465,99.394,-21.064,-25.82,70.9,-160.29,1
-11.164,-32.873,-82.156,65.079,-15.353,18.945,548.195,255.366,41.75,22.95,-14.255,-5.854,48.973,79.691,-7.716,-11.969,-1.22,25.165,-2.458,-28.012,13.096,-30.431,-14.591,-40.476,126.959,-14.896,-14.524,85.686,-162.692,1
-11.153,-25.156,-74.901,74.235,-14.825,23.537,580.435,259.209,41.196,20.878,-10.655,-5.336,46.875,70.39,-0.023,-9.395,-6.342,23.603,-1.431,-22.861,10.01,-26.302,-14.576,-32.238,94.557,-9.245,-12.46,90.724,-159.967,1
-19.851,-30.766,-80.462,59.816,-25.057,1.997,612.642,226.674,27.322,11.635,-17.816,-7.38,41.193,74.418,-8.733,-10.923,-10.947,22.042,-7.065,-26.937,6.926,-34.473,-19.172,-34.768,85.241,-11.285,-20.645,90.121,-157.758,1
-17.782,-31.76,-80.381,53.609,-22.982,0.97,613.566,224.911,28.319,14.697,-16.262,-6.348,47.299,89.713,-10.773,-12.961,-2.739,24.07,-6.033,-28.447,13.066,-34.438,-21.202,-37.807,86.18,-12.299,-18.062,88.494,-142.231,1
-8.03,-23.531,-71.592,63.802,-14.25,14.802,609.366,240.567,37,24.929,-6.512,-2.755,57.498,92.697,-0.004,-7.825,2.387,27.119,-3.978,-22.271,13.566,-29.281,-20.669,-28.547,68.163,-6.139,-9.847,87.381,-137.478,1
-6.485,-24.02,-71.52,68.861,-13.211,17.861,601.585,244.938,40.549,30.539,-5.48,1.346,60.514,84.919,2.045,-4.231,0.336,28.629,-5.511,-20.711,12.527,-32.838,-19.624,-35.691,94.735,-6.132,-10.35,91.904,-151.685,1
-6.991,-26.045,-75.035,69.304,-9.612,19.38,568.708,253.914,44.095,32.558,-5.475,4.931,59.941,90.982,2.043,-4.227,4.434,34.236,0.13,-20.691,19.687,-31.268,-17.555,-52.562,127.428,-10.737,-11.364,97.447,-153.071,1
3.774,-15.773,-71.373,72.821,0.644,26.02,539.45,261.345,46.1,35.087,4.777,8.512,62.955,100.625,12.8,3.462,9.552,41.886,12.425,-11.961,28.377,-19.454,-7.803,-38.164,95.537,-0.993,-3.668,98.375,-145.233,1
10.943,-8.585,-64.642,75.31,2.692,29.58,516.881,261.084,46.054,39.15,7.846,12.09,66.479,93.864,16.885,9.094,6.981,39.283,17.536,-6.313,28.861,-12.262,2.963,-14.56,64.703,12.328,2.996,101.35,-138.94,1
-1.364,-18.31,-65.602,71.136,-10.63,19.817,549.152,251.601,40.885,30.402,-5.482,5.418,58.727,86.598,6.11,-0.649,-0.71,30.022,8.809,-17.578,20.123,-16.86,-5.237,-26.841,95.377,3.095,-3.155,98.175,-132.141,1
-13.145,-31.1,-73.733,58.77,-22.915,2.891,581.39,225.222,28.549,15.515,-16.747,-8.42,44.836,87.536,-4.142,-10.382,-7.37,27.943,0.603,-28.831,11.906,-27.602,-19.064,-50.892,108.602,-13.302,-13.398,84.244,-144.304,1
-5.96,-27.482,-68.537,52.563,-12.134,8.523,582.346,227.046,31.082,22.671,-9.558,-2.776,51.452,90.523,3.546,-5.249,-1.727,33.038,7.775,-19.581,18.554,-26.037,-10.848,-45.206,92.099,-8.166,-10.311,88.771,-154.919,1
3.268,-11.061,-48.488,69.417,6.834,37.716,549.488,259.606,55.129,46.727,7.357,14.645,71.892,98.629,19.937,7.052,12.619,39.153,18.013,-4.704,29.806,-13.204,1.458,-29.792,103.278,5.162,0.97,107.638,-137.857,1
-3.396,-9.513,-49.976,89.84,3.753,44.851,529.471,275.741,61.734,48.217,6.838,10.019,69.259,103.141,19.405,6.533,6.971,36.552,9.799,-9.823,24.653,-17.289,-8.277,-36.934,115.982,0.034,-0.568,104.968,-135.67,1
-7.491,-21.287,-65.296,89.237,-7.521,29.949,561.729,250.874,45.278,32.288,-5.465,-3.823,52.796,86.644,6.065,-6.794,-11.991,23.708,-5.068,-22.62,16.431,-30.592,-19.54,-51.242,105.108,-9.7,-8.252,95.642,-150.904,1
0.714,-20.241,-60.62,80.439,-2.903,26.845,542.212,248.574,43.696,32.255,-3.41,1.816,55.817,75.287,7.084,-8.324,-10.954,19.585,-4.039,-22.085,18.464,-26.975,-12.86,-47.605,101.417,-5.592,-7.731,105.28,-135.896,1
-0.824,-17.147,-52.874,77.285,-4.949,23.745,574.458,239.104,48.775,34.272,-0.333,5.401,63.958,85.458,11.687,-0.119,0.84,32.374,0.576,-18.477,16.909,-23.362,-7.212,-40.897,91.069,-4.049,-8.236,104.663,-124.489,1
-13.118,-24.302,-56.408,77.72,-18.777,12.45,606.671,213.249,36.944,26.553,-9.042,-2.802,60.308,96.131,3.991,-3.705,3.4,43.612,-0.961,-20.508,11.769,-30.511,-12.328,-40.856,58.703,-10.193,-10.277,93.799,-143.833,1
-9.007,-18.642,-51.228,82.253,-8,23.709,573.789,242.75,36.394,34.724,-4.422,1.3,63.321,97.571,7.061,-4.726,8.52,45.105,5.187,-15.364,19.442,-26.382,-11.803,-38.254,49.935,-3.01,-5.143,102.415,-148.812,1
-1.826,-15.037,-54.763,79.097,8.402,35.98,540.94,271.196,49.166,41.349,2.755,3.348,67.357,90.814,16.275,-1.135,5.438,35.839,9.281,-12.788,20.959,-25.331,-12.304,-39.752,82.673,-0.958,-5.651,107.948,-144.052,1
-18.218,-36.539,-75.713,60.062,-13.123,6.743,573.186,238.65,34.772,15.18,-15.691,-13.05,49.871,76.378,0.378,-15.991,-13.523,18.384,-8.659,-28.144,6.594,-41.699,-26.636,-56.106,113.328,-20.425,-19.477,90.934,-161.327,1
-22.81,-40.601,-67.953,60.514,-26.43,-7.609,605.401,214.845,25.003,7.48,-20.286,-14.061,43.161,83.987,-6.795,-21.098,-9.923,20.928,-10.7,-31.702,8.636,-41.658,-26.609,-57.587,121.412,-20.404,-18.945,89.818,-160.141,1
-0.758,-9.822,-36.634,93.242,4.335,25.187,572.52,247.418,57.766,40.261,7.911,7.982,73.344,115.666,21.389,4.539,16.727,46.522,18,-6.567,30.145,-16.001,-3.017,-25.767,116.167,8.305,0.029,112.27,-127.193,1
-1.27,-9.3,-41.72,98.784,11.503,35.408,539.672,261.515,66.93,49.442,12.002,9.511,82.492,114.525,25.466,8.12,13.124,43.402,17.982,-2.974,27.041,-15.985,-4.038,-13.445,86.85,8.809,-1.508,109.596,-123.992,1
-28.421,-41.566,-71.905,66.41,-20.784,3.097,571.92,228.978,34.587,17.117,-20.286,-15.602,50.134,82.136,-6.835,-20.577,-15.066,13.644,-14.311,-35.247,1.91,-46.707,-33.236,-45.195,54.487,-23.475,-27.122,78.236,-156.143,1
-29.417,-45.111,-77.468,64.294,-26.399,2.069,539.073,240.532,29.43,10.44,-27.438,-21.221,37.789,76.93,-9.902,-25.167,-19.15,14.655,-20.957,-43.921,0.372,-55.37,-38.838,-58.47,41.625,-33.185,-31.706,69.961,-165.721,1
-6.334,-16.889,-58.948,97.017,3.342,34.855,506.259,273.08,62.188,43.217,0.255,0.317,67.465,95.809,18.285,-5.674,-1.712,39.231,6.216,-18.262,19.327,-32.26,-18.307,-26.136,74.371,-12.66,-10.669,96.531,-139.94,1
-3.253,-11.749,-48.643,95.896,7.437,33.795,538.54,255.388,64.687,45.735,7.939,8.001,76.619,94.176,20.828,-1.57,2.388,40.729,12.87,-13.633,21.869,-24.031,-10.091,-12.278,107.085,-2.401,-5.536,107.705,-138.775,1
-21.181,-39.401,-68.574,63.524,-17.161,1.486,570.789,222.857,32.347,17,-17.172,-9.425,53.488,76.151,-2.247,-15.401,-12.984,22.245,-5.074,-34.111,6.99,-41.426,-22.889,-39.93,111.076,-17.768,-23.973,77.371,-165.789,1
-29.357,-55.756,-97.195,43.993,-31.489,-15.421,537.943,207.777,22.581,7.25,-30.475,-19.662,45.238,70.44,-10.441,-25.119,-20.655,16.588,-14.802,-38.176,1.86,-50.606,-31.575,-53.21,78.69,-33.632,-33.683,56.801,-175.869,1
-15.495,-35.72,-80.704,67.515,-15.576,8.672,505.13,240.357,47.662,28.247,-9.952,-4.273,65.173,90.861,8.012,-12.799,0.37,35.526,3.143,-20.207,15.69,-31.087,-13.613,-21.394,46.336,-16.692,-17.255,86.458,-161.349,1
0.914,-6.483,-47.835,100.236,10.567,41.451,472.349,272.905,74.254,53.834,13.112,13.662,84.063,119.46,26.959,9.243,21.887,54.446,27.731,-4.305,31.044,-10.052,9.454,11.415,79.077,16.113,4.791,119.16,-138.134,1
-4.722,-10.575,-54.447,91.938,5.434,34.238,504.664,259.312,63.421,47.633,4.902,4.939,75.782,119.34,18.736,1.549,10.082,44.658,15.92,-12.497,24.865,-22.337,-4.387,0.646,111.786,8.924,-1.361,108.282,-131.335,1
-19.062,-35.667,-86.668,59.571,-20.187,1.928,536.947,226.777,37.23,18.383,-18.157,-15.046,52.652,93.093,0.274,-21.506,-9.396,26.683,-15.347,-31.953,8.447,-48.955,-31.535,-31.631,109.112,-23.36,-21.34,79.484,-155.795,1
-9.821,-35.632,-81.971,69.245,-16.068,10.635,504.135,246.018,48.976,25.025,-13.528,-7.859,57.21,90.439,6.933,-13.288,-1.19,37.927,-4.573,-27.31,14.073,-41.221,-20.745,-25.964,100.806,-16.677,-14.146,82.479,-165.885,1
7.607,-11.518,-58.323,101.964,7.514,43.412,471.356,278.56,71.468,55.226,8.515,13.154,82.256,111.865,26.907,8.755,13.156,54.795,25.658,-5.766,32.502,-10.441,5.403,6.85,93.533,14.078,4.311,106.475,-135.493,1
-0.597,-9.457,-65.437,86.493,0.846,31.586,503.672,246.006,55.003,44.925,3.895,5.456,78.076,107.143,23.293,0.037,4.946,44.494,15.898,-9.858,29.396,-10.943,-0.75,0.696,78.583,10.478,-1.841,110.979,-128.185,1
-14.941,-33.014,-88.425,56.692,-18.622,1.328,535.956,213.484,34.456,17.728,-15.064,-12.992,54.944,85.006,7.389,-17.894,-9.404,30.617,-8.196,-29.316,16.559,-35.011,-20.217,-28.507,81.578,-10.537,-15.159,91.913,-158.283,1
-9.291,-38.616,-85.775,69.443,-14.505,6.45,503.145,242.472,42.106,23.858,-13.512,-7.856,56.426,89.532,7.894,-13.265,-6.32,37.759,-3.065,-27.238,19.616,-41.636,-18.66,-26.941,97.89,-14.625,-15.144,77.476,-161.711,1
-7.745,-27.307,-65.709,69.374,-7.831,19.763,470.366,269.382,51.285,33.567,-6.839,-2.213,68.665,100.713,12.496,-6.592,1.37,44.893,3.086,-20.038,24.207,-37.496,-11.469,-21.791,103.428,-13.073,-15.641,82.522,-152.84,1
-15.934,-31.89,-67.181,49.324,-13.97,13.084,502.683,253.744,50.21,23.8,-14.004,-10.92,63.985,95.489,7.361,-14.27,-2.217,40.75,-8.188,-29.752,19.06,-42.069,-15.043,-28.429,94.615,-15.622,-19.212,87.05,-164.47,1
-9.258,-34.42,-76.847,63.107,-8.833,15.632,526.259,256.564,56.307,27.875,-10.404,-6.299,63.409,102.054,11.452,-12.719,0.859,45.32,-5.106,-27.673,24.164,-37.928,-13.491,-20.716,76.077,-10.995,-12.533,87.475,-153.035,1
-2.589,-19.016,-67.037,85.073,1.934,30.986,493.458,274.75,61.886,42.191,4.463,8.565,76.665,117.321,24.761,2.663,14.69,58.082,14.367,-9.715,36.435,-23.034,-1.695,-10.449,60.632,-0.738,-4.323,95.585,-130.853,1
-16.419,-24.632,-70.556,68.082,-9.339,21.221,525.752,253.983,51.066,30.879,-3.226,3.945,75.564,111.568,20.125,2.66,13.139,56.487,13.84,-13.803,29.739,-26.084,-5.279,-18.636,72.354,-2.787,-10.979,89.341,-153.264,1
-24.087,-50.735,-95.076,41.886,-26.236,-6.977,558.014,221.966,37.695,9.331,-24.227,-10.403,58.07,105.821,0.637,-15.273,1.343,46.185,-5.129,-33.769,15.365,-45.526,-19.619,-36.548,105.07,-20.715,-25.825,64.149,-178.726,1
-14.329,-49.66,-93.956,42.357,-19.549,-6.458,548.234,230.453,41.243,13.932,-23.178,-10.905,55.451,114.937,-0.9,-20.381,3.391,46.651,-9.222,-33.736,19.448,-47.017,-18.062,-43.684,126.482,-25.817,-27.336,66.134,-167.789,1
-8.167,-28.093,-76.444,58.196,-5.185,20.701,515.411,260.961,58.62,32.874,-6.249,-1.673,70.764,115.334,14.982,-8.577,12.096,54.289,4.619,-20.894,31.211,-30.577,-6.261,-25.197,110.986,-5.299,-12.964,94.245,-154.813,1
-4.06,-17.819,-74.83,78.63,1.48,36.562,492.866,276.582,70.345,44.112,6.053,6.526,80.94,115.731,26.238,3.214,16.695,61.919,17.422,-11.14,39.889,-18.763,2.455,1.468,93.969,11.1,-2.193,103.884,-141.851,1
2.604,-14.728,-66.046,92.896,10.7,36.013,519.525,273.232,65.664,48.166,12.707,12.667,84.445,124.325,34.921,11.408,20.265,69.542,24.577,-0.882,46.509,-14.133,9.624,2.491,101.047,12.114,0.884,100.194,-126.34,1
-4.059,-20.348,-55.222,76.922,9.665,26.243,536.937,255.54,52.79,41.97,9.108,11.118,81.287,116.004,33.861,9.347,15.121,64.862,18.917,-4.468,41.34,-19.755,2.955,-11.856,92.749,6.978,-3.216,97.533,-141.07,1
-16.35,-33.648,-69.511,53.791,-6.739,12.384,538.961,242.989,48.639,29.633,-3.197,3.934,72.496,106.666,19.995,-2.445,7.934,55.575,7.115,-19.32,32.077,-29.469,-7.294,-13.381,73.701,-0.201,-12.946,90.263,-157.323,1
-10.186,-31.565,-73.54,68.594,-6.732,17.495,506.147,260.164,62.935,36.263,-0.12,8.029,78.571,123.978,21,0.631,18.172,63.717,17.354,-12.641,43.316,-19.705,5.521,-10.294,105.903,4.41,-11.397,91.71,-135.649,1
-0.442,-23.849,-59.122,82.358,6.082,32.335,473.365,283.47,71.581,46.985,8.077,11.607,85.665,130.002,32.25,7.291,22.252,64.165,27.071,-0.333,53.006,-11.489,10.638,-12.333,138.584,13.115,-2.164,96.229,-125.779,1
-14.274,-37.657,-69.821,52.049,-8.268,12.322,505.68,257.059,46.919,23.372,-13.448,-7.36,58.939,100.67,15.311,-13.209,-1.848,41.047,0.404,-23.386,33.486,-36.068,-14.476,-17.956,106.17,-5.854,-14.457,80.763,-151.781,1
-33.727,-50.94,-84.608,37.653,-32.851,-16.892,537.962,224.527,22.281,-3.291,-34.951,-22.722,33.265,85.713,-7.246,-29.59,-13.117,40.494,-17.527,-44.367,20.132,-54.475,-26.244,-21.524,73.789,-26.852,-33.398,67.875,-158.802,1
-22.935,-31.421,-62.495,70.403,-17.961,7.716,505.148,249.405,47.362,23.864,-11.862,-1.695,60.384,106.631,10.18,-8.555,10.462,68.63,6.056,-20.245,41.117,-34.953,-9.312,-10.232,92.158,-10.944,-20.557,84.713,-133.54,1
4.24,-8.336,-39.891,94.923,14.845,40.496,472.368,281.944,80.102,56.628,18.888,21.361,93.111,123.943,37.322,13.995,25.821,75.734,19.37,1.805,61.568,-19.036,0.944,2.586,113.071,10.584,2.005,98.461,-121.111,1
5.773,-17.549,-55.22,71.774,15.342,34.82,504.683,269.366,71.313,50.424,11.697,13.142,87.383,118.696,32.162,7.321,15.036,61.826,7.055,-11.517,54.846,-27.727,-5.717,-7.15,124.228,4.426,-3.632,88.628,-137.896,1
-13.188,-35.974,-77.194,52.747,-9.264,2.51,536.966,236.822,38.966,18.098,-8.807,-2.24,66.803,111.405,14.199,-7.031,8.361,59.203,4.487,-23.801,45.57,-32.31,-9.81,-20.975,144.084,-6.85,-20.022,78.806,-159.787,1
-19.835,-36.451,-73.531,62.941,-17.452,-2.616,504.154,241.708,36.878,10.395,-13.921,-4.287,62.126,108.732,10.086,-11.123,10.915,58.119,5.507,-23.265,46.037,-32.277,-7.751,-15.831,131.645,-7.355,-21.027,79.239,-163.726,1
-15.205,-32.316,-66.285,73.636,-11.287,11.732,471.374,274.254,49.137,15.508,-11.858,-3.258,60.527,107.599,12.638,-11.624,6.805,50.888,-1.671,-27.34,44.454,-36.344,-7.743,-6.594,100.775,-7.86,-18.444,83.771,-157.414,1
-19.8,-38.431,-76.977,60.242,-16.911,3.011,503.691,251.95,38.329,9.857,-14.408,-7.865,53.294,105.954,6.99,-13.662,2.7,50.325,-4.743,-29.362,43.384,-39.893,-12.346,-9.149,103.235,-12.975,-22.524,87.785,-156.745,1
-27.465,-44.541,-76.9,43.788,-27.652,-11.337,535.975,219.423,24.971,5.749,-18.492,-10.931,51.191,96.115,-0.19,-17.234,2.185,49.762,-3.714,-28.308,45.903,-44.977,-16.945,-15.287,104.157,-19.11,-25.576,82.062,-150.953,1
-15.654,-34.762,-52.745,54.503,-16.866,7.63,503.163,251.991,41.34,20.088,-10.789,-1.187,63.948,94.994,9.032,-11.069,3.72,51.25,1.413,-25.206,53.541,-43.395,-13.854,-11.686,90.733,-14.992,-19.915,77.369,-132.871,1
-0.782,-24.481,-45.52,65.719,-0.968,26.577,470.385,284.527,63.84,36.461,-0.02,9.061,78.741,113.342,22.855,-0.3,10.376,61.444,8.072,-16.471,62.709,-31.568,-9.229,-7.063,109.085,-2.682,-10.161,84.464,-129.664,1
-14.613,-40.338,-71.089,46.186,-15.311,5.034,502.702,251.967,51.993,25.154,-11.803,-0.682,70.977,114.253,10.025,-8.496,8.829,56.26,-3.719,-27.213,55.474,-39.733,-18.954,-23.45,128.443,-12.413,-19.372,75.671,-156.174,1
-33.554,-54.13,-81.777,39.992,-33.739,-9.316,469.924,232.247,32.986,7.198,-28.185,-13.489,56.049,96.721,-7.916,-23.345,-0.402,41.859,-18.573,-46.654,44.148,-56.6,-28.669,-35.722,105.774,-28.282,-35.747,57.664,-165.752,1
-20.713,-31.535,-59.666,72.74,-19.873,15.797,437.179,264.803,48.322,19.486,-16.373,-6.816,64.19,106.358,5.924,-15.124,7.283,50.526,-4.722,-32.262,57.936,-41.174,-13.783,-8.534,88.762,-9.811,-23.416,78.099,-134.848,1
-9.934,-21.769,-50.897,74.204,-13.193,12.707,469.529,252.755,51.347,19.467,-12.771,-7.321,64.126,115.473,13.091,-9.474,16.497,57.648,0.406,-23.009,64.538,-32.936,-7.109,7.356,101.481,1.982,-12.634,100.05,-126.004,1
-30.928,-49.924,-69.801,41.854,-36.746,-19.581,501.847,220.227,19.021,-12.828,-38.886,-24.732,36.91,88.717,-13.05,-27.395,0.087,42.734,-24.185,-52.187,45.518,-63.642,-32.205,-24.927,111.113,-28.758,-35.675,71.261,-158.153,1
