Timestamp,Cz,Fz,Fp1,F3,C1,C3,T7,C5,CP5,CP3,CP1,P1,P3,O1,CPz,Pz,Oz,O2,P4,P2,CP2,CP4,CP6,C6,T8,C4,C2,F4,Fp2
0,-8.785,-13.538,-173.108,-39.891,-13.269,-6.433,98.313,62.337,-2.303,0.707,5.452,13.852,10.064,0.613,8.503,-11.994,12.891,7,16.905,5.287,-51.397,11.523,8.002,29.867,109.706,11.051,2.419,6.833,-111.047
7.06000000718632E-05,-8.264,-15.573,-178.058,-46.511,-15.305,-10.013,126.904,49.979,-1.276,-6.978,3.909,10.252,2.369,2.661,2.859,-11.982,18.513,15.19,13.814,-0.354,-46.735,2.29,-2.252,3.709,142.384,-0.231,-4.756,1.191,-116.059
0.015689399999701,-7.23,-19.642,-169.519,-44.884,3.158,-10.509,117.959,56.531,-6.913,-3.898,-0.201,12.274,0.822,0.092,7.966,-15.036,6.18,-6.358,0.976,-1.898,-48.698,-6.425,-2.763,19.063,78.604,-3.303,-6.283,-13.665,-102.018
0.0310746000000108,-21.567,-33.454,-200.088,-59.183,-4.53,-28.942,150.629,27.273,-20.738,-22.338,-13.521,-1.57,-15.06,-10.154,-7.411,-30.903,-4.585,-20.184,-21.566,-19.314,-56.846,-27.423,-21.203,-5.547,81.6,-20.206,-19.084,-29.533,-134.191
0.044948199999908,-21.033,-37.007,-208.597,-65.784,-12.722,-29.938,118.203,28.782,-17.131,-16.68,-7.36,5.604,-6.336,-7.582,-0.744,-26.773,4.641,-3.258,-14.885,-11.61,-53.203,-24.834,-19.645,-9.64,74.858,-22.235,-20.602,-31.553,-133.032
0.0450175000000854,-15.377,-26.724,-194.556,-56.497,-5.537,-14.026,85.809,55.906,-7.893,-1.806,1.869,16.357,7.503,5.233,8.478,-12.402,17.444,9.553,4.086,0.697,-48.027,-4.829,-2.72,6.764,64.537,-4.795,-6.237,-20.763,-107.284
0.0600027999998929,-15.874,-24.648,-202.046,-54.391,-3.482,-18.623,118.511,44.579,-13.008,-11.026,-4.281,8.656,0.323,7.789,4.371,-12.39,17.427,4.933,6.131,-1.866,-45.93,-2.263,-0.155,6.245,74.719,-0.691,-3.669,-16.131,-135.353
0.0600719999997637,-8.686,-31.796,-215.164,-58.435,-9.114,-25.777,151.18,30.19,-13.507,-14.601,-5.813,10.184,0.323,4.195,8.978,-14.939,16.385,8.002,6.125,0.698,-44.347,-6.872,0.357,5.726,90.013,-5.814,-8.276,-18.677,-155.198
0.0749384000000646,-2.017,-28.178,-199.579,-57.352,2.166,-11.406,118.754,56.288,1.363,-0.242,7,20.932,13.642,11.363,17.166,-7.239,23.541,19.777,12.779,6.845,-42.765,-5.328,4.455,8.794,109.903,-1.709,-3.145,-15.072,-122.255
0.0789356000000225,-14.823,-27.125,-190.671,-64.979,9.848,-14.981,104.802,57.768,-2.224,-5.365,2.895,10.665,6.969,15.963,9.464,-9.794,24.03,21.294,7.13,-0.847,-47.333,-13.007,-4.771,-1.461,103.133,-7.855,-5.191,-14.544,-113.424
0.0917067000000316,-25.566,-45.541,-214.558,-76.697,-9.629,-40.581,137.485,25.435,-24.763,-26.364,-19.137,-4.715,-12.506,7.75,-3.866,-26.178,11.198,10.514,-7.734,-12.629,-61.118,-26.314,-19.111,-7.607,70.755,-23.729,-22.604,-37.071,-143.024
0.0917695999996795,-22.467,-53.692,-225.615,-72.522,-22.427,-44.639,170.136,18.237,-27.813,-29.924,-21.167,-1.636,-15.055,2.107,-5.399,-29.738,5.551,4.868,-7.726,-12.616,-65.668,-22.189,-16.018,0.597,54.802,-21.656,-24.631,-52.916,-144.418
0.104927800000041,-20.395,-35.196,-206.434,-63.228,-8.06,-26.152,137.69,45.884,-10.366,-15.037,-3.728,8.099,-2.744,7.228,2.291,-14.851,14.767,15.622,9.7,0.204,-51.258,-5.261,0.392,7.769,87.535,-5.753,-7.7,-30.834,-133.003
0.10499260000006,-14.739,-22.353,-202.129,-60.603,-0.88,-13.318,105.277,67.867,-2.671,-3.239,2.936,12.702,6.48,12.344,7.412,-7.151,20.9,25.34,22.498,12.499,-41.985,6.527,12.687,14.934,118.698,1.425,-1.033,-9.286,-144.653
0.120064700000057,-11.651,-33.089,-224.468,-65.154,-6.514,-17.403,112.344,64.213,-11.89,-8.871,-4.239,9.615,0.326,10.794,4.843,-16.366,13.195,14.044,15.304,6.851,-48.603,1.91,9.601,15.431,86.304,-0.113,-8.204,-21.572,-154.242
0.12013079999997,-24.959,-42.277,-226.293,-74.31,-1.897,-33.779,145.019,39.046,-22.124,-22.182,-10.383,2.433,-14.019,0.537,1.252,-25.059,-0.138,-1.339,-1.618,-6.988,-55.727,-11.412,-2.192,2.608,79.558,-5.748,-12.806,-34.358,-146.915
0.135045999999875,-25.447,-35.063,-195.84,-66.551,1.179,-31.184,140.776,37.47,-16.979,-16.012,-7.299,4.993,-10.931,-6.123,0.739,-23.497,-2.187,1.736,-5.202,-8.005,-55.671,-14.474,-5.264,1.068,92.286,-9.841,-11.769,-23.565,-134.473
0.138900599999943,-11.589,-26.831,-184.374,-41.381,-8.044,-8.611,108.36,67.146,-3.13,0.398,0.393,11.135,5.986,-1.506,0.226,-18.862,6.012,7.882,5.561,-3.387,-55.103,-9.337,0.889,14.9,70.165,-7.782,-12.269,-11.759,-134.339
0.150668199999927,-22.336,-31.927,-205.706,-42.365,-12.647,-8.09,107.227,75.276,-2.614,-1.652,0.393,8.05,6.492,-2.017,0.225,-19.868,3.956,-0.323,5.043,-6.969,-57.097,-15.475,-4.235,9.249,74.705,-10.848,-15.843,-17.382,-150.598
0.150730899999871,-38.707,-37.53,-212.161,-59.228,-8.023,-18.328,122.489,64.442,-6.71,-6.773,-3.706,7.018,-1.199,-10.724,2.274,-21.385,-4.245,-4.933,-6.232,-9.524,-60.626,-23.144,-16.526,-13.301,95.123,-21.083,-17.364,-26.074,-153.521
0.165087999999741,-20.738,-31.857,-194.018,-49.435,-2.892,-8.576,154.642,66.939,3.03,2.455,1.421,13.158,3.925,-3.029,9.957,-15.728,2.42,6.342,-3.665,-4.391,-58.004,-15.436,-14.972,-14.825,67.875,-17.476,-11.199,-24.511,-135.949
0.165155199999845,-1.249,-23.629,-188.188,-39.14,-0.84,-1.908,187.275,67.385,8.663,4.502,8.079,15.194,9.044,11.319,15.07,-10.59,12.151,12.484,5.56,1.248,-53.335,-8.761,-5.224,0.047,49.877,-6.7,-7.09,-20.388,-132.227
0.180125999999746,-13.031,-29.24,-201.32,-55.495,-6.987,-13.177,154.812,60.657,-4.154,-7.286,-0.126,10.056,0.838,1.061,4.296,-17.239,2.917,-2.386,-5.204,-5.925,-59.942,-18.486,-9.317,-1.49,69.807,-12.841,-13.743,-27.54,-150.538
0.195139899999958,-30.949,-40.994,-209.828,-63.636,-16.202,-20.336,122.382,61.621,-14.396,-14.963,-13.958,-0.2,-8.384,-15.846,-10.565,-29.517,-10.918,-17.24,-24.154,-22.825,-69.616,-30.763,-21.091,-13.784,65.126,-26.661,-21.926,-35.709,-161.146
0.195205299999998,-28.356,-37.879,-209.106,-51.789,-17.722,-17.754,155.047,62.072,-11.308,-15.973,-15.993,-5.835,-10.937,-12.244,-7.993,-32.562,-9.37,-14.662,-22.08,-26.389,-68.522,-30.732,-21.069,-7.11,58.401,-27.659,-20.879,-32.088,-152.788
0.199312799999916,-19.619,-29.132,-206.848,-51.225,-20.266,-12.101,187.68,56.374,-8.735,-13.395,-8.805,0.831,-7.852,-12.232,-1.837,-26.381,-2.701,-10.036,-8.226,-13.555,-65.379,-21.992,-11.827,4.68,90.106,-19.434,-15.223,-24.883,-142.901
0.211633999999776,-22.161,-32.689,-206.641,-61.42,-23.832,-10.552,155.217,55.293,-9.238,-10.308,-5.722,6.465,-3.234,-26.564,-4.397,-21.232,-6.284,-12.588,-3.607,-8.418,-65.314,-15.31,-7.717,-1.985,100.774,-15.829,-12.134,-25.883,-147.882
0.225159899999653,-23.163,-35.73,-208.996,-57.26,-15.099,-13.103,122.786,65.484,-4.618,-8.761,-6.741,1.336,-2.718,-22.439,-1.319,-21.723,-9.352,-6.427,-4.628,-12.508,-61.662,-14.783,-10.783,-11.717,69.423,-18.887,-11.097,-28.419,-155.418
0.225224999999682,-16.992,-35.182,-215.959,-54.129,-15.084,-14.114,131.373,71.054,-6.663,-10.801,-9.296,-1.74,-7.839,-0.9,0.732,-24.775,-2.17,3.313,-6.16,-13.008,-65.187,-19.379,-19.481,-11.705,45.275,-23.991,-15.697,-35.05,-157.824
0.240177700000004,-23.635,-48.98,-228.551,-76.616,-34.024,-25.371,164.029,43.318,-22.025,-20.524,-19.02,-3.787,-15.003,-0.386,-17.2,-29.873,1.418,4.846,-13.839,-19.655,-76.905,-30.118,-30.22,-19.89,32.422,-32.164,-26.44,-47.31,-175.085
0.240239100000053,-29.247,-57.64,-230.884,-90.884,-38.089,-37.128,162.84,21.246,-26.614,-25.115,-23.1,-7.882,-14.988,-10.12,-28.965,-30.356,2.954,7.915,-18.436,-24.246,-75.803,-35.211,-29.165,-25.506,26.754,-35.718,-27.438,-45.726,-189.255
0.254174299999704,-8.725,-37.09,-209.648,-62.617,-16.534,-14.55,130.402,54.012,-7.12,-7.671,-6.171,2.885,-0.116,3.21,-10.493,-17.005,13.709,18.666,-4.585,-11.414,-60.87,-22.88,-14.279,-7.549,50.294,-21.85,-14.603,-27.75,-163.45
0.254232100000081,2.042,-23.22,-192.532,-36.939,-6.271,9.543,142.055,86.234,9.793,10.78,8.18,16.202,13.716,11.916,6.936,-6.742,17.282,21.721,7.715,-1.156,-54.662,-13.123,-6.58,4.753,83.031,-10.557,-7.928,-21.062,-136.647
0.270029499999964,-14.866,-37.03,-200.024,-51.759,-14.462,-8.397,174.7,56.434,0.05,1.547,0.487,9.525,8.58,-4.49,-0.756,-13.396,7.531,13.503,2.072,-6.791,-57.681,-16.696,-10.672,-6.01,95.243,-18.231,-13.556,-31.799,-149.318
0.270099500000015,-19.462,-49.288,-205.972,-71.687,-21.619,-26.319,142.25,35.373,-18.393,-16.385,-11.808,-1.755,-5.261,-10.12,-8.952,-23.116,0.863,5.292,-7.152,-10.882,-60.697,-18.217,-13.223,-8.565,67.483,-21.287,-17.128,-42.014,-158.39
0.284657199999856,-11.758,-45.14,-199.618,-73.152,-20.573,-24.244,109.833,44.559,-23.498,-19.442,-13.846,-4.315,-11.404,0.648,-7.406,-26.167,-4.773,0.676,-10.731,-12.408,-62.174,-14.1,-12.185,0.153,40.264,-11.019,-17.623,-39.923,-142.862
0.284722500000044,-16.87,-33.824,-196.345,-67.444,-14.405,-26.781,142.51,39.391,-18.351,-13.788,-11.27,-2.261,-9.343,-2.939,-10.985,-21.53,-9.379,-0.349,-8.158,-13.421,-57.501,-9.475,-10.124,2.202,62.765,-3.836,-15.044,-20.415,-133.498
0.299273099999937,-20.439,-22.007,-189.489,-53.544,-5.681,-20.607,175.156,38.839,-12.185,-7.114,-5.111,3.377,-3.186,-11.133,-7.388,-12.287,-3.222,5.799,1.071,-4.698,-48.734,-3.83,-3.966,6.81,95.49,0.779,-7.857,-4.001,-126.704
0.299339400000008,-16.32,-24.547,-180.078,-44.269,-2.602,-11.365,142.705,51.608,-12.686,-7.107,-4.594,3.373,-4.72,-8.56,6.452,-14.324,-1.169,7.842,0.046,-4.693,-48.173,-9.462,-5.499,7.316,72.34,-2.808,-7.337,-17.317,-125.041
0.314262500000041,-18.865,-38.867,-189.631,-56.52,-6.698,-23.136,110.287,51.557,-18.308,-16.321,-11.762,-5.852,-11.375,-8.039,4.396,-24.043,-10.39,-0.362,-11.737,-17.496,-55.297,-21.235,-19.838,-9.085,39.993,-18.175,-18.088,-37.792,-148.994
0.314322700000048,-18.334,-38.828,-204.811,-63.123,-12.326,-26.187,142.964,49.968,-15.216,-15.792,-11.238,-2.26,-6.753,-10.593,-6.879,-16.847,-7.818,0.15,-9.164,-12.356,-51.143,-18.14,-21.867,-17.273,49.174,-21.23,-17.557,-33.655,-167.288
0.331097999999656,-12.168,-31.105,-199.995,-52.302,-19.999,-16.427,175.609,43.771,-10.59,-7.58,-7.64,4.915,-1.623,-11.607,-8.409,-10.682,-2.175,8.859,-2.495,-2.609,-42.383,-14.536,-13.649,-13.158,81.401,-15.061,-10.367,-25.937,-159.436
0.331166499999654,-14.717,-33.123,-179.815,-51.225,-24.589,-23.583,179.02,29.894,-18.776,-15.257,-14.805,-6.361,-11.355,-16.718,-10.962,-23.479,-6.783,5.777,-9.153,-13.365,-46.439,-22.718,-15.684,-16.218,84.905,-24.78,-17.529,-32.571,-142.883
0.344391599999653,-16.752,-25.405,-152.996,-50.149,-12.782,-17.924,146.565,53.943,-17.221,-14.217,-12.229,-5.842,-9.807,-7.48,-8.39,-20.382,-0.629,7.82,-2.996,-11.303,-44.343,-12.449,-11.57,-6.981,88.919,-19.12,-15.463,-20.756,-116.612
0.344456699999682,-6.489,-5.4,-139.523,-30.631,3.113,8.734,139.759,86.677,2.777,8.339,6.739,13.631,8.133,14.045,8.013,1.668,14.229,19.595,15.963,8.689,-27.393,8.568,5.86,20.691,96.002,12.15,3.508,8.467,-101.127
0.359390799999801,-6.483,-11.03,-162.437,-28.039,-5.087,-3.57,172.407,56.364,-3.374,1.67,1.097,5.421,0.441,4.809,3.906,-4.994,1.407,5.743,2.114,-3.615,-29.927,-5.786,-2.855,15.035,69.779,7.015,-1.618,2.311,-132.276
0.359457099999872,-28.505,-40.22,-193.525,-57.213,-23.013,-35.842,173.259,24.032,-35.646,-30.607,-30.155,-22.249,-29.786,-27.471,-20.176,-35.727,-26.772,-21.927,-30.163,-33.326,-51.926,-37.543,-30.005,-17.255,48.704,-25.268,-27.744,-29.967,-156.222
0.37437749999981,-41.284,-45.815,-190.258,-66.377,-18.379,-32.732,140.81,40.914,-36.123,-31.601,-31.662,-19.153,-30.268,-34.616,-18.619,-36.204,-26.232,-17.294,-24.498,-30.219,-48.8,-33.407,-25.876,-20.824,75.295,-27.804,-28.229,-39.671,-127.377
0.389372999999978,-24.337,-22.203,-168.038,-39.158,-0.942,0.088,108.394,73.661,-3.299,1.219,-1.404,3.408,-1.037,-4.868,7.015,-9.528,-0.591,8.851,5.241,-6.11,-26.21,-6.733,-1.772,8.91,88.028,5.011,-6.684,-7.868,-107.782
0.393485399999918,-8.943,-7.836,-158.649,-26.311,5.206,11.871,141.073,76.661,11.049,13.001,7.819,8.015,11.26,14.093,13.155,1.24,9.656,17.551,11.383,0.044,-17.475,-1.091,-0.745,18.635,63.861,16.277,1.52,5.46,-122.019
0.406342699999641,-20.718,-19.612,-165.662,-42.679,-2.996,-6.584,173.72,44.309,-11.503,-9.042,-9.607,-4.288,-4.121,-2.315,-1.715,-12.081,-5.211,5.238,-3.485,-13.788,-26.166,-13.898,-15.602,2.735,60.211,3.966,-7.703,-8.89,-133.167
0.40640809999968,-31.968,-32.4,-181.891,-47.247,-15.801,-22.459,147.931,28.383,-29.935,-25.426,-21.381,-15.555,-21.535,-24.854,-12.471,-27.951,-21.087,-15.772,-19.363,-28.632,-34.849,-25.155,-24.807,-8.538,64.25,-5.26,-16.917,-9.906,-148.916
0.419488900000033,-23.226,-24.17,-183.246,-31.318,-17.834,-11.678,115.508,47.31,-22.221,-16.692,-18.286,-13.49,-21.001,-21.243,-7.848,-26.898,-19.529,-23.441,-22.93,-27.066,-28.667,-25.642,-24.783,-8.018,49.841,-5.255,-14.339,2.399,-147.742
0.41955599999983,-13.982,-9.802,-153.861,-24.115,-8.082,8.826,91.826,74.415,-1.706,1.768,-4.435,-1.694,-5.099,-2.779,2.406,-10.477,-4.14,-4.462,-7.025,-12.182,-13.269,-13.321,-12.975,1.724,64.135,3.972,-2.541,0.348,-114.807
0.434428699999899,-14.48,-7.23,-129.116,-25.115,-7.562,9.33,124.522,74.341,2.906,6.889,2.23,1.382,3.616,4.908,2.403,-5.856,4.061,11.937,4.765,-5.51,-11.719,-6.135,-5.79,8.895,86.613,7.042,2.072,-6.825,-94.2
0.434489199999916,-13.953,-12.859,-126.938,-19.967,-15.239,-7.586,157.185,48.139,-12.466,-5.413,-9.556,-5.279,-4.585,0.805,-4.771,-20.195,-4.652,0.654,-5.999,-12.677,-18.879,-15.863,-17.567,2.226,61.423,-2.699,-6.639,-1.183,-117.672
0.449453499999891,-13.427,-13.87,-112.466,-15.848,-13.175,-16.287,155.491,29.135,-21.675,-14.629,-17.743,-5.786,-12.777,-3.807,-8.353,-24.785,-12.332,-7.544,-8.554,-15.738,-14.25,-17.384,-20.623,-1.875,50.603,-5.77,-12.78,9.577,-89.377
0.453461499999776,-12.901,-0.024,-79.566,-6.099,-0.866,-7.562,142.015,40.377,-13.968,-8.979,-5.43,1.392,-4.567,-2.778,-1.172,-10.928,-3.611,4.759,10.41,-4.451,-5.014,0.052,-2.159,13.496,83.34,8.068,-2.009,27.498,-56.5
0.466259699999682,-4.179,25.591,-46.699,22.597,10.406,14.475,109.598,69.026,0.39,6.399,11.482,9.587,13.368,1.835,14.711,-0.159,5.102,15.513,22.183,9.385,3.188,15.421,10.65,31.926,102.212,24.966,15.924,59.233,-28.779
0.466325500000039,4.534,42.984,-13.865,51.263,13.981,30.854,105.902,84.838,10.124,19.2,18.642,14.188,21.551,1.833,21.356,0.866,4.072,13.448,19.086,11.938,10.869,18.479,9.103,37.017,70.347,34.163,22.055,80.691,4.038
0.479520200000025,-2.643,43.966,17.912,62.995,3.209,30.311,138.584,81.68,10.626,18.157,15.038,12.125,14.358,4.905,7.502,-1.696,2.531,10.361,10.87,3.216,8.297,9.239,0.385,29.296,50.809,26.956,15.886,73.438,36.821
0.479587599999832,-10.837,38.799,21.993,63.444,-7.04,24.133,106.17,79.549,6.004,9.941,6.313,5.453,6.146,11.048,-2.239,-8.867,-1.57,6.252,-1.948,-7.033,-1.445,-7.676,-14.473,12.872,54.344,8.998,7.673,58.508,36.272
0.494565699999839,-6.215,32.612,15.823,51.086,-4.472,18.474,73.788,74.859,-1.686,4.296,1.184,-1.213,0.505,-0.746,1.862,-13.981,-14.376,-8.099,-11.68,-10.612,-1.444,-14.328,-20.606,1.589,59.413,1.305,3.567,50.765,8.059
0.49463089999972,-2.111,28.481,5.561,35.153,-3.443,6.672,106.502,47.631,-11.418,-3.905,-1.891,-1.211,-2.57,-14.577,4.934,-8.844,-18.46,-16.8,-5.521,-6.503,6.242,-5.605,-9.827,9.272,66.014,6.939,4.588,47.128,-1.171
0.509557399999721,-1.596,31.527,-11.863,32.044,-0.878,1.542,139.184,33.751,-9.87,-5.95,0.672,8.524,5.118,2.343,8.003,0.898,-0.511,-2.439,11.391,5.287,15.458,6.184,2.991,27.706,69.534,20.252,12.268,54.253,-9.879
0.513565499999913,6.602,36.106,-23.122,32.524,9.882,14.348,106.769,64.456,4.997,10.962,14.504,16.2,17.408,21.296,16.192,8.582,16.396,14.982,22.138,15.015,22.102,16.936,9.648,39.461,70.489,32.527,18.916,64.445,-23.189
0.525755699999991,9.157,31.459,-36.931,24.807,6.286,20.994,74.387,83.347,8.066,20.172,17.051,11.06,15.854,11.541,13.102,8.061,9.72,10.357,17.505,9.365,20.543,14.87,5.54,32.762,69.394,27.372,14.798,56.183,-46.22
0.525822300000073,-6.221,17.083,-69.169,15.048,-10.627,7.141,107.1,54.062,-8.336,-0.34,-1.921,-1.246,3.542,-2.303,-0.744,-1.168,-4.122,1.125,5.705,-2.428,14.887,-2.051,-7.274,13.261,58.054,9.413,2.488,35.123,-78.449
0.539667199999712,-13.899,4.258,-101.376,3.25,-10.104,-5.162,139.781,31.467,-17.037,-14.684,-11.141,-5.856,-3.634,-5.374,-2.28,-8.339,-3.606,2.148,1.088,-4.987,15.385,-7.684,-11.877,6.588,51.848,3.769,-3.15,22.792,-93.227
0.539733599999636,-0.053,4.254,-108.446,-7.511,4.763,-3.62,107.366,43.73,-9.336,-3.399,-1.908,-1.239,0.981,-1.783,6.431,-1.159,2.545,5.22,6.21,0.141,19.98,1.033,-4.693,16.827,63.067,11.449,1.464,20.72,-86.474
0.554678599999988,4.558,8.348,-111.924,-6.479,8.344,2.019,76.007,55.982,-4.715,3.777,3.217,2.348,8.152,9.49,9.499,7.552,3.055,6.752,10.815,4.24,23.034,2.568,-4.176,15.786,61.467,11.438,6.073,18.65,-108.929
0.55474490000006,-10.304,3.729,-127.181,-6.985,7.824,6.628,72.345,56.951,-6.76,0.699,5.775,3.371,6.095,12.042,10.002,6.007,-0.534,4.696,9.779,2.698,27.109,2.054,-6.733,6.036,46.549,7.84,6.067,18.632,-138.534
0.569669399999839,-11.318,5.262,-135.764,-13.638,15.501,10.208,105.061,59.455,-0.093,8.895,11.405,8.49,7.626,4.345,18.701,8.563,1.003,0.592,10.794,5.257,33.23,11.273,1.983,14.739,56.748,15.005,11.184,23.736,-135.834
0.573814599999878,3.55,18.065,-136.652,-6.452,18.559,14.296,137.743,58.371,10.665,18.62,14.979,15.654,18.376,8.952,29.441,17.263,7.15,6.227,17.956,13.961,36.271,16.385,10.178,28.557,79.233,26.773,17.833,24.225,-130.575
0.586732700000084,-1.064,12.411,-147.274,2.776,11.88,12.232,124.798,54.727,5.532,9.38,9.329,11.54,14.772,9.455,24.288,14.685,4.069,8.783,17.425,10.873,29.574,11.245,2.995,21.356,77.104,24.185,12.18,12.417,-142.74
0.599774699999671,-16.432,-7.069,-160.447,-9.01,7.258,3.511,92.398,56.721,-6.257,-0.875,0.098,1.795,-1.124,-2.338,10.432,3.399,-2.595,-1.472,9.211,-0.408,24.422,5.599,-6.742,9.039,59.609,10.84,2.946,2.671,-156.429
0.599842799999806,-9.244,-6.037,-161.823,-19.247,10.324,4.02,80.522,61.275,-2.665,5.273,2.659,3.33,1.438,7.399,12.47,4.933,2.018,0.066,11.251,3.178,32.082,7.642,-3.661,11.08,46.742,10.317,4.992,6.767,-163.958
0.614802399999917,0.499,3.19,-168.834,-13.593,16.462,13.237,63.023,66.337,2.461,11.928,12.903,10.499,10.658,17.125,21.679,14.149,6.627,11.337,15.851,9.835,37.173,11.733,0.953,15.679,41.572,17.479,10.111,10.858,-170.454
0.614869099999851,-10.26,-3.985,-190.182,-20.239,13.371,8.101,57.325,60.123,-7.787,5.256,6.23,7.415,3.988,-7.483,13.973,11.573,-3.113,0.567,9.687,1.628,29.963,9.16,-4.171,11.053,48.702,13.876,3.953,3.675,-181.042
0.629770300000018,-14.86,-11.154,-192.553,-33.539,3.624,-3.178,90.055,41.62,-15.464,-2.946,-4.022,2.284,-0.115,-17.721,5.762,5.927,-6.697,-11.217,9.165,-0.422,29.933,6.589,-4.167,7.968,61.461,12.325,1.387,0.598,-180.861
0.629848199999742,-7.673,0.128,-169.819,-16.087,9.256,8.096,105.847,45.677,-5.203,7.303,10.839,11.503,11.156,12.522,18.052,16.679,8.167,6.213,25.55,14.435,40.15,19.39,9.158,15.132,77.794,26.145,15.73,10.331,-157.626
0.645735499999773,-11.251,12.424,-162.989,1.348,26.665,27.556,73.465,71.759,7.098,24.202,25.685,22.763,22.416,26.855,34.94,29.47,18.917,23.113,34.746,23.13,41.134,31.666,14.784,24.339,79.253,34.828,23.399,19.03,-153.882
0.645800599999802,-17.388,3.702,-181.27,-17.609,20.491,20.868,98.495,70.15,5.042,21.104,12.851,16.592,21.881,10.434,29.782,22.268,13.263,16.43,20.879,15.934,33.921,21.389,1.961,20.216,46.898,25.059,12.617,14.912,-186.004
0.659884499999862,-10.198,-11.159,-192.359,-30.399,1.515,3.429,131.184,51.637,-4.697,6.226,1.055,5.305,12.125,6.837,15.92,11.488,9.151,9.753,8.562,8.234,33.374,8.047,-7.775,6.363,48.388,14.276,5.945,11.311,-201.187
0.659952399999838,-3.528,-6.024,-187.044,-12.95,10.223,5.474,98.778,59.27,-6.742,5.195,7.202,8.373,5.453,16.052,19.49,16.087,13.753,12.305,15.726,8.738,38.464,12.138,-1.619,2.771,81.128,17.335,13.624,17.448,-177.419
0.674828400000024,-13.258,0.642,-181.733,-14.474,18.922,7.006,95.605,58.186,-7.76,3.653,3.096,7.34,3.911,7.327,25.618,15.046,9.641,9.219,16.223,6.68,32.278,11.613,0.944,5.842,76.436,16.806,10.536,10.258,-174.168
0.674888900000042,-27.59,-16.265,-187.699,-38.538,-6.713,-6.321,128.297,36.611,-18.51,-10.183,-14.325,-6.499,-2.753,-7.025,12.273,-1.875,-4.713,-1.036,-0.7,-4.598,17.389,-3.768,-11.865,2.762,44.084,0.907,-6.381,-15.368,-189.876
0.689898199999789,-27.562,-24.958,-195.709,-38.5,-14.903,-7.339,95.893,46.308,-17.467,-10.173,-12.774,-5.981,-4.287,-2.407,8.674,-4.435,-5.733,-5.134,-1.724,-11.253,15.322,-6.838,-14.414,-0.314,52.237,-4.729,-7.399,-17.401,-183.538
0.689959899999849,-17.288,-9.052,-192.439,-21.043,11.24,6.5,128.585,60.094,-2.081,3.157,2.096,6.833,8.525,10.403,28.133,10.427,6.055,1.531,14.16,0.541,26.578,6.489,0.457,4.297,84.972,11.157,6.953,6.182,-177.207
0.706868999999642,-9.586,-1.87,-183.025,-17.435,11.741,5.469,161.244,40.054,-3.615,1.617,2.606,5.802,14.152,12.441,31.179,15.027,11.172,9.214,16.195,10.787,29.113,13.655,6.092,13.002,72.592,22.929,10.532,12.836,-186.763
0.706950699999652,-5.478,-6.992,-184.379,-23.053,-11.325,-2.733,128.808,32.842,-18.469,-8.631,-5.081,-1.376,3.379,6.794,17.828,6.303,5.014,9.205,10.031,2.067,22.936,10.567,-2.623,16.063,52.027,18.295,3.862,-1.522,-189.65
0.7199885,-13.157,-12.108,-197.515,-31.74,-8.24,-6.829,96.403,38.956,-23.573,-13.745,-6.613,-2.4,-6.871,-0.898,19.859,0.661,-0.627,5.098,5.922,-8.181,18.814,1.848,-10.305,6.313,41.729,7.519,0.784,-8.692,-190.998
0.720054999999775,-28.514,-15.682,-198.342,-36.831,2.527,-7.334,90.159,30.721,-23.037,-11.682,-6.606,-2.91,-7.376,-0.897,27.012,3.222,0.911,6.117,0.793,-2.538,18.283,-4.814,-12.857,-3.428,30.929,1.364,-1.266,-4.585,-193.881
0.734940199999983,-20.8,-2.858,-178.163,-22.962,-1.062,8.042,57.794,50.67,-11.744,4.723,2.622,4.778,2.877,9.862,28.009,15.002,8.082,12.259,9.502,8.223,24.413,5.437,-4.134,4.26,63.685,9.047,4.883,8.739,-180.367
0.735001300000022,-1.312,14.051,-170.813,-8.594,-1.061,24.94,80.79,75.722,5.174,17.526,12.865,13.482,14.658,9.853,28.494,23.184,7.049,9.173,23.837,11.801,30.536,18.751,6.628,16.039,84.626,21.333,17.174,21.538,-173.014
0.749991799999862,-7.971,-1.333,-192.671,-20.369,-3.109,9.546,113.497,45.42,-3.028,4.189,3.119,3.735,7.983,-1.428,23.342,15.988,-1.155,-3.132,15.104,6.666,23.333,12.072,0.986,16.023,52.266,19.263,13.57,8.197,-188.21
0.750052899999901,-17.697,-22.336,-204.774,-37.254,-11.303,-7.882,81.108,24.37,-14.808,-3.5,-5.594,-3.953,1.315,2.16,19.22,9.312,-1.666,-2.104,1.769,1.537,15.625,-1.26,-9.773,7.81,41.968,6.436,-0.276,-18.451,-197.756
0.766942899999776,-6.92,-18.727,-198.422,-37.729,-8.217,2.884,48.751,55.084,-1.985,7.262,1.072,2.711,11.048,7.28,23.812,14.938,3.459,7.632,6.378,1.023,20.22,-2.795,-9.764,-1.419,74.714,0.794,0.237,-23.044,-195.509
0.767010199999731,-9.475,-20.246,-204.371,-35.13,-3.598,2.881,74.83,61.689,-0.959,0.595,-4.052,0.659,10.012,-8.096,20.714,13.899,0.894,2.501,4.322,-3.077,19.175,-3.817,-12.828,-6.541,64.905,0.793,0.749,-15.848,-198.9
0.780441599999904,-21.249,-24.836,-204.166,-33.558,-8.206,-12.491,93.711,40.623,-17.864,-11.701,-16.344,-9.076,-3.83,-13.723,13.521,5.688,-5.767,-7.235,-4.904,-9.734,11.472,-8.936,-16.401,-1.923,37.176,-2.794,-6.936,-11.222,-200.238
0.795130099999824,-12.006,-8.93,-182.958,-25.84,-4.611,-5.306,117.183,46.73,-9.649,-0.419,-6.081,-2.919,3.346,0.635,20.68,9.781,-3.2,2.506,1.249,-4.089,16.071,-4.317,-6.138,4.739,51.995,0.283,-2.831,2.622,-191.328
0.795196499999747,-0.723,1.325,-179.189,-21.203,7.689,8.019,149.854,52.319,5.73,10.34,8.269,8.355,17.175,7.294,32.955,21.042,7.05,13.774,10.981,6.674,29.887,7.471,1.04,7.808,63.214,14.115,9.467,11.841,-178.841
0.810083899999881,-1.747,-0.725,-188.743,-22.207,15.878,8.011,117.429,49.705,4.187,9.817,9.286,12.445,17.158,8.824,38.045,25.631,13.703,13.248,15.069,12.303,36.005,14.123,3.088,14.46,60.589,22.298,12.019,7.218,-168.416
0.810141999999814,5.939,7.472,-178.821,-13.475,22.01,19.274,85.036,73.221,10.843,20.566,13.887,16.018,22.776,13.938,42.617,30.729,15.226,15.796,23.251,17.413,37.506,19.745,11.794,26.228,73.336,26.886,14.569,13.359,-166.711
0.825076000000081,6.446,9.514,-176.08,-5.265,24.037,26.427,99.808,82.37,16.98,24.132,15.41,13.953,25.315,11.363,43.087,30.186,10.6,12.707,21.691,15.347,37.981,19.213,9.221,25.178,83.509,28.908,18.14,23.591,-175.254
0.829069999999774,-18.664,-6.377,-197.933,-19.092,11.718,5.909,130.446,50.012,-5.067,3.615,-1.511,-1.43,4.797,2.642,27.162,14.786,-1.194,-6.774,3.738,-2.599,26.672,2.287,-9.231,3.636,68.569,13.51,4.29,9.735,-191.984
0.841200899999876,-26.842,-12.518,-201.322,-35.979,-5.713,-3.831,98.553,38.691,-17.869,-6.635,-12.78,-9.113,-6.479,1.103,12.791,5.55,-5.291,-11.89,-2.926,-10.794,16.399,-10.011,-13.833,-6.614,44.422,-2.385,-8.522,-6.156,-205.112
0.841264799999863,-0.175,-2.772,-186.263,-30.308,-9.293,11.03,119.971,60.169,-0.433,6.18,1.065,2.679,8.385,6.737,21.999,16.815,8.034,9.126,9.373,1.513,27.653,0.246,-5.11,6.2,48.988,9.401,4.294,-0.514,-199.272
0.854230699999789,4.948,-2.257,-196.323,-31.302,-3.136,5.383,152.639,46.277,-3.506,2.587,4.137,4.726,8.889,5.193,29.662,18.848,10.588,15.265,10.388,0.486,32.237,4.856,-6.642,6.194,72.505,19.125,11.462,0.511,-191.9
0.854297399999723,-18.623,-17.111,-219.693,-52.788,-4.67,-17.676,146.339,13.955,-30.143,-17.908,-13.798,-9.111,-10.588,-6.595,15.8,6.021,-4.792,-2.169,-3.455,-12.834,16.835,-7.956,-15.344,-11.231,59.625,3.224,-3.918,-12.297,-199.393
0.869222699999682,-13.481,-16.07,-209.74,-44.026,-1.591,-3.314,113.917,38.02,-19.354,-6.107,-7.636,-4.492,-0.843,-3.515,18.346,11.138,1.361,2.444,3.721,-2.575,21.941,-3.85,-7.132,-5.584,33.95,3.733,-3.402,-8.187,-194.071
0.869280699999763,8.561,5.463,-185.451,-11.194,18.39,29.477,93.311,70.769,13.453,26.687,19.524,15.493,29.896,17.494,41.894,31.107,27.999,27.545,30.87,19.457,42.412,17.158,10.806,18.5,51.335,26.784,15.557,10.777,-178.507
0.884170399999675,-3.23,6.483,-193.975,-15.281,22.47,25.349,126.005,63.014,14.976,24.611,17.967,14.453,30.378,22.087,36.729,30.564,28.483,29.566,29.302,16.363,34.685,15.092,6.697,17.457,69.214,26.757,14.516,11.791,-191.137
0.888571799999681,-21.158,-15.041,-214.274,-43.443,1.443,-1.316,126.904,30.676,-10.142,1.021,-1.518,2.143,11.392,9.769,15.687,18.238,12.573,16.217,8.268,3.027,20.818,-2.854,-8.679,-1.516,58.899,7.262,0.157,-2.053,-213.999
0.900257599999804,-11.915,-19.637,-209.961,-46.473,0.93,-0.803,119.604,28.083,-12.181,1.532,-1.004,3.678,10.356,10.784,20.795,18.219,13.073,15.176,10.821,2.512,27.457,-0.802,-4.06,-5.613,61.914,6.23,1.182,-6.15,-209.687
0.900321099999928,-7.292,-9.371,-195.406,-37.205,20.396,12.006,136.391,45.474,2.688,12.801,8.73,7.26,18.543,17.433,32.557,23.837,14.085,14.649,21.057,6.608,31.016,9.958,7.215,4.639,69.024,17.495,7.841,-2.045,-191.034
0.91432339999983,-15.482,-8.849,-185.989,-32.045,21.401,16.092,103.979,58.748,9.346,14.838,11.283,7.253,21.086,14.854,32.012,26.887,9.46,11.048,16.425,7.626,26.886,8.411,2.597,10.782,58.197,18.502,6.808,2.568,-182.646
0.914391399999658,-14.442,-12.939,-191.439,-31.501,11.645,12.49,100.801,54.591,2.164,12.261,7.174,7.246,19.016,11.766,29.931,25.835,10.475,15.135,16.408,2.495,24.298,3.279,-3.553,5.648,53.015,11.824,2.703,6.151,-198.345
0.929316799999924,-15.964,-19.586,-216.35,-42.228,6.511,-4.428,133.488,26.872,-12.183,-2.608,-6.154,1.091,9.263,7.143,24.266,14.539,5.854,9.485,13.318,-6.729,15.564,-0.823,-3.037,-4.092,58.598,6.689,-3.448,-3.589,-227.348
0.929383099999995,-26.707,-27.763,-221.769,-46.796,-1.181,-15.182,109.789,17.111,-17.806,-11.827,-13.32,-4.546,1.057,-0.036,16.557,6.839,-2.861,-4.869,1.009,-9.284,10.938,-5.432,-5.083,-6.137,69.297,4.633,-8.055,-23.565,-220.461
0.944308399999954,-26.168,-26.711,-194.395,-40.602,-5.278,-3.897,77.403,34.513,-11.64,-2.594,-7.159,0.07,6.179,-4.135,16.54,9.906,-0.809,-6.914,2.033,-7.738,16.05,-4.915,-7.128,-3.057,65.642,4.116,-6.51,-23.029,-190.526
0.948243999999704,-11.797,-19.512,-182.93,-45.684,-5.273,-5.942,110.114,27.818,-11.117,-3.103,-7.664,2.631,8.222,-5.155,16.524,9.897,1.753,-1.272,6.642,-7.73,14.497,-3.885,-8.145,-3.054,37.399,3.599,-4.454,-2.514,-195.971
0.960443699999814,-6.15,-11.295,-186.846,-42.565,-2.706,-9.522,140.742,22.155,-9.568,-6.174,-6.119,-0.445,7.189,3.559,19.069,12.448,4.313,4.877,2.024,-3.624,13.458,-3.881,-5.575,0.536,47.096,10.768,-1.888,8.759,-201.923
0.97450069999968,-15.365,-4.112,-178.462,-22.03,7.031,10.98,108.326,53.383,2.224,9.714,5.67,4.678,14.866,16.363,24.173,20.12,13.53,13.582,5.096,-0.034,19.08,0.221,-1.471,3.097,79.836,14.856,1.7,2.091,-180.204
0.974567299999762,-24.571,-12.305,-188.017,-29.18,3.95,9.944,136.395,53.842,0.685,7.142,-0.996,3.649,11.778,10.199,16.464,12.416,5.832,3.322,4.066,-7.206,12.913,-4.902,-8.13,-8.69,52.092,2.546,-4.45,-11.231,-193.344
0.989514399999734,-27.108,-29.711,-209.346,-52.717,-15.522,-18.243,169.046,21.513,-14.173,-13.869,-17.389,-9.675,-0.53,-4.156,4.152,0.108,-8.006,-13.587,-10.282,-13.859,3.166,-18.217,-18.368,-21.489,19.765,-8.728,-16.74,-21.466,-224.914
0.989609499999915,-24.52,-32.755,-198.891,-47.541,-14.482,-15.663,136.601,32.25,-12.109,-4.634,-12.248,-9.665,5.619,0.972,4.148,6.768,2.248,-0.766,-7.71,-10.259,7.774,-17.687,-15.788,-19.93,52.532,-6.67,-14.675,-28.105,-213.418
1.00441409999985,-20.397,-28.111,-189.983,-37.247,-3.196,-1.815,104.189,61.932,-3.388,8.178,-4.039,3.665,13.298,8.655,8.242,11.884,11.98,14.604,5.617,-6.663,11.352,-9.985,-10.137,-13.763,61.189,-2.565,-7.488,-30.638,-199.885
1.00448060000008,-18.839,-24.497,-199.014,-43.358,-10.878,-5.912,136.873,51.624,-5.434,-3.613,-11.207,2.636,5.087,7.11,8.234,4.187,6.332,5.88,2.025,-8.193,9.292,-10.487,-9.102,-4.015,28.853,-0.001,-7.992,-20.362,-202.759
1.01957289999973,-19.845,-17.3,-189.594,-44.339,-14.453,-7.443,169.524,38.764,-9.527,-7.708,-14.27,-8.125,0.984,3.004,5.152,0.597,7.863,1.776,-5.149,-14.332,8.258,-13.038,-10.118,2.137,47.779,-0.001,-7.984,-6.509,-194.871
1.01965070000006,-20.85,-24.455,-192.478,-50.442,-14.951,-16.144,202.142,23.869,-21.813,-14.36,-19.379,-14.777,-6.189,-11.856,-2.538,-5.551,1.195,-2.325,-11.804,-25.076,-1.484,-22.759,-21.378,-13.747,80.519,-12.296,-12.587,-17.261,-210.046
1.03553399999964,-22.878,-40.825,-220.462,-66.274,-32.354,-36.108,230.629,-2.283,-40.234,-34.326,-31.142,-19.885,-22.577,-21.065,-11.757,-15.792,-16.225,-16.155,-22.55,-32.736,-9.68,-35.544,-32.115,-31.152,60.459,-21.505,-21.796,-35.687,-234.426
1.03560010000001,-23.368,-33.611,-206.409,-58.523,-30.273,-26.338,198.123,17.187,-29.947,-26.607,-25.476,-16.791,-17.944,-2.601,-10.208,-10.653,-8.012,-7.429,-16.38,-26.556,1.088,-25.774,-21.837,-19.85,43.492,-9.701,-15.627,-23.868,-210.626
1.04947179999999,-17.709,-24.356,-177.001,-44.632,-6.164,-8.381,165.649,49.958,-9.938,-8.137,-14.692,-7.553,-2.557,6.111,1.073,-0.396,6.853,8.972,-1.507,-18.332,9.797,-12.428,-12.081,-4.973,51.133,-0.469,-5.877,-11.549,-195.046
1.04953819999992,-18.204,-38.677,-198.854,-58.42,-7.695,-22.717,198.272,20.194,-22.223,-19.912,-22.874,-10.107,-9.726,-10.802,7.219,-5.006,-2.887,-4.357,-7.141,-21.388,2.102,-23.687,-18.729,-13.677,45.447,-11.227,-15.605,-28.956,-220.979
1.06447529999969,-20.747,-41.199,-218.123,-64.509,-14.859,-30.379,230.861,-1.343,-31.422,-25.527,-24.901,-12.658,-16.377,-10.791,3.114,-8.588,-10.057,-15.623,-14.818,-25.465,1.075,-27.762,-18.711,-18.274,56.16,-14.29,-19.176,-32,-217.684
1.07951589999993,-14.579,-22.715,-195.875,-45.489,0.525,-9.344,198.355,31.446,-11.923,-6.034,-8.994,-3.936,-1.503,-1.559,2.598,0.13,-4.411,-4.337,-7.631,-18.779,12.345,-13.389,-10.495,-3.911,65.325,0.069,-5.324,-9.939,-192.363
1.08372719999988,-10.978,-18.594,-181.847,-40.32,3.598,2.96,165.881,52.931,-3.714,0.119,-4.374,-0.859,4.646,-7.192,5.669,2.692,-3.895,0.278,-5.062,-15.174,13.87,-14.4,-16.12,-0.321,48.353,4.167,-3.782,-10.954,-191.146
1.08378360000006,-18.139,-25.235,-185.251,-46.94,-9.213,-2.678,198.503,33.923,-11.908,-6.028,-15.128,-7.006,-2.019,-2.574,2.59,-5.508,-1.841,-4.333,-12.741,-21.819,5.147,-26.681,-24.301,-13.641,50.354,-6.595,-14.024,-26.824,-194.541
1.09658169999966,-22.219,-26.235,-184.554,-48.942,-9.716,-12.409,231.092,18.007,-12.408,-8.072,-19.212,-9.56,-3.041,5.113,-2.536,-8.576,1.747,-3.304,-13.753,-25.383,3.092,-25.118,-22.227,-16.701,49.279,-10.687,-12.986,-22.699,-197.933
1.10957049999979,-23.734,-28.258,-187.443,-58.627,-8.682,-20.081,233.935,7.743,-16.494,-14.723,-18.168,-11.087,-5.088,-9.749,-0.996,-7.031,-2.866,-2.788,-8.617,-21.772,5.138,-19.97,-18.619,-10.025,29.762,-8.115,-8.874,-16.529,-209.518
1.10963790000005,-24.735,-25.156,-185.719,-62.155,-11.235,-16.987,201.425,12.859,-24.674,-22.393,-20.711,-15.175,-11.23,-15.887,1.566,-11.635,-4.912,-3.298,-8.096,-21.75,1.035,-22.511,-17.576,-13.601,55.86,-9.644,-13.988,-19.074,-209.821
1.10968000000003,-22.149,-21.032,-186.558,-46.723,-8.15,-11.847,181.756,24.629,-22.088,-21.859,-22.74,-15.672,-12.243,-5.113,-0.485,-14.184,-4.907,-4.319,-12.186,-24.29,-2.552,-25.05,-19.095,-21.272,80.395,-10.659,-18.073,-14.444,-203.463
1.12455610000006,-20.077,-24.085,-197.13,-37.455,-8.654,-12.348,214.362,17.944,-15.918,-11.591,-16.569,-13.607,-4.547,-4.595,-3.046,-5.461,-4.39,-3.29,-7.051,-19.655,3.598,-20.927,-16.002,-14.078,48.039,-6.55,-12.932,-10.843,-196.087
1.13962249999986,-17.496,-20.475,-189.248,-41.516,-9.158,-4.139,204.926,22.537,-12.829,1.229,-6.819,-10.007,4.679,-1.005,0.544,2.229,4.836,6.959,2.69,-14.512,5.643,-11.172,-6.764,-2.281,30.573,0.117,-5.746,-14.931,-183.596
1.1447561,-13.38,-15.331,-170.615,-46.598,-2.489,-1.573,172.446,33.273,-11.791,-1.334,-8.861,-7.436,2.113,5.656,5.666,-2.384,5.856,6.952,0.638,-16.547,-1.022,-13.21,-10.344,-9.451,63.33,-0.395,-7.278,-19.014,-191.097
1.1566700999997,-20.026,-25.05,-177.617,-53.723,-2.998,-15.916,194.303,17.358,-18.439,-16.19,-18.074,-11.014,-8.135,-7.669,1.562,-6.992,-8.495,-10.473,-6.022,-20.116,-3.07,-24.468,-21.604,-24.811,83.759,-10.129,-12.906,-17.459,-209.349
1.15675049999982,-24.617,-26.561,-183.587,-48.547,-7.094,-12.314,187.448,20.927,-15.859,-10.026,-13.958,-9.979,-3.004,-16.371,-0.489,-0.838,-4.9,-10.975,-1.918,-16.51,0.519,-19.32,-14.41,-20.688,62.671,-13.193,-7.77,-13.343,-193.77
1.16966959999991,-13.834,-14.752,-167.522,-34.153,-2.476,9.215,165.744,47.546,-2.524,4.329,-3.185,-0.235,8.782,-1.498,11.807,5.311,10.474,3.893,2.695,-11.883,-1.531,-9.055,-3.125,-3.248,31.357,-0.884,0.435,-16.915,-166.424
1.16973890000008,-15.357,-16.786,-161.719,-36.681,1.625,4.595,198.366,32.129,-5.595,-1.823,-5.743,-0.235,3.65,4.652,16.406,3.256,8.926,3.377,0.131,-12.383,-7.165,-14.169,-7.733,-1.708,26.715,4.24,-2.127,-24.583,-168.307
1.18460409999989,-31.736,-27.528,-171.291,-44.329,-1.45,-16.926,208.414,7.506,-24.032,-15.141,-16.496,-13.042,-8.136,-9.698,2.045,-4.944,-2.353,-9.947,-4.993,-21.592,-15.355,-21.839,-15.41,-15.539,56.402,-6.01,-9.297,-20.46,-186.069
1.18466259999968,-28.63,-34.16,-180.854,-43.772,-13.232,-23.569,175.93,19.282,-31.693,-22.811,-26.726,-20.201,-17.35,-25.57,-7.691,-17.234,-14.646,-20.695,-15.746,-33.354,-26.61,-28.477,-19.493,-27.306,65.567,-17.788,-15.948,-18.903,-200.74
1.19969829999991,-19.892,-39.249,-187.333,-51.925,-21.416,-21.496,168.582,24.386,-28.587,-24.325,-26.187,-16.595,-20.406,-25.544,-3.072,-18.754,-16.681,-19.65,-17.267,-30.759,-28.12,-31.01,-19.473,-29.841,52.182,-19.819,-18.494,-31.179,-204.126
1.20352219999995,-27.557,-27.939,-177.924,-54.435,-4.488,-13.278,201.201,18.726,-16.263,-11.493,-10.791,-7.869,-3.992,-5.026,7.177,-1.317,4.853,0.862,1.705,-13.822,-19.383,-13.561,-7.671,-18.54,61.863,-8.016,-4.643,-22.439,-187.015
1.21529539999983,-28.042,-7.419,-164.426,-33.888,13.447,-1.994,220.98,24.855,-4.976,0.302,-2.584,0.336,9.844,6.762,15.367,8.931,14.582,13.669,10.413,-7.661,-20.388,-0.227,-0.491,-3.665,62.826,7.361,9.194,0.638,-168.385
1.21537239999998,-17.255,-10.486,-168.36,-21.559,-0.399,-6.09,188.483,23.805,-14.193,-8.92,-11.29,-5.3,-3.486,-11.176,9.716,-3.374,-4.901,-1.714,-3.43,-17.387,-32.663,-10.473,-8.687,-4.685,41.246,3.255,0.988,-3.462,-171.803
1.22972619999973,-15.701,-16.623,-164.093,-27.173,-13.206,-13.257,156.019,29.417,-16.74,-13.01,-11.279,-10.418,-6.556,-17.824,-0.54,-6.956,-6.433,-5.298,-1.377,-16.345,-36.729,-11.487,-8.166,-5.705,52.476,-4.945,0.475,-9.606,-178.804
1.22979570000007,-12.611,-2.262,-148.048,-25.096,3.201,-1.973,188.651,47.318,6.33,3.909,4.614,4.449,17.529,2.686,9.194,10.981,16.628,16.736,21.166,0.578,-32.081,4.918,3.113,5.059,79.576,6.331,13.794,5.261,-165.817
1.24471330000006,-6.963,-2.259,-156.609,-22.51,14.981,3.153,221.25,29.852,5.812,7.492,8.195,11.105,21.61,6.782,23.017,16.093,15.074,18.256,20.632,4.676,-34.099,2.864,0.548,1.98,62.078,9.398,7.633,1.157,-150.282
1.24478109999973,-14.129,-23.262,-174.383,-36.832,-1.428,-16.318,213.344,-2.453,-26.47,-17.619,-9.231,-10.423,-7.613,-12.693,11.724,-2.878,-6.458,-1.742,-3.467,-13.26,-47.385,-15.07,-15.334,-13.391,29.74,-10.591,-6.719,-22.923,-166.013
1.25974330000008,-24.873,-27.337,-167.036,-52.164,-21.919,-30.647,180.856,3.185,-36.177,-32.971,-23.054,-21.171,-24.512,-20.365,-7.756,-13.634,-12.087,-4.302,-13.709,-26.054,-58.608,-22.227,-22.491,-13.378,27.661,-18.265,-2.614,-30.072,-185.827
1.26384009999992,-27.41,-20.137,-154.574,-52.112,-25.995,-22.931,213.462,22.137,-19.235,-21.667,-19.958,-11.416,-13.216,-10.098,-9.797,-5.935,-4.39,2.875,-4.474,-18.856,-59.062,-18.106,-15.296,-10.803,60.421,-11.587,0.462,-27.993,-169.248
1.27617680000003,-27.382,-28.826,-162.616,-44.888,-24.432,-18.298,246.037,13.406,-19.728,-15.497,-16.351,-12.942,-6.031,-5.99,-9.787,-5.929,-5.923,-7.886,-2.421,-15.763,-60.539,-17.576,-11.182,-21.038,68.046,-16.186,-5.174,-30.526,-164.98
1.27624329999981,-23.257,-32.384,-174.237,-41.769,-21.846,-22.378,213.515,15.954,-22.782,-22.654,-20.946,-18.052,-11.148,-13.156,-13.364,-12.584,-16.163,-20.174,-12.152,-26.506,-68.676,-24.218,-17.831,-21.017,35.702,-18.731,-1.582,-25.885,-195.553
1.28971890000003,-13.499,-15.445,-167.403,-31.481,-5.943,-7.499,181.026,48.726,-4.828,-9.824,-11.191,-6.763,-2.427,-9.044,-2.592,-4.374,-12.048,-8.883,-11.115,-22.893,-65.533,-24.706,-17.813,-6.139,45.4,-7.954,5.079,-16.125,-185.624
1.28978469999993,-7.851,-12.356,-153.915,-22.74,3.797,4.804,213.633,48.677,0.3,1.969,0.091,-2.658,7.309,3.26,6.632,4.852,0.259,3.421,-3.932,-11.6,-59.32,-19.046,-9.086,-4.084,60.724,-7.946,3.025,-19.183,-152.651
1.30465669999967,-11.429,-31.811,-162.47,-39.111,-17.724,-19.791,246.207,16.353,-22.242,-21.087,-15.791,-14.438,-7.555,-8.014,-3.621,-5.911,-9.987,-6.828,-11.612,-21.322,-72.068,-24.663,-14.713,-17.4,28.388,-20.746,-4.15,-34.533,-177.601
1.31972259999975,-17.053,-33.316,-174.091,-50.855,-27.44,-31.042,213.685,6.603,-27.855,-29.775,-24.484,-16.473,-14.72,-20.814,-6.691,-10.516,-19.199,-9.895,-13.138,-25.911,-79.681,-29.761,-20.846,-22.506,28.36,-20.213,-1.585,-36.548,-200.477
1.31978079999999,-14.474,-12.278,-156.499,-25.189,-1.285,1.777,181.196,39.384,-5.798,-1.568,-2.943,-4.673,3.738,-0.813,7.148,3.327,-0.736,10.607,4.294,-7.442,-67.818,-14.874,-8.017,-12.749,61.119,-8.41,9.175,-15.507,-171.588
1.33650649999981,-8.312,-12.778,-144.047,-14.405,5.889,8.947,194.335,48.566,-4.256,0.995,-1.403,-7.743,4.246,6.873,4.067,3.836,5.412,14.182,5.826,-7.435,-70.824,-8.712,-4.935,-8.126,58.496,-6.352,6.605,-10.88,-165.781
1.33657229999972,-11.89,-27.11,-156.71,-38.982,-8.974,-18.727,226.929,16.242,-20.645,-20.011,-19.845,-19.518,-10.103,-16.188,-9.257,-7.439,-11.5,-4.275,-7.499,-21.26,-84.073,-20.998,-14.664,-13.241,26.162,-13.006,-4.16,-27.263,-176.373
1.3498196999999,-14.44,-16.837,-151.943,-34.844,3.842,-11.535,233.874,21.349,-14.989,-9.232,-11.115,-10.277,-0.871,-12.074,-1.051,-1.796,-6.877,-4.783,0.705,-10.992,-74.256,-14.83,-6.965,-2.981,25.112,-7.869,3.528,-21.088,-151.606
1.34988720000001,-5.716,1.111,-135.397,-6.632,19.208,14.604,201.365,41.82,-2.166,10.757,8.363,4.078,12.45,9.968,13.807,11.013,5.425,5.468,14.024,1.826,-64.96,2.604,5.338,17.514,19.451,8.532,17.869,-1.599,-146.331
1.36480170000004,-6.735,-4.013,-144.483,-12.774,7.406,8.441,198.089,34.606,-5.75,6.135,4.257,-1.049,6.802,0.224,14.306,12.027,-3.29,-0.173,8.375,-2.786,-76.166,0.552,-1.84,14.935,38.387,11.085,16.827,-6.721,-173.337
1.36486990000003,-18.511,-12.719,-157.659,-31.716,1.763,0.748,165.616,39.182,-7.282,-0.018,-3.945,-5.147,3.721,-15.146,10.193,10.99,-11.483,-4.783,4.268,-4.833,-80.7,-6.109,-5.424,1.6,68.575,0.316,10.662,-15.423,-171.115
1.37991029999966,-14.394,-6.046,-152.89,-27.586,9.446,10.994,133.175,54.512,-1.639,3.055,0.158,1.519,7.304,-9.495,10.695,9.955,-5.836,0.857,9.899,-1.754,-77.546,-2.517,0.216,7.746,36.231,0.315,11.676,-8.236,-156.599
1.37998309999966,-1.572,2.157,-145.565,-16.288,14.047,16.106,165.83,49.847,3.998,7.663,9.891,2.542,8.833,-1.289,18.369,10.457,-1.22,5.467,13.475,-0.215,-79.517,0.047,-0.808,12.349,21.85,6.975,16.276,-5.154,-154.906
1.39662649999991,-1.571,3.692,-141.321,-9.099,23.767,19.164,198.451,48.772,9.63,12.266,14.492,2.027,12.923,4.348,26.548,18.643,2.367,11.609,13.974,4.396,-78.413,-0.465,-0.808,-0.471,54.616,3.894,22.407,-7.198,-145.529
1.39669539999977,-4.643,2.663,-137.081,-11.651,26.817,16.583,204.401,44.625,5.521,7.131,9.867,5.099,11.885,6.393,21.91,18.625,1.853,16.72,10.374,2.854,-76.286,-2.001,1.755,-3.544,49.95,2.866,22.385,-3.604,-141.798
1.41034420000005,-2.077,1.124,-129.772,-25.472,11.421,1.197,236.984,22.039,-8.316,-3.122,1.66,0.483,2.652,-1.298,11.13,6.311,-4.297,6.97,6.265,-5.858,-82.357,-6.61,-1.321,6.193,17.625,6.961,16.727,3.059,-139.094
1.41040889999977,-3.099,3.172,-110.174,-19.811,5.774,-2.903,227.013,17.406,-12.919,-4.144,0.122,-2.079,-0.937,-7.444,10.094,9.891,-3.78,-2.259,9.845,-3.803,-83.812,-4.042,-1.32,9.261,18.12,7.467,18.247,13.302,-108.217
1.42487029999984,-2.584,19.563,-77.277,9.922,26.261,16.056,194.511,41.467,-2.147,7.131,12.417,8.681,9.823,-5.9,22.379,29.348,3.396,5.941,25.205,10.033,-73.482,10.819,14.051,17.961,50.889,18.218,31.036,28.658,-75.321
1.42493089999971,11.763,45.158,-44.412,33.991,43.653,39.606,174.848,65.504,18.859,29.153,35.971,22.505,32.867,2.303,41.825,40.59,11.589,21.304,44.647,27.442,-60.6,32.837,33.505,43.046,79.528,41.766,47.399,49.122,-42.458
1.43989349999993,24.559,61.507,-11.579,50.351,41.56,53.911,207.461,77.222,33.185,47.055,47.718,29.655,47.178,19.207,49.468,43.111,19.263,24.869,49.213,33.562,-59.003,41.001,36.033,54.786,77.911,52.482,56.061,73.151,-9.628
1.43995339999992,17.363,60.933,2.777,57.473,33.834,50.783,190.348,75.095,30.078,40.86,36.912,24.502,37.397,22.261,38.147,39.481,14.12,12.548,33.795,19.696,-67.653,24.567,21.652,41.923,63.489,42.696,50.882,82.812,0.628
1.45711039999969,6.587,57.799,6.36,50.755,29.701,39.462,167.104,68.872,23.9,29.036,26.629,11.67,28.138,5.333,28.375,28.684,-0.751,0.24,21.466,6.869,-75.782,8.148,10.36,30.098,31.662,30.358,40.073,71.971,9.337
1.45717509999986,8.117,55.179,17.625,46.094,19.425,34.299,199.724,60.094,20.29,24.909,20.454,6.535,27.598,-2.357,25.273,21.995,-4.849,-1.297,16.321,6.862,-83.391,7.628,6.763,28.019,15.237,24.18,33.885,64.214,30.332
1.47009119999984,5.035,46.415,13.508,41.437,7.623,27.605,232.312,44.153,11.561,17.711,11.212,6.529,16.3,1.231,18.075,20.436,-1.258,0.242,11.694,3.781,-89.968,6.596,6.756,24.917,44.935,21.082,32.314,63.125,12.371
1.47016020000001,-2.142,43.295,-8.534,34.223,13.763,24.503,199.804,49.744,12.061,18.206,13.763,7.034,13.21,0.206,18.57,21.952,1.818,4.852,18.855,3.777,-86.292,8.126,13.922,26.429,77.678,25.671,37.917,62.55,-13.769
1.48497399999997,10.668,53.497,-16.723,42.898,28.606,38.823,167.329,74.285,20.246,29.971,27.581,13.687,27.029,5.328,30.334,31.664,11.037,18.68,32.156,18.631,-81.082,20.925,23.13,36.137,67.354,36.917,47.101,67.098,-1.46
1.50005770000007,27.563,57.542,-13.632,47.978,28.065,44.932,199.95,66.014,16.64,31.478,31.652,20.846,29.563,13.008,33.89,36.243,19.223,28.907,34.685,25.784,-84.075,28.589,27.205,43.273,35.012,43.027,46.029,70.105,-6.582
1.50012349999997,17.802,50.825,-22.84,33.073,28.037,35.153,232.537,43.406,13.549,26.836,29.571,20.825,26.46,8.896,33.856,32.109,18.692,27.341,37.212,21.66,-86.553,25.487,28.202,44.766,34.976,41.96,40.86,62.35,-28.092
1.51496019999968,-0.659,41.04,-54.068,23.306,38.255,28.971,200.029,44.9,15.585,23.223,24.418,15.681,24.384,7.35,33.822,28.49,15.087,22.191,32.564,14.466,-94.663,16.752,18.44,35.5,30.843,32.184,35.696,45.382,-31.138
1.51935749999984,-5.269,23.068,-86.289,12.525,25.922,17.159,167.554,40.244,-2.361,6.293,10.049,4.907,7.453,3.245,18.932,13.605,4.826,8.336,9.99,-3.991,-113.011,-1.196,-1.558,13.435,16.468,12.172,21.316,23.819,-61.845
1.53200190000007,-3.215,11.775,-107.72,-3.369,1.817,7.408,165.337,32.007,-12.093,-0.373,5.429,0.804,0.274,-11.103,8.154,2.833,-5.938,-4.48,4.345,-10.647,-119.046,-7.854,-4.118,2.151,46.165,5.5,14.634,14.574,-94.058
1.53206799999998,0.887,24.058,-91.218,3.806,11.549,24.306,197.96,51.443,13.022,20.632,22.842,16.172,23.84,-2.895,20.954,20.761,4.827,8.332,25.345,12.417,-105.095,10.597,11.255,13.932,63.025,23.937,33.575,26.855,-81.157
1.54507779999994,10.62,29.669,-94.713,7.389,29.469,34.528,194.175,60.1,22.743,26.247,27.43,23.841,30.988,17.6,30.154,33.036,19.166,24.206,29.418,21.114,-103.453,19.295,12.781,22.627,30.687,31.598,39.689,27.852,-92.859
1.54514299999983,13.683,9.66,-126.894,-15.16,15.607,14.514,165.292,36.986,-0.333,5.216,9.984,6.911,9.44,0.676,20.39,16.096,3.778,6.763,12.482,2.137,-121.28,0.321,0.473,9.797,9.139,13.635,19.669,5.795,-125.041
1.56011330000001,5.472,-0.084,-139.575,-16.682,5.857,6.814,197.914,32.851,-2.895,2.649,5.875,-0.269,3.283,-23.915,15.247,9.933,-14.669,-10.15,9.908,-1.451,-129.868,-7.877,-0.04,2.615,41.917,6.962,14.527,-1.895,-117.232
1.56018039999981,5.467,18.359,-121.504,5.364,22.758,26.275,227.43,58.433,17.601,20.577,21.239,13.564,18.137,-9.547,24.965,24.267,-1.334,10.352,23.731,11.871,-121.541,10.062,8.669,14.395,52.634,23.349,29.881,13.988,-98.671
1.57512439999982,13.658,31.149,-117.797,8.432,35.03,36.495,194.928,64.523,15.534,24.655,26.34,18.673,21.705,7.881,33.137,27.317,15.061,25.711,28.83,13.396,-118.346,15.175,11.734,20.016,35.163,28.448,32.925,17.048,-116.503
1.57923359999995,8.009,17.798,-128.437,-4.384,30.384,21.602,227.52,32.183,-4.974,9.773,14.531,7.896,8.875,-1.86,27.469,17.556,4.287,5.193,15.994,4.161,-132.06,-1.234,3.013,5.14,39.226,14.588,22.134,1.662,-123.047
1.59107219999987,-1.22,-3.737,-144.703,-25.384,12.936,3.137,260.08,8.072,-13.678,-2.532,3.246,-0.821,-4.966,-16.715,10.535,9.854,-9.037,-10.693,1.633,-4.553,-148.321,-11.479,-9.285,-11.772,36.625,2.278,13.403,-10.635,-132.658
1.59114039999986,4.929,-12.443,-165.563,-43.802,-3.983,2.109,227.545,27.532,-11.615,-3.041,1.193,-1.845,-5.986,-20.797,-0.234,7.282,-3.905,-4.023,1.119,-6.597,-152.272,-10.955,-12.35,-14.322,13.535,-0.798,9.291,-20.358,-164.8
1.60516349999989,11.071,-10.381,-170.52,-35.049,5.242,8.255,195.042,46.972,-9.042,1.06,2.217,1.231,0.168,-14.116,6.426,9.836,3.272,-3.506,4.192,-3.005,-152.119,-10.944,-8.239,-9.696,1.226,-0.798,7.745,-30.584,-164.636
1.60523119999971,1.839,-8.834,-159.591,-25.792,25.729,5.173,227.635,32.58,-6.472,2.596,4.264,3.791,1.705,-4.368,14.105,13.413,4.805,-9.651,6.749,-0.44,-156.578,-9.909,-8.231,-6.613,6.86,0.74,8.249,-29.017,-137.319
1.61919970000008,-5.848,-9.337,-163.018,-39.599,15.97,0.557,260.195,15.129,-8.514,0.032,5.284,2.251,0.679,-6.926,9.992,14.936,4.8,-1.444,12.378,2.634,-162.569,-6.313,-9.247,-6.094,10.44,2.276,10.802,-24.377,-142.304
1.61925859999974,-5.842,-13.426,-182.835,-47.244,-5.563,-3.542,229.708,7.942,-15.678,-7.141,1.693,1.736,0.678,-15.628,5.371,12.36,0.697,6.242,7.242,2.119,-167.53,-9.892,-12.824,-11.723,5.306,-2.337,12.329,-30.5,-159.068
1.63420869999982,-9.934,-20.073,-191.361,-43.098,3.151,-10.711,197.203,3.835,-21.81,-13.793,-3.432,0.197,-5.47,-19.711,6.903,7.737,-5.451,-2.986,-6.085,-8.641,-175.047,-18.592,-20.496,-24.519,6.838,-8.994,5.144,-35.08,-161.471
1.63818379999975,-12.486,-17.491,-175.288,-44.079,22.104,-5.065,164.731,18.176,-22.301,-10.194,-2.404,-3.389,-9.051,-20.203,9.97,9.778,-4.421,-7.081,-1.98,-8.12,-176.409,-16.524,-16.889,-26.032,12.466,-7.449,1.553,-32.996,-157.211
1.65119609999965,-5.301,-11.326,-161.281,-43.011,15.934,3.137,190.181,26.355,-17.155,-9.671,-1.377,-3.386,-5.456,-10.449,10.984,12.33,-0.831,2.147,9.292,0.597,-175.208,-9.335,-8.675,-14.735,-2.916,-0.269,7.186,-34.5,-150.906
1.65126280000004,-7.345,-22.585,-182.124,-49.115,-5.087,-13.772,222.779,2.25,-17.651,-21.957,-12.134,-8.505,-16.209,-5.828,0.727,1.559,-4.416,-0.416,-1.988,-12.724,-187.328,-20.084,-17.888,-19.843,-7.523,-6.928,-0.505,-40.613,-160.489
1.6642468,-21.682,-35.883,-204.996,-62.899,-12.254,-26.566,190.281,0.199,-24.805,-30.644,-23.393,-18.743,-29.513,-22.728,-14.643,-8.176,-12.096,-12.199,-15.306,-27.568,-201.997,-35.946,-30.166,-38.266,25.272,-24.34,-14.849,-43.134,-179.796
1.67931589999989,-19.611,-30.724,-190.446,-54.639,-2.508,-11.682,157.815,31.962,-17.608,-22.416,-16.709,-14.113,-16.676,-30.903,-7.456,0.029,-8.498,-4.502,-5.044,-15.245,-199.234,-29.25,-24.5,-33.617,37.542,-23.803,-8.175,-36.431,-168.858
1.67938400000003,-6.272,-21.472,-170.788,-38.703,4.155,-2.962,190.445,28.343,-10.93,-12.66,-3.373,-3.341,-3.851,-15.502,9.97,9.25,1.757,5.749,3.67,-5.496,-194.424,-17.95,-18.84,-19.751,5.229,-13.021,1.567,-34.345,-150.758
1.67942659999972,-10.876,-26.061,-178.302,-46.861,-5.071,-13.717,223.042,-3.96,-25.264,-16.234,-6.443,-8.973,-15.118,-11.901,4.325,4.63,-1.831,-7.577,-8.629,-12.663,-203.451,-27.153,-27.53,-29.466,-23.978,-20.18,-6.119,-49.68,-164.952
1.69429820000005,-20.087,-32.695,-180.685,-55.523,-8.652,-15.753,190.544,-1.907,-29.337,-21.853,-15.658,-12.55,-19.201,-19.574,-3.876,0.527,-12.075,-19.865,-15.28,-14.187,-209.907,-32.762,-30.577,-39.17,-1.925,-28.869,-10.211,-62.438,-167.349
1.6982782,-13.407,-27.539,-169.746,-45.221,8.775,-9.589,164.226,22.173,-13.426,-15.683,-8.47,-1.267,-6.887,-19.554,12.009,8.724,-9.502,-11.648,-2.97,-6.488,-205.599,-19.409,-17.226,-25.298,30.865,-15.521,-1.492,-51.105,-146.177
1.71034340000006,-9.807,-18.802,-174.187,-39.029,22.599,-9.58,196.849,21.639,-14.95,-11.057,0.76,1.296,-6.368,-19.534,23.268,15.887,-3.345,-3.44,8.816,-1.359,-203.857,-8.631,-6.451,-13.49,53.888,-2.697,2.096,-36.197,-146.03
1.72443889999977,-13.384,-16.734,-180.673,-37.965,14.379,-7.008,164.377,12.908,-23.644,-15.144,-2.315,-6.902,-16.607,-16.953,12.998,15.871,-3.341,-0.362,10.857,-0.845,-206.214,-6.573,-6.444,-11.94,47.174,-1.67,3.631,-34.112,-151.007
1.72450509999999,-4.149,-11.082,-167.172,-27.681,8.217,3.245,170.36,19.043,-15.424,-11.543,0.249,-3.309,-13.005,-8.739,10.936,18.417,1.785,5.273,13.92,0.693,-203.959,-2.468,-4.901,-4.243,20.487,7.041,9.775,-28.442,-142.147
1.73937139999998,1.491,-3.899,-162.906,-28.678,15.381,3.241,202.977,17.487,-15.921,-6.408,6.396,2.33,-5.307,-13.341,17.585,23.522,5.369,3.731,14.93,4.791,-203.755,-1.953,-3.359,-3.727,14.319,12.669,12.839,-22.266,-151.739
1.73943220000001,-10.806,-15.678,-184.773,-50.166,13.316,-11.619,170.499,2.612,-29.225,-15.623,-3.344,-3.82,-13.499,-19.476,9.371,18.375,1.778,-2.42,6.718,1.2,-211.748,-10.148,-12.577,-17.555,23.014,-2.2,5.141,-35.564,-163.37
1.75435620000007,-12.332,-31.031,-199.445,-62.411,-1.554,-18.267,138.053,1.073,-27.658,-19.706,-12.05,-7.915,-20.658,-11.772,-2.934,10.16,-0.273,1.168,-0.461,-8.023,-218.196,-17.31,-19.225,-24.71,26.065,-12.957,-2.548,-51.922,-155.522
1.75441640000008,1,-22.804,-190.536,-52.103,-4.626,-11.076,170.703,7.732,-18.922,-9.44,-3.329,-4.321,-7.829,-10.735,0.655,15.273,-1.81,5.266,4.151,-5.966,-215.417,-14.219,-12.545,-18.538,31.674,-5.771,3.602,-44.698,-158.441
1.77039710000008,-0.538,-4.338,-177.026,-34.632,10.236,0.205,203.32,2.089,-12.755,-0.722,6.921,0.806,4.986,-16.872,12.437,24.479,-0.783,3.723,14.905,4.799,-209.053,-0.373,-4.336,-7.248,31.13,7.042,16.918,-26.21,-158.282
1.77046410000003,-6.685,5.401,-169.164,-21.79,24.058,13.013,170.841,10.283,-0.959,7.988,13.062,9.003,7.031,-12.757,20.622,28.553,6.902,9.355,24.112,10.942,-203.721,11.923,-0.233,3.517,28.025,17.793,20.488,-17.474,-141.218
1.78487369999993,2.031,6.42,-174.118,-21.256,23.521,18.635,138.395,35.889,2.628,13.616,17.147,11.043,5.999,-14.793,24.187,30.061,3.309,6.784,21.526,10.931,-204.03,5.763,-2.282,-2.634,33.12,16.751,16.881,-15.92,-152.86
1.78493780000008,3.566,-9.468,-189.825,-35.579,13.764,5.297,147.99,27.656,-12.232,0.282,6.884,-1.264,-4.765,-28.611,19.04,22.347,-12.576,-13.715,5.623,1.186,-214.072,-9.612,-16.112,-23.636,29.501,-2.221,9.179,-30.249,-171.662
1.7995020999997,-9.758,-25.34,-187.586,-52.962,8.115,-8.541,180.63,-4.647,-22.465,-12.014,-4.394,-7.41,-16.031,-27.045,11.849,14.64,-12.051,-17.8,-2.58,-6.5,-221.543,-16.774,-24.293,-29.247,26.91,-15.539,0.973,-52.248,-143.826
1.79956989999982,-5.65,-15.069,-165.882,-51.884,11.693,-0.336,154.322,-1.056,-15.783,-1.755,4.32,0.794,-7.306,-12.674,13.886,22.822,0.257,2.71,6.132,2.216,-216.198,-11.122,-14.022,-15.386,33.03,-4.765,4.559,-45.536,-126.264
1.81448709999995,7.676,-0.197,-165.204,-35.951,12.193,9.399,121.892,21.486,-14.23,3.882,9.951,1.818,-1.151,-10.1,15.922,27.41,0.769,8.343,11.761,7.849,-214.957,-2.914,-7.861,-9.223,10.456,5.998,12.239,-20.899,-155.851
1.81454829999984,-0.528,-11.467,-188.092,-37.964,8.595,-3.418,154.558,1.485,-26.511,-10.467,-4.404,-8.43,-13.958,-18.286,9.246,14.575,-8.454,-8.571,3.553,-3.942,-223.451,-8.034,-16.562,-15.874,-16.707,-3.741,6.079,-25.489,-170.04
1.83057039999994,-12.311,-26.313,-191.49,-57.906,8.074,-18.272,187.191,-24.132,-33.145,-19.166,-12.084,-9.446,-18.042,-25.953,6.163,10.462,-15.105,-15.735,-2.598,-10.086,-223.74,-17.248,-17.57,-19.444,-1.321,-11.422,-0.075,-45.956,-151.427
1.83063829999992,-0.003,-21.676,-180.028,-58.361,6.529,-10.057,154.728,-4.128,-21.329,-9.925,-1.313,0.81,-6.753,-26.951,11.28,20.185,-9.967,-4.961,9.699,1.707,-214.295,-9.034,-7.819,-17.887,24.296,-2.189,6.073,-41.299,-145.128
1.84457960000009,14.341,-10.383,-179.848,-38.322,4.986,3.786,122.298,21.491,-5.426,1.356,8.934,6.444,0.938,-18.728,17.928,25.288,2.851,4.778,23.01,9.903,-209.982,2.246,-2.688,-18.894,41.69,3.448,8.628,-25.889,-155.741
1.84464679999974,2.032,-10.373,-183.254,-36.747,6.518,0.708,154.964,13.785,-7.982,-2.232,3.802,0.802,-2.137,-20.246,15.349,21.164,-2.788,-3.424,11.716,-0.866,-216.432,-10.051,-10.882,-22.461,51.894,-5.264,2.472,-32.01,-155.585
1.8595578999998,-14.877,-27.781,-188.194,-58.227,-3.223,-14.662,187.596,-10.307,-28.979,-21.185,-15.669,-13.031,-20.066,-41.742,-4.134,7.823,-25.839,-26.986,-12.374,-20.333,-230.048,-29.509,-29.314,-33.71,19.567,-20.116,-8.289,-57.082,-152.356
1.85961849999967,-16.399,-42.61,-197.228,-72.514,-13.466,-25.918,173.064,-23.617,-39.708,-32.947,-30.511,-20.702,-36.439,-51.434,-17.962,-2.943,-28.374,-31.058,-17.485,-26.46,-234.429,-34.603,-37.482,-43.922,-12.728,-30.342,-17.502,-68.808,-163.986
1.87454959999968,-14.333,-34.371,-191.907,-62.707,6.015,-22.818,158.546,-13.347,-28.91,-24.717,-20.746,-12.485,-26.669,-32.428,-1.038,6.794,-8.366,-9.51,-8.246,-16.187,-221.387,-27.396,-26.686,-35.169,6.753,-21.09,-11.85,-51.32,-169.97
1.88952919999974,-14.831,-23.065,-180.957,-50.349,19.842,-9.988,126.113,3.573,-19.147,-16.495,-6.381,-4.275,-16.908,-17.538,10.746,17.033,-0.673,-1.304,-4.139,-10.536,-212.456,-18.147,-18.975,-22.326,39.534,-7.237,0.458,-37.949,-150.845
1.89348119999977,-7.644,-28.165,-184.362,-56.959,-1.695,-8.441,109.08,-1.042,-22.202,-19.04,-12.522,-7.345,-23.039,-24.693,-3.097,10.868,-3.746,-9.499,-2.086,-13.087,-216.342,-18.641,-22.542,-26.402,37.957,-13.89,-3.129,-52.256,-143.522
1.90508299999965,-2.001,-30.699,-184.178,-65.099,-10.915,-18.166,141.759,-13.336,-24.741,-19.021,-19.17,-8.362,-21.992,-25.181,-7.705,9.833,-0.156,-2.317,-1.571,-12.049,-218.175,-24.258,-22.519,-28.425,31.259,-23.097,-9.786,-59.888,-158.235
1.90515740000001,-9.171,-26.057,-177.846,-57.861,1.391,-20.197,166.208,-14.347,-26.253,-21.564,-16.589,-7.842,-19.92,-17.983,-4.111,13.409,0.868,2.808,-6.693,-12.037,-218.469,-20.647,-20.447,-21.224,19.445,-15.39,-5.678,-45.483,-153.466
1.91966939999975,-15.822,-24.494,-182.791,-55.754,-3.733,-18.64,133.766,-16.382,-30.326,-28.202,-20.159,-11.932,-29.634,-26.162,-11.279,5.711,-8.866,-13.589,-8.223,-17.148,-219.788,-17.04,-20.427,-23.252,10.204,-9.227,-3.11,-40.827,-144.603
1.91973400000006,-10.171,-16.785,-183.121,-52.625,-3.217,-14.011,115.189,-7.144,-23.123,-19.977,-18.601,-10.896,-27.043,-38.431,-5.633,7.242,-13.468,-20.235,-3.092,-14.057,-212.908,-17.536,-16.82,-25.278,30.174,-8.193,-1.058,-44.373,-161.877
1.93470290000005,-4.525,-7.035,-173.716,-35.666,18.303,-2.726,114.562,13.867,-11.317,-8.686,-6.8,-7.299,-14.721,-38.393,12.304,17.993,-11.918,-12.53,-4.626,-5.846,-207.059,-14.957,-18.853,-24.229,41.926,-7.16,3.042,-41.767,-165.302
1.93476789999977,-15.279,-17.786,-179.178,-36.655,15.723,-7.846,145.698,3.095,-19.502,-18.924,-14.99,-13.439,-23.415,-45.527,4.095,10.803,-20.103,-23.788,-14.867,-16.086,-214.025,-22.114,-29.592,-37.524,27.54,-18.423,-5.158,-53.508,-152.841
1.94974009999987,-28.584,-31.601,-190.269,-56.598,-3.76,-26.794,165.532,-25.597,-33.315,-29.663,-32.906,-23.159,-36.712,-57.264,-14.353,-2.015,-31.866,-43.232,-22.537,-32.464,-223.032,-37.973,-33.661,-49.27,26.488,-33.262,-16.936,-67.799,-163.446
1.95389840000007,-23.945,-22.86,-181.882,-48.857,0.854,-23.693,133.092,-17.887,-29.696,-27.072,-26.725,-22.624,-32.064,-48.498,-11.264,2.085,-31.322,-38.066,-22.514,-30.382,-219.735,-35.886,-32.603,-39.999,26.974,-28.618,-12.821,-56.973,-165.845
1.96683989999974,-16.748,-13.103,-170.942,-30.877,7.001,-8.3,138.594,-4.037,-26.08,-26.02,-16.965,-19.015,-26.397,-38.203,-5.618,6.694,-24.118,-21.634,-16.856,-22.155,-214.905,-25.604,-30.521,-31.762,4.917,-19.368,-6.148,-45.645,-146.211
1.96690649999982,-22.879,-20.262,-175.894,-39.556,0.847,-12.903,171.243,-21.451,-32.714,-28.044,-24.12,-20.533,-30.469,-47.899,-10.223,3.101,-23.069,-21.1,-12.229,-24.182,-215.202,-27.116,-25.88,-33.78,1.326,-21.91,-8.191,-48.673,-149.651
1.97981499999969,-21.832,-17.168,-177.255,-45.664,6.481,-16.988,138.796,-24.504,-31.144,-24.429,-21.022,-20,-27.877,-44.265,-5.09,7.709,-20.997,-22.104,-5.557,-18.523,-209.864,-22.99,-21.756,-28.623,34.113,-17.277,-6.134,-39.915,-154.624
1.99479289999999,-5.928,-3.319,-165.807,-29.737,14.159,-2.627,106.382,-1.938,-20.355,-15.184,-4.607,-6.66,-15.041,-22.191,5.162,20.509,-7.144,-7.225,6.744,-3.647,-197.359,-10.672,-16.611,-20.397,65.842,-5.477,2.582,-31.166,-131.416
1.99485899999991,-3.873,-11,-170.764,-33.805,-0.2,-0.575,139.063,-11.669,-19.822,-12.094,-3.066,1.031,-8.879,-21.145,4.644,23.05,-0.477,0.467,9.811,-2.107,-196.137,-13.222,-16.082,-24.988,36.574,-10.082,2.579,-50.603,-133.334
1.99490160000005,-18.726,-35.067,-196.209,-61.948,-18.13,-21.067,171.712,-42.909,-28.511,-21.816,-15.87,-9.728,-15.017,-33.419,-4.582,14.317,-12.259,-16.439,0.068,-13.375,-205.674,-21.918,-26.312,-34.696,4.262,-24.417,-7.157,-74.631,-165.476
2.00983640000004,-21.781,-39.643,-198.062,-67.522,-18.624,-25.656,139.265,-35.693,-30.02,-24.868,-19.953,-15.354,-20.638,-32.873,-13.287,12.766,-18.907,-25.645,-4.543,-15.923,-209.055,-21.897,-32.946,-35.174,9.893,-26.442,-12.273,-73.531,-169.409
2.01391329999979,-14.075,-29.87,-174.81,-49.011,-5.798,-8.212,106.85,-3.895,-23.842,-17.159,-15.322,-11.24,-18.056,-30.791,-13.273,15.827,-11.203,-15.373,-4.539,-15.395,-205.26,-24.948,-31.376,-30.528,23.716,-23.341,-8.675,-62.699,-140.038
2.02610149999964,-18.672,-31.889,-171.561,-48.45,2.917,-9.741,123.137,-2.866,-26.38,-21.24,-19.405,-17.889,-22.136,-36.908,-7.625,9.664,-14.778,-16.894,-14.78,-25.626,-207.616,-36.707,-38.004,-39.719,8.835,-33.564,-12.252,-68.784,-142.459
2.03990559999966,-29.924,-41.079,-190.345,-64.283,-5.795,-30.224,155.802,-33.089,-38.136,-38.125,-33.218,-28.63,-36.971,-41.482,-13.252,0.432,-28.596,-30.71,-27.573,-36.871,-213.044,-46.404,-48.725,-57.61,15.999,-46.338,-20.949,-82.548,-169.981
2.03997039999967,-30.406,-46.161,-199.888,-69.854,-22.695,-37.878,188.434,-52.012,-44.246,-45.771,-40.357,-30.138,-44.618,-47.588,-27.072,-3.666,-30.616,-33.753,-30.619,-37.859,-213.855,-49.431,-48.164,-60.626,34.938,-47.829,-21.953,-84.002,-174.935
2.04001259999995,-25.253,-47.651,-200.713,-68.247,-26.771,-30.155,155.97,-40.689,-42.152,-42.14,-35.706,-28.059,-40.475,-51.126,-26.02,-3.663,-25.975,-30.133,-25.466,-33.723,-212.617,-45.283,-42.993,-51.344,12.874,-44.195,-19.37,-78.283,-158.878
2.05490899999995,-21.641,-42.481,-195.902,-63.568,-18.035,-22.441,123.539,-22.205,-40.061,-35.437,-27.473,-23.932,-33.263,-42.366,-15.748,1.976,-20.826,-22.93,-14.682,-25.492,-209.33,-35.504,-39.363,-47.194,-8.656,-40.564,-15.764,-77.692,-147.448
2.06986939999979,-22.132,-32.192,-182.386,-54.796,-9.82,-17.807,156.203,-20.646,-36.435,-28.742,-21.811,-15.711,-26.057,-35.151,-12.146,10.684,-11.584,-13.686,-7.495,-19.319,-202.461,-30.346,-36.25,-44.586,2.624,-35.401,-5.502,-72.491,-144.227
2.06993019999982,-21.085,-27.549,-178.105,-53.204,-2.638,-21.376,188.834,-34.458,-34.862,-27.176,-19.74,-13.134,-21.933,-40.752,-8.035,13.234,-10.035,-13.16,-6.975,-19.812,-198.16,-29.291,-33.14,-37.369,7.744,-30.242,-2.935,-60.124,-148.694
2.08595650000007,-13.892,-30.595,-187.148,-57.761,4.537,-26.99,156.37,-44.157,-40.462,-30.223,-22.794,-17.219,-27.546,-44.297,-0.343,11.172,-14.636,-15.708,-6.456,-19.792,-198.474,-27.212,-29.521,-33.745,9.273,-27.138,-10.104,-59.039,-152.643
2.08602309999969,-11.316,-33.126,-190.035,-56.679,1.971,-23.377,123.938,-40.014,-44.008,-30.705,-24.82,-20.276,-31.617,-35.031,-3.416,9.624,-8.474,-15.693,-6.961,-18.235,-196.227,-27.185,-29.491,-35.761,33.855,-26.086,-10.094,-65.128,-149.929
2.10000369999989,-15.916,-25.921,-179.599,-48.425,-2.13,-15.156,154.553,-27.167,-32.181,-22.477,-18.135,-13.596,-23.388,-26.799,-5.974,13.713,-0.268,-13.628,-5.93,-16.168,-190.907,-23.059,-26.9,-32.651,56.362,-23.499,-3.424,-57.89,-143.632
2.10007180000002,-12.314,-11.55,-163.025,-37.619,5.557,-7.969,187.186,-17.406,-17.292,-10.16,-6.334,-3.336,-13.119,-25.236,5.303,21.896,-2.829,-2.856,1.761,-10.516,-186.106,-11.253,-15.09,-18.274,38.375,-13.742,0.678,-45.024,-124.02
2.11511100000007,-9.228,-10.002,-158.252,-36.556,1.965,-8.473,172.654,-21.487,-23.934,-17.322,-11.451,-11.017,-19.253,-26.747,4.273,18.288,-9.487,-5.414,-3.364,-14.604,-191.555,-15.853,-18.661,-15.694,6.061,-13.215,-2.397,-50.615,-109.552
2.11518049999995,-24.075,-30.997,-178.073,-55.475,-19.554,-28.957,143.28,-41.445,-49.013,-43.432,-36.03,-33.035,-40.239,-42.09,-20.322,-0.686,-23.822,-37.172,-26.927,-35.594,-206.733,-40.94,-43.233,-38.732,-0.092,-36.768,-18.276,-69.007,-135.57
2.13006399999995,-31.736,-43.261,-192.752,-66.69,-17.485,-46.347,172.338,-50.625,-55.624,-50.561,-44.191,-36.076,-51.469,-62.54,-29.011,-7.857,-36.093,-48.406,-35.097,-42.218,-207.55,-47.047,-49.85,-55.087,32.696,-51.076,-26.967,-74.061,-161.562
2.13013090000004,-14.286,-25.799,-178.727,-46.131,5.074,-25.808,155.772,-21.373,-30.466,-28.993,-23.142,-19.646,-34.512,-52.744,-7.978,8.032,-21.2,-22.23,-16.107,-24.246,-187.875,-29.581,-33.407,-42.225,43.934,-33.094,-11.571,-61.18,-140.908
2.14673649999986,-5.562,-7.843,-167.278,-26.105,7.631,4.956,123.341,11.436,-13.017,-11.034,-6.725,-9.38,-12.96,-31.174,6.887,21.856,-3.248,-12.473,-1.233,-11.414,-177.441,-19.305,-27.225,-29.375,33.643,-17.692,0.736,-49.848,-128.984
2.14680169999974,-22.463,-15.519,-175.307,-36.325,-5.697,-0.172,139.611,6.301,-20.176,-15.121,-13.891,-13.469,-18.07,-39.852,-4.39,16.199,-12.467,-28.343,-6.355,-17.038,-185.461,-24.921,-31.297,-36.005,53.078,-25.871,-5.412,-53.896,-152.421
2.16039349999983,-31.149,-26.775,-177.181,-46.535,-15.937,-22.201,172.259,-25.98,-29.377,-28.938,-26.172,-25.239,-36.495,-51.595,-22.317,4.4,-23.725,-31.9,-18.644,-27.779,-192.448,-34.63,-35.364,-41.605,50.463,-36.092,-14.628,-64.089,-148.17
2.16046749999987,-15.237,-20.6,-167.27,-37.267,-18.995,-23.715,204.875,-38.762,-29.86,-32.496,-26.146,-28.288,-35.434,-39.761,-20.758,6.445,-13.455,-23.159,-20.675,-29.288,-188.157,-34.596,-35.841,-29.78,18.137,-28.371,-13.589,-58.901,-116.259
2.17502329999979,-3.438,-7.26,-158.394,-29.033,-4.632,-7.298,172.395,-19.256,-25.732,-18.631,-13.825,-13.402,-16.956,-29.475,-4.343,19.758,-2.683,-14.939,-6.822,-14.402,-174.136,-17.143,-24.534,-9.77,12.996,-12.461,-0.768,-39.375,-112.044
2.17508469999984,-9.07,-4.691,-153.625,-30.541,10.742,3.98,139.947,4.33,-17.509,-7.341,-5.614,-5.704,-9.254,-28.933,1.297,25.886,-3.193,-7.24,1.894,-5.678,-165.765,-6.879,-15.288,-3.613,45.771,-8.862,6.918,-31.139,-120.642
2.18999140000005,-15.721,-17.494,-162.693,-39.219,-0.027,-4.221,142.368,-4.896,-19.029,-19.629,-17.391,-17.994,-21.54,-36.589,-8.951,15.102,-10.874,-12.868,-10.915,-19.505,-175.845,-23.266,-27.568,-22.565,68.266,-22.174,-4.872,-43.403,-122.058
2.19005819999984,-20.316,-31.309,-177.387,-53.525,-14.884,-23.684,175.014,-37.167,-31.817,-34.979,-31.718,-25.661,-33.302,-51.921,-17.139,4.328,-20.085,-29.249,-24.737,-31.781,-185.403,-36.563,-39.324,-36.887,35.923,-30.348,-14.601,-54.63,-135.768
2.20514729999968,-27.468,-25.13,-171.062,-51.934,-10.771,-26.734,207.626,-41.228,-30.761,-29.309,-27.076,-20.512,-28.145,-46.746,-16.609,7.398,-20.577,-32.293,-18.052,-27.651,-179.583,-27.305,-33.137,-24.042,3.611,-21.609,-7.415,-47.915,-141.268
2.2052077999997,-26.929,-11.784,-158.595,-33.439,-7.686,-11.338,175.143,-8.399,-17.923,-16.984,-19.364,-18.955,-22.482,-30.306,-13.006,10.464,-15.433,-27.65,-10.349,-23.012,-178.378,-24.716,-26.956,-14.796,15.391,-17.489,-5.358,-40.695,-128.831
2.22014799999988,-20.754,-19.457,-171.244,-39.041,-11.777,-8.766,142.693,-1.218,-20.466,-21.578,-25.493,-21.497,-29.632,-43.595,-11.969,5.331,-21.053,-35.819,-17.511,-27.088,-183.835,-34.938,-30.003,-31.175,48.163,-28.742,-16.111,-50.901,-137.924
2.22020999999995,-19.709,-30.196,-185.418,-57.445,-7.154,-16.441,175.338,-19.66,-28.13,-28.728,-27.004,-22.5,-34.213,-55.847,-16.055,4.301,-27.692,-39.37,-23.129,-29.622,-179.041,-34.903,-33.047,-39.341,59.898,-33.836,-17.632,-57.51,-152.131
2.2351650999999,-17.64,-12.235,-168.326,-36.896,2.587,-6.691,142.887,-3.247,-19.905,-17.941,-15.706,-18.379,-27.006,-35.811,-10.916,10.444,-17.418,-24.986,-16.446,-23.445,-170.665,-25.134,-31.477,-23.42,33.71,-22.019,-5.319,-44.132,-124.826
2.2352292999999,-15.06,3.146,-144.592,-11.243,4.121,5.099,114.567,16.737,-16.299,-10.751,-11.592,-13.75,-24.418,-30.14,2.927,12.995,-8.179,-17.276,-11.819,-18.298,-172.031,-23.06,-27.347,-13.663,15.234,-14.825,-0.703,-40.502,-99.086
2.25015459999986,-22.73,-12.226,-148.033,-33.774,-10.74,-11.813,147.241,-15.555,-29.091,-26.109,-21.827,-19.372,-30.541,-44.454,-7.322,5.81,-13.807,-23.919,-16.93,-26.477,-180.056,-31.233,-29.369,-22.359,13.169,-23.519,-11.46,-55.318,-113.331
2.26515649999965,-31.929,-23.485,-168.377,-55.769,-29.685,-27.17,166.561,-41.668,-36.746,-35.817,-29.489,-26.525,-34.609,-43.385,-33.955,-0.856,-17.891,-25.944,-21.524,-34.647,-187.048,-36.838,-35.487,-27.972,18.791,-31.18,-16.06,-57.825,-128.587
2.26929079999991,-23.7,-13.727,-172.308,-36.758,-22.995,-11.261,134.119,-8.838,-29.025,-23.486,-23.825,-21.887,-31.501,-41.805,-28.285,2.731,-14.287,-22.844,-16.892,-27.44,-181.738,-30.653,-30.841,-21.796,30.043,-25.514,-6.822,-45.984,-129.996
2.28195639999967,-6.258,-3.98,-161.377,-20.327,0.594,3.095,101.71,16.786,-21.311,-14.753,-13.042,-16.23,-25.321,-47.399,-4.691,13.487,-12.736,-20.26,-6.629,-17.679,-167.212,-19.352,-21.076,-17.163,32.063,-15.755,-2.205,-39.79,-129.353
2.28202310000006,-1.641,-0.902,-157.629,-29.016,9.303,-2.544,134.395,-9.871,-20.777,-16.788,-7.394,-13.14,-19.661,-40.179,-2.637,18.596,-10.162,-13.58,0.038,-13.563,-161.409,-13.185,-17.981,-15.609,36.129,-10.616,-2.202,-37.189,-116.929
2.29421319999983,-12.398,3.71,-155.422,-30.524,8.269,-2.541,167.049,-22.669,-18.195,-13.697,-6.362,-4.418,-15.03,-35.016,-3.659,20.115,-2.979,-6.906,2.087,-7.402,-162.785,-11.122,-17.451,-8.421,61.708,-7.531,5.484,-27.93,-106.566
2.29427959999975,-19.558,2.169,-150.144,-20.76,7.236,2.584,134.606,-5.227,-14.591,-13.683,-7.892,-5.438,-14.503,-38.055,0.955,20.094,-2.976,-12.535,-2.013,-8.419,-165.184,-13.16,-19.482,-7.388,66.257,-7.011,3.43,-26.877,-114.656
2.30918569999994,-22.1,-12.178,-157.166,-27.399,-8.14,-11.251,119.615,-10.345,-25.847,-29.551,-20.692,-21.314,-26.784,-33.406,-12.878,7.779,-12.707,-25.33,-16.356,-24.292,-175.264,-26.979,-31.246,-24.287,33.916,-19.812,-12.968,-48.368,-118.64
2.30924430000005,-27.713,-25.486,-170.329,-46.839,-22.989,-28.146,152.283,-31.852,-42.215,-44.379,-35.016,-30.002,-41.614,-35.422,-28.234,-8.11,-18.33,-29.403,-27.098,-36.051,-184.311,-38.735,-39.412,-35.534,1.606,-34.649,-18.078,-63.688,-123.644
2.32421559999966,-22.562,-21.874,-171.183,-44.231,-16.818,-20.945,148.544,-22.086,-33.976,-36.137,-28.321,-22.287,-36.962,-47.682,-20.521,-5.028,-17.287,-22.714,-19.899,-28.33,-175.93,-29.988,-30.663,-25.764,26.196,-25.393,-7.813,-45.182,-143.5
2.3281450999998,-9.219,-12.118,-165.889,-28.818,-9.629,-6.58,116.121,3.039,-16.523,-20.732,-15.485,-15.093,-23.092,-43.535,-11.792,5.735,-16.245,-21.154,-10.145,-16.519,-167.557,-21.248,-22.436,-21.64,58.957,-12.048,-3.195,-31.304,-142.845
2.34004609999965,-13.821,-18.766,-161.112,-36.473,-14.743,-13.233,137.521,-5.161,-23.167,-26.347,-23.667,-20.201,-28.192,-37.344,-18.44,-1.443,-18.278,-28.305,-17.819,-22.65,-176.611,-31.985,-29.073,-33.401,51.726,-26.893,-9.339,-52.277,-125.283
2.34010999999964,-26.103,-33.092,-157.365,-53.343,-16.265,-29.614,170.172,-26.673,-35.439,-42.714,-37.988,-31.451,-41.996,-49.09,-28.155,-14.761,-22.871,-32.375,-28.56,-38.509,-183.094,-42.712,-37.753,-38.491,34.768,-42.235,-19.064,-67.082,-131.306
2.35433149999972,-24.54,-31.522,-159.257,-44.068,-15.224,-24.973,137.726,-15.375,-29.256,-39.085,-32.826,-30.395,-39.393,-50.578,-25.053,-10.648,-20.798,-28.244,-24.433,-34.372,-177.788,-34.472,-31.568,-31.28,40.368,-32.459,-20.069,-56.769,-138.347
2.3543980999998,-17.343,-18.17,-157.561,-28.655,-12.135,-7.017,105.313,9.743,-17.444,-20.091,-15.887,-17.045,-23.984,-30.035,-7.61,5.244,-6.945,-12.847,-5.966,-15.894,-169.413,-17.532,-15.655,-17.417,43.914,-18.082,-7.242,-44.417,-121.302
2.36933559999989,-10.153,-15.591,-152.792,-36.823,-2.901,-7.523,137.995,4.098,-17.939,-16.485,-8.187,-9.855,-15.251,-20.271,1.107,11.386,2.795,-1.563,6.848,-11.78,-165.145,-9.83,-9.491,-5.616,40.797,-12.428,-0.062,-40.274,-119.132
2.36939959999972,-10.143,-32.994,-165.447,-57.279,-12.632,-32.618,170.645,-28.181,-34.827,-36.96,-24.573,-21.116,-26.507,-38.181,-19.386,-1.945,-9.503,-20.517,-11.09,-26.113,-172.665,-25.701,-26.9,-23.029,46.903,-23.687,-15.431,-51.504,-147.19
2.38432449999982,-23.965,-49.354,-189.873,-69.004,-31.575,-52.053,170.474,-54.793,-53.747,-53.317,-44.528,-34.415,-43.386,-55.049,-38.835,-19.874,-30.498,-46.624,-38.231,-39.407,-183.251,-48.217,-45.829,-52.208,47.369,-45.692,-29.248,-69.896,-162.412
2.38830229999985,-29.064,-38.034,-189.17,-59.714,-10.539,-35.095,138.028,-28.099,-38.324,-33.284,-29.627,-24.647,-33.097,-42.699,-23.939,-13.194,-26.881,-35.819,-26.922,-32.707,-171.797,-37.41,-35.537,-38.323,45.785,-36.937,-17.948,-61.117,-140.732
2.40114099999982,-20.326,-16.479,-164.39,-39.162,15.087,-4.834,105.615,4.717,-7.548,-7.123,-4.494,-6.692,-8.473,-28.824,-2.91,5.775,-7.899,-12.73,-0.255,-13.719,-154.719,-12.27,-16.034,-8.059,52.399,-8.723,-4.61,-38.514,-116.513
2.40120660000002,-22.867,-21.586,-157.566,-39.635,-9.519,-10.977,137.272,-2.46,-16.762,-17.362,-15.76,-14.37,-16.661,-40.066,-10.08,0.646,-10.453,-19.377,-5.378,-14.73,-159.687,-18.405,-20.116,-16.76,36.977,-14.35,-11.266,-42.574,-121.52
2.41441649999979,-23.869,-27.712,-166.63,-50.354,-22.317,-26.847,158.652,-23.462,-32.114,-31.177,-28.552,-26.651,-33.551,-42.075,-19.803,-10.626,-21.713,-26.53,-16.643,-24.961,-160.552,-28.633,-25.731,-28.014,20.034,-25.606,-13.304,-45.605,-133.693
2.42947279999998,-6.427,-6.68,-155.705,-34.422,5.37,-5.816,133.39,0.128,-11.077,-14.24,-10.08,-16.378,-19.685,-27.176,-10.562,-0.881,-13.494,-12.671,-6.893,-17.252,-146.047,-12.723,-14.947,-11.08,47.679,-8.675,1.054,-26.092,-131.511
2.42953779999971,2.289,5.11,-134.545,-18.506,6.902,6.485,166.045,8.325,-4.406,-10.127,-3.41,-10.214,-11.981,-33.809,-6.453,3.73,-9.382,-13.683,-3.812,-10.575,-145.388,-8.612,-12.371,-7.482,69.148,-0.981,5.152,-21.967,-124.719
2.44440459999987,-5.398,-6.166,-130.312,-31.295,-13.085,-13.501,198.666,-19.861,-25.919,-28.048,-18.264,-17.888,-26.825,-44.021,-14.644,-4.47,-18.082,-26.477,-10.468,-15.687,-151.391,-18.849,-15.944,-14.647,55.246,-9.177,-2.026,-30.655,-109.737
2.44446470000003,-9.491,-5.135,-131.718,-31.264,-2.314,-14.512,166.192,-15.23,-25.893,-22.384,-13.635,-13.772,-23.212,-30.145,-12.067,-1.392,-11.916,-20.815,-2.261,-11.573,-142.53,-9.097,-8.756,-3.362,59.29,-1.996,1.05,-18.841,-90.672
2.46096489999991,-13.58,5.628,-136.71,-15.863,11.521,-2.715,133.751,2.716,-16.133,-8.017,-3.375,-8.635,-12.431,-26.529,-2.834,2.196,-4.732,-13.622,3.377,-9,-140.338,-3.452,-9.26,0.228,60.767,2.105,5.148,-9.088,-101.852
2.46104579999974,-17.665,-0.013,-151.43,-21.995,5.362,-11.933,166.405,-12.656,-25.338,-18.255,-13.106,-16.823,-20.615,-42.384,-1.806,-8.053,-15.998,-22.318,-7.385,-19.749,-150.956,-18.306,-21.546,-18.216,36.628,-9.681,-2.03,-18.301,-127.366
2.47453019999966,-15.598,-7.697,-151.278,-30.682,-2.328,-14.483,145.746,-13.668,-24.288,-23.872,-17.703,-16.806,-24.181,-34.144,-6.928,-10.606,-12.908,-16.148,-10.964,-19.217,-149.269,-22.898,-24.086,-27.419,51.961,-15.306,-6.126,-24.43,-123.652
2.47459369999979,-14.045,-6.665,-136.27,-25.016,-10.523,-4.222,121.009,5.813,-12.481,-13.602,-10.001,-9.105,-14.423,-12.593,-13.581,-2.399,2.474,0.262,-4.805,-11.001,-139.385,-15.191,-19.451,-19.195,74.962,-12.217,-3.559,-24.918,-113.283
2.48952740000004,-14.544,-10.244,-139.72,-28.577,-10.512,-8.829,153.676,1.709,-16.567,-15.126,-11.528,-13.707,-15.433,-19.753,-12.542,-1.884,-3.676,-7.935,-5.312,-14.064,-141.295,-18.249,-20.456,-13.028,42.612,-12.717,-5.604,-30.016,-124.44
2.48958979999998,-15.554,-16.894,-149.826,-36.746,-3.842,-13.943,139.178,-4.44,-22.186,-24.844,-18.176,-19.328,-22.078,-38.176,-8.431,-7.517,-15.968,-21.247,-11.455,-18.661,-145.252,-24.891,-25.559,-20.187,25.151,-17.828,-11.746,-33.572,-132
2.50452760000007,-22.71,-14.828,-143.017,-29.537,-11.01,-8.294,127.256,2.224,-17.041,-22.258,-18.158,-16.747,-19.494,-34.552,-16.108,-9.047,-11.341,-14.053,-13.493,-18.642,-142.546,-24.866,-29.632,-32.462,57.914,-21.908,-12.247,-32.514,-123.159
2.50458660000004,-26.274,-11.227,-133.652,-20.286,-13.049,-7.261,159.916,-4.95,-13.95,-16.088,-15.066,-15.706,-16.401,-22.222,-17.116,-8.013,-6.719,-9.941,-11.942,-17.086,-137.792,-23.817,-28.065,-29.356,62.979,-19.325,-8.648,-30.945,-112.79
2.5220175999998,-19.588,-15.827,-134.543,-22.315,-3.814,-12.889,189.982,-16.216,-21.108,-22.22,-16.588,-17.74,-22.02,-24.249,-5.828,-8.517,-9.786,-20.177,-12.955,-17.582,-136.63,-27.379,-27.525,-25.74,30.64,-17.768,-10.689,-33.988,-109.603
2.52208840000003,-17.519,-22.471,-140.556,-31.002,-11.495,-17.487,157.517,-10.052,-31.333,-29.882,-20.67,-19.771,-30.707,-33.959,-13.507,-12.607,-14.387,-24.768,-19.602,-22.175,-137.518,-31.45,-31.083,-36.473,29.073,-23.386,-13.752,-38.564,-118.203
2.53562009999996,-16.989,-17.325,-139.903,-27.897,-11.996,-10.81,125.084,1.228,-25.666,-22.68,-15.014,-17.19,-27.602,-32.9,-23.227,-12.082,-15.398,-21.669,-17.533,-20.616,-130.72,-23.734,-26.954,-34.9,33.655,-17.727,-6.054,-26.743,-125.257
2.53568309999991,-8.263,-3.988,-127.468,-11.987,5.435,6.107,141.865,9.936,-10.272,-11.386,-3.216,-8.463,-14.767,-23.133,-5.786,-0.287,-9.234,-18.573,-4.196,-8.812,-119.831,-10.39,-16.168,-19.496,38.232,-1.316,2.661,-6.224,-123.595
2.54965479999964,-5.693,-5.008,-124.779,-15.561,-1.743,6.101,171.949,6.853,-12.823,-13.424,-2.7,-5.893,-12.703,-20.549,1.392,4.324,-5.639,-14.969,0.932,-6.754,-118.174,-10.38,-14.615,-19.476,60.223,-0.802,0.097,-7.242,-125.008
2.54973289999998,-13.372,-14.225,-137.974,-30.915,-10.45,-5.176,192.782,-2.376,-22.544,-18.022,-7.821,-12.035,-17.301,-23.09,-7.83,-1.828,-10.756,-11.88,-4.192,-13.407,-120.105,-14.98,-19.211,-25.092,52.99,-8.998,-5.026,-20.555,-124.883
2.56469990000005,-16.945,-7.551,-139.373,-19.101,8.003,2.514,165.949,5.311,-15.861,-12.368,-5.764,-10.486,-12.673,-23.579,-2.187,-1.314,-11.258,-9.819,-5.213,-11.857,-112.813,-11.891,-19.705,-21.993,27.834,-4.378,-0.922,-20.022,-116.561
2.56476639999983,-10.78,2.191,-133.598,-9.86,7.995,10.709,138.631,15.552,-11.235,-11.331,-4.733,-5.353,-11.123,-27.141,1.913,2.786,-9.71,-9.809,-3.671,-8.771,-109.114,-12.904,-20.709,-24.533,45.737,-2.837,3.689,-16.416,-120.031
2.5816590999998,-6.158,-1.91,-143.711,-23.683,-7.382,0.452,167.182,2.729,-18.908,-15.931,-7.29,-9.446,-17.772,-30.7,-6.285,0.734,-10.725,-14.41,-4.691,-11.324,-111.054,-17.502,-21.201,-27.07,70.282,-9.494,2.661,-17.424,-126.571
2.58173110000007,-6.152,0.653,-144.592,-19.048,7.482,1.476,176.236,-0.86,-17.865,-10.792,-3.184,-10.461,-14.168,-25.034,-3.718,3.294,-7.128,-15.42,-3.662,-9.776,-104.795,-14.923,-17.081,-19.87,54.842,-5.386,1.634,-12.284,-117.223
2.59473780000008,-3.072,10.387,-121.394,-0.586,21.307,16.844,143.784,17.584,-8.113,-2.072,0.917,-4.815,-6.47,-16.812,2.434,8.927,-3.022,-11.306,-0.072,-6.18,-99.055,-11.834,-12.966,-14.215,36.857,2.816,4.706,-3.562,-114.031
2.6096736999998,-0.508,8.839,-120.247,-5.196,7.453,15.29,149.276,20.64,-6.568,-4.631,-3.182,-6.859,-8,-19.869,-3.204,7.893,-5.581,-11.295,-0.585,-10.272,-101.005,-14.896,-15.514,-15.225,40.918,0.764,1.627,-2.022,-124.164
2.60973369999965,-4.606,2.171,-141.644,-16.462,-3.825,5.029,181.914,5.763,-12.197,-11.287,-9.839,-12.488,-12.09,-28.046,-9.861,3.787,-7.112,-15.382,-3.658,-15.897,-98.855,-16.418,-19.085,-19.309,50.611,-3.848,-5.034,-7.655,-119.429
2.60977559999992,-10.236,0.119,-142.527,-21.569,-5.87,1.95,182.245,2.171,-17.307,-13.837,-9.317,-12.988,-14.128,-31.605,-11.9,3.271,-7.617,-15.879,-2.63,-13.832,-93.633,-15.889,-18.041,-24.412,54.147,-5.893,-4.005,-16.356,-111.112
2.6246873,-5.103,0.119,-133.675,-22.059,-5.864,7.071,149.787,19.587,-12.167,-8.7,-3.672,-10.926,-13.089,-29.011,-6.765,5.316,-10.684,-14.839,-0.578,-10.232,-91.49,-14.849,-17.511,-24.388,50.507,-4.863,0.098,-16.852,-120.735
2.63965539999981,1.562,7.291,-131.492,-7.693,5.412,18.334,117.362,42.621,0.653,1.555,0.43,-7.841,-5.391,-24.372,2.463,9.41,-8.624,-12.774,-0.065,-10.222,-85.251,-10.736,-15.957,-20.265,50.456,1.29,0.61,-5.565,-126.762
2.64372920000005,-6.636,8.308,-125.726,-2.562,10.018,11.144,150.032,26.697,-6.008,-6.131,-6.23,-7.833,-7.947,-24.347,-3.687,7.863,-7.59,-13.274,-2.626,-13.286,-86.191,-13.799,-16.965,-21.782,46.82,0.264,0.097,-5.047,-119.975
2.6556572999998,-21.999,-12.192,-134.309,-27.15,-8.948,-18.069,182.67,-5.605,-33.154,-31.74,-21.081,-21.145,-25.358,-29.958,-21.614,-1.878,-15.267,-21.97,-12.87,-23.518,-98.4,-27.617,-27.707,-35.08,20.133,-15.105,-9.637,-27.583,-124.978
2.65572179999981,-21.977,-23.451,-156.204,-34.808,-19.185,-19.588,150.212,-0.476,-36.707,-32.733,-24.646,-26.759,-29.431,-27.879,-23.642,-4.438,-16.277,-23.997,-19.005,-25.544,-97.277,-30.663,-31.777,-45.803,6.28,-23.287,-18.336,-41.388,-135.1
2.6698693999997,-13.758,-13.181,-149.388,-15.305,-4.821,6.56,117.786,32.312,-12.08,-11.696,-14.375,-13.413,-15.057,-17.605,-8.761,6.325,-4.99,-13.215,-10.789,-13.223,-82.835,-21.924,-21.5,-38.073,39.062,-17.116,-8.072,-33.662,-125.743
2.66993769999999,-17.33,-15.729,-131.82,-20.925,-0.718,-2.156,150.456,18.447,-12.58,-18.857,-16.922,-12.887,-17.603,-17.588,-7.728,6.831,-3.96,-13.202,-11.803,-16.284,-82.752,-27.025,-24.552,-31.375,60.027,-18.636,-4.99,-36.19,-122.031
2.68483119999973,-19.875,-29.546,-141.422,-37.81,-13.525,-30.843,183.093,-13.847,-35.621,-39.842,-30.225,-29.268,-33.467,-28.328,-22.065,-3.934,-15.227,-20.361,-27.672,-32.149,-90.866,-39.293,-37.847,-42.102,33.84,-27.327,-18.305,-46.912,-137.791
2.68489759999966,-13.195,-25.93,-148.965,-30.6,-14.536,-22.103,150.635,3.073,-32.512,-32.63,-27.121,-27.702,-30.872,-29.837,-23.067,-2.394,-15.212,-14.193,-26.108,-29.043,-84.115,-36.692,-33.711,-46.671,17.924,-26.275,-18.287,-40.205,-142.263
2.69979539999986,-19.329,-21.806,-144.718,-27.496,-9.398,-6.2,118.209,29.71,-22.745,-23.376,-19.922,-18.965,-24.181,-30.319,-15.872,3.244,-9.561,-12.641,-16.348,-22.866,-78.908,-33.582,-29.579,-38.939,30.202,-25.224,-13.145,-33.505,-140.072
2.70400689999997,-30.581,-28.444,-149.696,-34.128,-16.049,-17.464,150.878,7.651,-32.969,-31.037,-25.537,-24.581,-29.793,-34.9,-19.442,-1.37,-12.625,-20.826,-19.918,-27.967,-83.44,-35.085,-32.111,-37.363,30.684,-29.297,-20.305,-40.644,-149.153
2.71674080000002,-23.378,-21.756,-145.96,-19.75,-12.959,-17.447,161.486,12.255,-30.374,-24.859,-18.852,-19.946,-24.64,-24.107,-12.763,3.242,-11.588,-13.633,-13.238,-20.766,-74.135,-24.804,-20.808,-33.74,37.825,-20.559,-15.161,-37.529,-140.295
2.71680739999965,-14.133,-10.463,-133.007,-7.947,-0.651,1.526,129.049,40.932,-12.925,-11.514,-6.025,-8.143,-11.807,-10.25,2.619,12.973,-1.33,-3.885,0.608,-12.549,-60.229,-16.07,-13.103,-30.12,58.28,-14.39,-2.851,-28.27,-118.638
2.72994010000002,-16.168,-13.014,-137.997,-19.21,-6.285,2.037,161.708,29.108,-13.937,-15.088,-10.63,-11.208,-11.796,-14.338,-4.043,15.009,0.208,-9.004,-5.028,-18.171,-62.73,-22.201,-21.799,-36.238,43.877,-23.085,-8.483,-31.316,-129.79
2.73000619999993,-17.177,-13.001,-142.982,-19.703,-7.304,-1.039,168.206,24.98,-13.411,-11.487,-8.058,-10.173,-9.222,-13.299,-5.064,20.117,-0.817,-6.946,-7.072,-12.006,-61.13,-20.13,-20.24,-30.054,19.755,-19.988,-10.012,-32.822,-147.079
2.74492310000005,-20.745,-9.402,-137.203,-9.949,10.122,9.208,135.762,48.521,-3.151,0.82,2.196,-3.502,-1.016,-2.528,12.872,24.708,2.258,-3.353,3.693,-1.747,-51.848,-10.888,-14.584,-22.339,43.301,-9.21,-1.292,-32.276,-134.636
2.74498689999973,-30.971,-23.737,-147.825,-27.358,-1.159,-5.146,168.414,26.443,-17.493,-14.55,-13.687,-17.844,-13.31,-15.333,1.588,11.875,-5.942,-19.231,-8.094,-17.627,-62.042,-22.661,-24.816,-43.834,56.578,-24.57,-12.562,-48.126,-135.526
2.75989219999974,-31.452,-34.984,-157.411,-48.847,-32.408,-29.731,201.034,-5.858,-34.894,-38.102,-30.068,-28.584,-27.129,-30.687,-22.492,1.617,-14.133,-23.31,-23.455,-30.93,-71.714,-37.495,-33.5,-56.085,24.246,-38.377,-25.357,-58.324,-163.055
2.76385149999987,-22.712,-18.555,-138.298,-28.818,-22.642,-12.795,168.557,19.763,-20.002,-23.719,-15.693,-13.186,-13.782,-13.238,-9.149,13.911,-0.798,-4.332,-8.574,-16.042,-52.687,-25.162,-21.684,-34,26.271,-21.945,-12.524,-39.31,-156.232
2.77690970000003,-22.689,-5.217,-126.377,-2.662,4.533,9.247,136.113,49.457,-9.736,-6.277,-6.968,-6.513,-3.522,-2.978,3.668,21.07,4.325,-5.864,1.68,-8.341,-41.363,-14.891,-12.953,-27.818,59.032,-14.239,-3.802,-24.414,-123.288
2.77697579999995,-25.74,-20.069,-142.132,-17.004,-5.718,-11.767,168.765,26.866,-25.608,-25.738,-22.842,-22.901,-18.888,-25.004,-13.242,6.192,-15.659,-28.912,-17.277,-26.263,-53.105,-31.782,-27.284,-48.283,32.845,-30.618,-17.118,-40.783,-126.239
2.79000829999995,-17.005,-28.245,-149.162,-35.43,-25.18,-23.538,160.911,16.593,-31.217,-34.422,-26.406,-27.488,-25.529,-32.664,-19.889,0.55,-19.229,-28.371,-24.944,-32.897,-49.466,-39.947,-36.479,-50.796,7.709,-31.1,-20.687,-49.452,-156.339
2.7900768999998,-9.303,-9.262,-133.131,-16.439,-13.884,2.1,128.475,44.753,-13.255,-9.797,-8.961,-14.141,-9.11,-11.114,-7.061,14.382,2.307,-7.338,-6.476,-16.47,-33.022,-20.952,-22.098,-33.327,40.489,-14.163,-7.859,-25.836,-156.182
2.80496210000001,-21.077,-3.105,-127.875,-6.177,-5.673,3.635,161.134,41.122,-8.119,-8.25,-8.952,-14.127,-5.002,-8.542,-6.03,12.83,-1.282,-11.429,-4.42,-15.429,-35.039,-18.881,-17.465,-30.219,53.769,-17.735,-8.876,-19.15,-139.12
2.81995779999988,-33.351,-24.106,-143.629,-30.249,-25.135,-26.595,193.761,8.806,-27.579,-35.906,-29.435,-31.531,-21.903,-28.513,-17.807,-6.138,-23.822,-32.935,-22.859,-33.345,-42.176,-37.818,-33.841,-46.071,21.44,-36.16,-22.187,-47.82,-144.104
2.82001549999995,-22.56,-27.668,-149.12,-33.805,-34.332,-20.42,161.292,15.969,-32.162,-31.26,-27.869,-28.426,-25.468,-24.386,-23.937,-3.058,-15.601,-23.68,-17.713,-29.213,-29.838,-31.12,-32.27,-47.049,16.295,-32.025,-17.554,-53.408,-147.546
2.83595280000009,-11.266,-7.148,-134.627,-9.18,-14.83,12.388,128.855,48.741,-6.002,-3.564,-5.3,-6.368,-5.462,-5.919,-16.228,14.876,6.956,0.422,5.871,-9.204,-11.365,-8.035,-13.283,-29.071,49.067,-12.526,-1.655,-24.665,-129.98
2.83601729999964,-16.89,-4.067,-129.881,-9.683,-5.593,9.302,161.514,51.766,0.152,-4.072,-6.319,-8.411,0.691,-13.597,-8.527,12.3,-3.297,-10.849,3.303,-11.244,-7.768,-13.15,-14.294,-29.042,62.85,-10.976,-1.141,-16.956,-128.825
2.85008819999985,-15.849,-12.773,-133.85,-21.457,-17.371,-12.737,194.14,19.439,-22.902,-19.438,-21.682,-25.309,-15.191,-26.904,-13.13,-0.008,-20.712,-31.843,-11.557,-23.528,-12.371,-25.945,-26.063,-38.747,36.659,-18.138,-10.874,-23.599,-146.627
2.85015229999999,-9.173,-5.075,-127.056,-10.164,-15.816,-7.601,191.897,18.395,-20.83,-16.857,-16.537,-21.185,-16.713,-15.606,-15.166,-1.033,-11.982,-20.028,-7.959,-18.894,-7.235,-19.771,-25.012,-32.048,20.741,-14.021,-8.301,-14.354,-140.333
2.86508830000002,-17.361,-5.07,-130.003,-8.105,-4.018,-1.958,159.429,31.697,-10.051,-12.741,-11.397,-17.065,-9.524,-11.492,-6.954,-1.544,-7.36,-9.762,-4.365,-18.875,0.456,-21.801,-24.475,-35.09,40.7,-19.13,-6.756,-18.438,-128.41
2.8651547999998,-21.442,-20.947,-142.168,-20.905,-5.55,-9.641,126.995,28.591,-23.873,-19.901,-18.558,-25.245,-17.199,-27.362,-7.459,-6.665,-19.135,-23.584,-11.021,-26.54,1.481,-32.537,-28.549,-45.301,53.467,-31.406,-14.946,-37.887,-132.892
2.88010309999981,-8.101,-12.216,-124.095,-9.613,-1.959,-1.434,151.971,36.759,-17.189,-12.196,-11.367,-19.072,-16.67,-24.261,-6.939,-2.56,-10.919,-15.364,-1.276,-16.268,12.75,-16.111,-17.25,-20.665,31.385,-16.006,-7.759,-20.943,-125.075
2.88016679999964,-5.019,16.485,-98.356,11.401,12.9,18.035,184.606,56.19,12.029,8.308,7.599,-3.684,5.376,1.891,7.925,10.762,11.633,12.828,20.243,2.704,36.303,9.008,1.723,7.532,31.353,14.749,12.229,11.865,-113.166
2.89706350000006,-10.649,21.592,-104.405,9.853,13.4,21.091,172.126,58.696,8.944,10.861,10.153,-4.705,11.006,12.648,11.503,14.85,15.208,13.84,23.808,2.189,43.952,4.901,1.209,-2.209,64.11,15.246,12.217,11.854,-123.812
2.89713299999994,-9.614,4.152,-116.596,3.183,0.578,10.824,139.679,48.391,-13.095,-5.543,-6.763,-16.483,-8.472,-1.197,-4.39,1.515,0.336,-4.617,5.854,-15.232,35.198,-15.596,-16.723,-20.65,71.218,-11.409,-4.702,-16.335,-129.323
2.91069789999983,-21.387,-10.197,-118.016,-1.431,-9.668,-4.557,159.519,31.436,-22.303,-22.956,-27.761,-28.25,-26.395,-21.689,-18.218,-17.442,-13.497,-16.908,-15.157,-29.561,30.553,-27.876,-32.075,-30.363,38.871,-27.279,-15.455,-35.274,-127.657
2.9107654999998,-36.223,-13.261,-126.608,-10.651,-16.319,-13.774,190.098,18.085,-25.355,-28.569,-28.758,-32.832,-28.93,-27.302,-21.786,-22.035,-15.02,-23.551,-15.654,-30.044,37.694,-28.361,-29.482,-35.968,26.025,-21.616,-13.391,-30.628,-140.849
2.92517029999999,-20.305,-1.465,-125.969,-3.98,-12.716,-3.514,167.367,30.874,-17.132,-15.22,-12.335,-21.016,-18.142,-16.004,-13.567,-11.767,-5.272,-16.355,0.756,-17.206,55.075,-18.086,-14.595,-24.661,41.368,-10.836,-2.107,-10.105,-143.782
2.92523179999989,0.208,7.758,-107.4,7.807,-6.556,5.711,193.839,48.262,-5.844,-4.446,-8.737,-13.311,-8.39,-10.865,-1.771,-5.607,-2.705,-6.605,6.39,-11.554,68.852,-8.846,-10.995,-14.903,54.134,-6.215,4.043,-0.874,-128.269
2.93919499999993,-12.6,2.628,-100.12,-1.423,-9.111,-1.979,214.138,41.041,-14.548,-15.2,-18.974,-23.031,-16.579,-19.051,-9.453,-11.75,-10.899,-16.332,-1.301,-19.227,68.783,-13.961,-16.107,-19.499,56.642,-7.233,-5.182,-9.582,-124.043
2.93925349999972,-25.908,3.137,-101.557,-2.958,-10.638,-0.952,181.648,37.414,-19.144,-18.771,-16.394,-25.57,-23.222,-18.007,-21.739,-16.349,-11.4,-18.877,0.75,-20.744,73.325,-17.021,-12.504,-14.868,46.339,-6.714,-8.763,-8.035,-117.259
2.95625889999974,-10.512,12.868,-101.967,13.439,-10.628,5.709,210.156,44.549,-7.854,-6.457,-9.717,-18.884,-13.978,-12.866,-13.521,-14.795,-5.754,-7.587,5.36,-16.113,88.109,-10.856,-11.467,-9.218,37.071,-4.145,0.467,5.805,-106.895
2.9563275999999,-5.891,6.707,-112.624,6.765,-16.253,-4.031,242.733,32.721,-11.945,-12.599,-16.88,-23.988,-14.476,-22.075,-9.921,-17.854,-8.309,-11.678,-2.842,-19.171,92.119,-14.943,-19.653,-25.091,45.231,-10.289,-3.632,3.75,-124.719
2.96935249999979,-26.89,-6.619,-122.245,-10.148,-17.773,-11.199,210.215,26.029,-24.74,-25.906,-26.597,-29.6,-25.732,-29.225,-21.694,-26.033,-15.473,-19.864,-13.086,-26.836,89.466,-29.273,-24.244,-39.922,49.796,-22.574,-18.998,-14.185,-144.062
2.96941709999965,-33.523,-7.125,-114.951,-7.576,-17.756,-5.553,177.73,40.86,-22.154,-20.757,-28.619,-28.033,-23.657,-22.024,-24.746,-29.594,-15.97,-18.819,-16.146,-30.395,95.524,-33.855,-28.318,-33.735,37.451,-28.187,-20.516,-26.466,-128.036
2.98432699999967,-21.194,-5.581,-107.663,-7.056,-22.861,-6.059,210.34,37.745,-21.107,-17.662,-26.029,-28.518,-19.023,-15.342,-19.599,-27.515,-12.368,-22.386,-15.106,-28.828,104.65,-30.235,-28.802,-26.016,33.315,-23.548,-11.786,-21.316,-114.588
2.98439400000007,-24.247,-1.477,-104.482,-7.561,-21.813,-5.541,242.917,30.023,-20.574,-19.694,-20.88,-25.415,-19.004,-12.765,-17.017,-22.364,-7.233,-17.241,-9.967,-22.139,112.742,-26.618,-19.039,-23.429,40.454,-13.79,-7.163,-4.901,-123.183
2.9993056999997,-34.981,8.258,-99.767,4.742,-22.816,0.1,210.399,47.411,-12.356,-15.576,-19.322,-22.828,-15.911,-6.092,-19.05,-19.78,-4.664,-4.928,-8.421,-21.605,120.314,-24.03,-19.02,-18.282,34.778,-9.166,-9.718,3.813,-125.109
3.01429879999978,-31.36,1.078,-109.401,-1.411,-38.163,-12.196,229.144,42.241,-19.004,-22.22,-29.549,-30.49,-22.043,-8.648,-30.814,-27.445,-11.319,-14.145,-17.121,-33.878,120.706,-29.641,-29.76,-18.776,21.936,-18.891,-16.368,-6.437,-126.521
3.01824639999995,-28.767,-20.952,-126.71,-28.562,-41.711,-33.7,261.702,9.923,-36.404,-37.055,-40.79,-36.095,-36.365,-20.422,-38.467,-36.639,-18.993,-27.451,-21.715,-37.943,123.147,-37.296,-27.169,-28.491,27.549,-29.118,-20.45,-21.8,-136.128
3.03040439999995,-36.935,-22.468,-117.361,-27.509,-24.763,-28.543,229.165,12.987,-31.756,-32.407,-35.114,-31.96,-31.206,-17.328,-26.134,-32.504,-13.338,-16.665,-13.496,-25.097,137.881,-30.087,-19.457,-30,47.502,-22.941,-16.843,-21.778,-132.406
3.03047029999971,-35.874,-4.515,-98.801,0.696,-18.59,-1.363,196.66,45.762,-14.818,-13.419,-19.198,-24.244,-13.756,-3.478,-13.3,-20.688,-3.079,-0.767,-3.237,-15.851,151.063,-16.224,-16.876,-15.113,56.164,-11.135,-10.679,-5.875,-122.54
3.04435729999977,-23.03,5.223,-103.313,10.941,-26.256,11.446,182.632,60.06,-8.144,-4.697,-16.105,-19.609,-10.669,-4.499,-17.897,-16.569,-1.026,-0.254,-0.672,-17.884,154.498,-14.671,-12.248,-3.315,53.546,-7.538,-7.594,7.963,-129.077
3.04442339999969,-19.933,-1.954,-113.968,-0.853,-26.742,-0.348,215.237,46.168,-10.185,-9.815,-23.773,-25.737,-17.318,-12.179,-25.564,-22.188,-6.661,-7.938,-5.794,-24.014,157.93,-20.804,-13.773,-6.898,58.103,-7.53,-8.099,5.906,-137.657
3.05938709999964,-33.745,-17.834,-117.953,-16.733,-31.326,-15.717,247.809,31.265,-17.859,-21.076,-31.434,-35.957,-22.936,-12.167,-29.637,-26.777,-10.24,-11.516,-12.961,-30.138,162.382,-27.443,-24.005,-17.649,52.922,-13.67,-15.776,-11.006,-141.106
3.05944829999999,-40.884,-34.722,-134.229,-36.697,-47.177,-26.46,252.684,8.692,-28.6,-30.789,-38.575,-34.897,-29.061,-16.253,-33.706,-28.287,-11.255,-12.017,-18.583,-33.694,163.245,-35.101,-32.178,-33.513,23.155,-27.489,-24.981,-34.049,-156.334
3.07440580000002,-29.06,-37.249,-145.365,-41.783,-43.543,-28.995,220.156,6.634,-26.522,-28.196,-37.512,-28.714,-28.519,-16.749,-31.623,-28.259,-11.243,-15.079,-17.54,-29.049,168.717,-35.578,-31.121,-43.213,22.107,-32.585,-22.907,-41.187,-164.887
3.07837879999988,-21.859,-18.769,-125.752,-15.614,-19.934,-10.01,187.661,39.415,-11.638,-12.799,-22.105,-24.075,-14.659,1.198,-22.37,-19.521,-4.572,-8.404,-8.301,-22.36,181.356,-24.272,-19.819,-26.264,54.873,-19.744,-10.589,-20.141,-151.402
3.09147359999997,-32.595,-4.405,-107.183,5.407,-24.524,6.906,155.198,61.917,-5.991,-8.175,-20.546,-24.051,-10.545,6.832,-24.396,-15.403,-3.031,-1.223,-8.293,-26.949,181.687,-23.223,-15.701,-5.233,43.035,-11.015,-10.066,-0.141,-147.664
3.09153960000003,-38.71,-13.622,-122.445,-7.919,-52.677,-12.569,187.83,31.629,-18.281,-24.049,-39.481,-36.834,-27.441,-14.179,-41.791,-31.269,-18.397,-19.153,-24.678,-40.754,172.796,-40.106,-32.079,-15.986,10.717,-24.324,-24.4,-11.412,-158.275
3.10451119999971,-26.889,-18.22,-135.131,-14.571,-47.501,-25.364,220.43,13.667,-22.361,-25.049,-37.392,-37.31,-28.438,-17.239,-39.699,-33.8,-20.94,-30.404,-22.092,-35.59,185.943,-33.918,-27.949,-23.655,38.883,-24.3,-21.302,-21.646,-145.822
3.10458130000006,-12.517,1.779,-114.503,4.911,-18.252,5.4,212.525,36.707,-1.846,4.177,-8.665,-10.12,-0.233,6.857,-8.921,-5.589,5.209,-2.709,8.156,-10.451,214.446,-1.608,1.281,0.959,71.632,5.951,1.261,-2.157,-125.696
3.12033989999964,-15.066,4.851,-103.118,2.857,-15.672,15.641,180.037,40.769,1.229,7.759,-6.095,-7.548,2.841,5.825,-0.715,0.052,8.277,4.466,8.66,-10.953,217.818,-3.144,-3.331,4.032,49.531,10.555,2.284,0.919,-136.841
3.12040279999974,-33.494,-20.77,-130.679,-28.909,-27.952,-16.65,147.582,12.551,-30.535,-24.524,-34.778,-38.279,-29.437,-23.382,-27.867,-28.637,-22.469,-27.814,-23.624,-38.607,199.669,-35.416,-30.993,-26.198,17.206,-21.731,-20.26,-30.333,-159.758
3.13463180000008,-39.608,-22.286,-146.942,-31.954,-25.875,-22.269,116.696,15.1,-34.091,-32.184,-41.403,-41.315,-35.555,-25.92,-37.061,-33.219,-23.472,-28.811,-24.625,-41.13,201.519,-35.381,-25.839,-28.221,15.139,-28.881,-23.826,-31.327,-161.135
3.13885630000004,-28.298,-3.308,-129.377,-6.819,-23.8,-1.242,149.367,38.651,-4.855,-8.586,-23.944,-22.831,-10.417,-6.939,-20.63,-13.206,1.143,-2.142,-2.571,-22.646,216.174,-14.341,-14.542,-9.237,5.39,-10.409,-11.507,-2.094,-155.338
3.15139189999991,-27.245,-9.452,-121.051,-7.836,-32.997,-5.852,182.005,24.78,-10.998,-8.577,-23.407,-26.906,-11.431,-7.444,-24.195,-13.193,-1.42,-5.214,-8.716,-25.697,215.958,-22.011,-24.261,-17.425,24.34,-17.571,-15.081,-8.752,-153.134
3.16461859999981,-30.292,-14.566,-118.88,-17.562,-32.452,-12.506,149.548,13.997,-26.868,-14.204,-28.507,-29.441,-20.129,-5.388,-33.905,-16.766,-7.054,-8.795,-10.757,-28.233,217.279,-26.087,-19.626,-20.994,57.104,-23.189,-17.628,-24.112,-140.685
3.16469119999965,-19.503,4.916,-102.88,-0.639,-20.124,4.413,117.123,46.771,-6.861,0.667,-17.208,-18.653,-7.813,8.45,-19.014,-5.991,5.761,2.997,4.623,-15.909,228.845,-10.18,-3.725,0.544,41.165,-4.21,-4.29,-2.571,-133.885
3.17963919999966,-19.483,7.473,-103.289,7.047,-18.055,5.433,149.793,55.945,-2.756,-1.383,-18.215,-22.733,-10.367,-4.878,-11.311,-6.497,-2.954,-9.301,-6.14,-22.041,226.055,-17.342,-15.504,1.568,8.849,-5.743,-6.335,8.19,-149.12
3.17970650000007,-31.247,-7.392,-118.555,-9.354,-29.82,-8.917,182.431,30.274,-20.172,-18.287,-31.005,-32.444,-23.677,-23.317,-25.132,-15.2,-19.857,-27.223,-22.527,-35.339,217.632,-34.231,-31.37,-14.827,10.889,-23.156,-19.649,-4.626,-156.143
3.19462309999972,-29.679,-9.946,-114.851,-13.443,-35.425,-7.371,182.249,29.219,-15.029,-15.708,-26.875,-29.85,-20.067,-8.949,-29.205,-15.184,-13.178,-22.585,-13.796,-29.668,223.049,-28.049,-24.167,-16.349,43.666,-20.059,-16.555,-5.134,-147.79
3.19468149999966,-30.161,-17.108,-120.371,-16.504,-37.952,-16.073,182.579,24.067,-20.649,-20.815,-31.971,-36.992,-28.244,-8.94,-30.713,-21.317,-15.726,-25.124,-16.856,-34.249,220.265,-28.533,-21.069,-20.944,51.307,-17.989,-17.051,-14.863,-154.302
3.21138870000004,-42.939,-30.411,-140.743,-30.832,-49.184,-36.549,150.121,2.014,-41.633,-41.799,-53.969,-49.763,-49.22,-33.009,-44.514,-31.542,-30.567,-31.758,-31.183,-50.097,209.798,-41.312,-31.806,-30.657,48.182,-30.267,-30.866,-35.852,-161.833
3.21145299999989,-41.871,-24.745,-130.869,-24.141,-47.086,-25.754,117.695,22.504,-29.296,-36.634,-49.816,-44.078,-39.949,-26.828,-44.982,-23.313,-20.29,-18.407,-22.443,-42.362,217.785,-36.148,-26.139,-20.38,31.74,-28.7,-28.786,-27.62,-152.449
3.22473409999975,-30.559,-16.524,-117.418,-11.822,-29.108,-8.31,150.365,46.048,-13.385,-18.666,-33.373,-33.275,-23.515,-7.846,-30.592,-12.019,-6.95,-8.654,-13.711,-31.561,228.838,-26.89,-15.867,-11.138,9.679,-19.449,-19.023,-12.735,-156.908
3.2247997999998,-34.114,-21.63,-133.182,-23.08,-28.054,-23.159,183.003,13.726,-28.741,-25.308,-38.975,-34.779,-28.103,-11.425,-28,-14.569,-14.628,-17.355,-19.333,-37.165,223.487,-33.011,-21.486,-18.811,26.575,-23.016,-23.103,-15.796,-172.12
3.23966699999983,-47.913,-23.658,-135.098,-29.205,-41.346,-31.845,206.898,-2.681,-33.323,-32.455,-42.522,-38.843,-29.611,-12.438,-35.657,-17.628,-20.761,-27.071,-22.387,-39.689,218.652,-37.076,-26.075,-20.842,59.336,-25.555,-23.592,-15.268,-167.337
3.23972599999979,-52.988,-22.097,-124.717,-17.905,-41.817,-16.956,174.416,30.109,-20.994,-24.225,-36.331,-39.316,-27.02,-11.913,-38.183,-18.635,-21.765,-34.217,-26.464,-41.186,218.946,-36.015,-24,-20.309,55.691,-25.017,-21.519,-19.864,-164.608
3.25468279999995,-44.738,-25.149,-139.449,-14.813,-41.263,-12.328,141.966,46.473,-20.461,-22.152,-40.394,-38.764,-30.579,-21.635,-36.608,-20.666,-21.743,-28.547,-28.486,-43.707,215.653,-39.052,-27.05,-22.85,31.557,-27.553,-28.158,-34.188,-171.104
3.25474039999972,-36.496,-26.661,-145.969,-22.483,-47.882,-22.562,174.612,22.86,-24.539,-27.253,-42.402,-37.701,-27.987,-15.466,-35.546,-17.571,-11.475,-13.149,-18.724,-39.052,214.413,-37.989,-25.998,-17.704,15.643,-25.477,-26.593,-24.42,-161.711
3.27155569999968,-42.095,-26.122,-128.405,-28.608,-44.248,-29.2,207.225,5.419,-26.564,-28.763,-38.262,-38.688,-26.935,-1.618,-36.536,-13.967,-5.828,-14.161,-17.168,-35.427,215.735,-32.828,-20.337,-17.174,13.066,-20.84,-18.369,-10.564,-158.475
3.27162210000006,-44.102,-21.485,-118.03,-23.457,-31.396,-19.949,174.742,20.783,-19.365,-16.951,-31.051,-31.477,-22.809,-2.641,-24.716,-7.806,-6.847,-15.171,-16.127,-31.293,218.593,-28.184,-18.267,-17.669,28.422,-16.721,-16.301,-14.651,-169.588
3.28517800000009,-27.152,-4.557,-111.765,-3.453,-24.705,6.199,142.292,52.525,0.122,6.632,-13.089,-15.052,0.78,6.071,-4.711,7.059,6.48,6.873,4.894,-14.868,226.572,-14.324,-5.954,3.866,52.985,-2.36,-8.601,-1.317,-150.463
3.28524019999986,-20.465,4.157,-103.968,3.21,-24.68,13.877,174.937,52.472,4.221,11.749,-5.904,-13.5,8.976,18.873,-9.317,12.175,13.133,14.039,13.599,-8.193,229.931,-4.575,6.348,16.157,65.739,9.426,-0.395,15.591,-126.746
3.29979959999991,-34.789,-8.143,-114.111,-11.138,-30.803,-10.215,207.038,21.681,-13.714,-8.243,-22.804,-27.831,-8.964,6.046,-29.288,1.404,-2.249,-4.419,-2.297,-21.505,217.918,-15.842,-6.979,-3.839,64.649,-4.416,-11.153,2.767,-148.649
3.29986409999992,-36.291,-18.381,-127.829,-11.126,-38.969,-20.451,174.555,21.147,-17.799,-16.944,-30.978,-31.901,-12.541,-5.743,-28.746,-5.257,-12.493,-15.173,-11.516,-29.168,206.43,-28.121,-19.779,-14.081,51.264,-19.268,-22.413,-11.068,-170.529
3.31476229999998,-26.009,-21.436,-134.361,-4.455,-40.467,-12.746,170.282,39.057,-9.584,-12.316,-27.361,-29.308,-8.942,-3.176,-22.57,-7.301,-15.042,-22.33,-10.48,-29.139,204.686,-26.044,-16.686,-6.895,18.938,-19.249,-19.316,-12.594,-160.112
3.31482490000008,-35.716,-32.686,-146.01,-21.869,-37.353,-18.881,202.9,26.723,-16.747,-18.964,-36.043,-35.426,-21.741,-9.32,-29.207,-13.441,-22.711,-32.041,-16.617,-35.77,198.846,-30.116,-24.354,-15.597,-4.647,-23.328,-20.834,-26.413,-165.588
3.33063450000009,-51.562,-36.239,-144.839,-36.192,-38.852,-27.571,170.422,13.888,-30.563,-27.654,-41.642,-41.539,-30.941,-13.922,-31.227,-17.014,-22.689,-25.349,-23.26,-40.857,191.987,-40.332,-32.014,-23.266,17.387,-27.404,-27.473,-32.535,-183.353
3.33069819999992,-44.338,-22.883,-122.665,-24.885,-43.424,-22.421,137.976,24.12,-30.02,-26.09,-34.941,-37.911,-28.349,-4.686,-28.635,-16.997,-12.932,-13.541,-20.163,-36.205,192.82,-35.681,-22.248,-11.972,50.157,-20.716,-25.397,-16.108,-176.51
3.34490689999984,-31.999,-16.712,-114.858,-15.639,-43.893,-15.738,170.625,29.732,-17.182,-18.379,-29.27,-31.213,-20.636,1.978,-28.606,-10.32,-5.235,-10.966,-9.385,-29.509,195.701,-24.887,-15.566,-4.276,46.008,-15.572,-19.223,-8.407,-163.525
3.35983319999968,-32.991,-20.282,-125.501,-18.697,-36.677,-6.501,203.243,31.239,-7.431,-9.139,-22.069,-27.083,-9.344,1.976,-19.356,0.961,0.918,-3.27,-2.203,-22.82,194.481,-20.764,-18.112,-5.296,21.884,-14.532,-16.643,-11.985,-162.337
3.3598950999999,-28.86,-17.7,-123.326,-17.654,-25.882,-1.371,170.764,36.331,-8.961,-6.568,-16.924,-23.47,-8.822,-1.099,-8.578,2.497,1.942,4.93,-0.151,-16.649,192.749,-17.669,-13.483,0.345,28.01,-9.907,-14.065,-5.826,-157.564
3.37492459999976,-13.974,-9.485,-109.883,-9.951,-17.147,-5.981,203.381,32.196,-9.976,-6.049,-17.931,-17.811,-9.326,-5.197,-8.057,-0.067,-0.622,1.339,5.996,-14.071,192.557,-12.016,-6.809,11.103,41.302,-2.725,-7.39,2.89,-151.259
3.37498649999998,-13.96,-0.767,-108.236,-1.744,-10.469,-1.876,212.911,38.311,2.841,6.764,-8.692,-11.133,6.565,5.567,-7.537,9.155,3.478,-0.199,11.626,-10.471,192.876,-6.881,-2.192,18.264,40.748,5.475,-2.772,8.01,-155.718
3.38992770000004,-27.778,-1.278,-116.837,-0.718,-12.508,11.446,180.423,62.352,8.986,11.368,-3.048,-16.245,9.12,16.832,-8.041,9.658,1.425,-3.785,3.417,-9.948,186.023,-9.436,-2.19,13.123,54.027,2.908,-6.356,8.514,-166.321
3.39387769999985,-27.751,-15.109,-131.065,-15.574,-25.816,3.749,147.967,61.265,-8.441,-8.111,-21.488,-31.086,-13.431,3.495,-19.817,-7.258,-11.897,-15.052,-9.394,-20.697,170.981,-21.722,-10.384,0.814,60.633,-11.952,-16.083,-2.253,-176.401
3.40577679999978,-21.063,-24.316,-142.205,-29.391,-30.913,-20.333,180.607,28.928,-26.876,-25.521,-34.786,-37.715,-22.127,-8.804,-29.018,-13.399,-13.422,-16.062,-12.971,-32.459,162.1,-30.409,-14.985,0.301,28.297,-17.575,-19.653,-9.935,-175.2
3.40584529999978,-29.751,-19.681,-132.841,-25.775,-21.148,-28.509,213.214,4.821,-28.898,-24.471,-30.141,-33.067,-16.469,0.939,-25.403,-7.237,-4.699,-7.336,-12.445,-30.377,160.401,-27.817,-12.408,6.961,16.486,-10.385,-18.097,-1.728,-161.192
3.42003819999991,-38.431,-15.05,-116.314,-16.016,-15.492,-15.161,180.725,35.042,-20.16,-16.762,-28.574,-27.91,-15.94,5.549,-19.742,-6.206,-4.182,-7.841,-9.871,-22.662,156.655,-23.179,-12.908,1.318,44.134,-9.863,-15.517,5.446,-155.396
3.42010239999991,-31.22,-15.547,-117.735,-12.414,-17.525,-3.363,148.269,67.795,-12.455,-11.622,-30.594,-28.907,-17.974,-6.24,-18.186,-7.224,-9.301,-13.981,-7.812,-24.177,152.4,-24.692,-12.383,-4.831,38.454,-11.902,-13.965,-0.195,-167.023
3.43502379999973,-34.262,-23.729,-131.45,-22.647,-25.192,-15.655,180.909,45.698,-19.615,-20.832,-36.199,-39.124,-27.177,-16.992,-24.827,-13.364,-18.513,-22.677,-16.001,-34.398,144.563,-32.352,-16.469,-3.289,6.141,-15.989,-19.074,-13.003,-179.664
3.43508780000002,-48.06,-39.074,-144.638,-41.58,-45.147,-40.23,213.515,13.376,-33.428,-37.205,-48.971,-46.77,-38.421,-23.123,-38.123,-24.622,-27.716,-32.388,-27.768,-42.049,131.098,-43.078,-28.748,-9.433,12.282,-29.293,-29.813,-25.285,-178.46
3.44999209999969,-40.328,-40.572,-147.055,-38.977,-54.324,-35.579,181.027,28.22,-25.71,-29.483,-41.749,-36.989,-26.087,-20.538,-41.158,-15.888,-16.418,-24.158,-21.081,-35.859,129.942,-40.474,-25.645,-11.473,36.348,-32.337,-26.709,-25.26,-163.937
3.45403570000008,-20.307,-22.601,-132.051,-14.86,-29.166,-9.928,165.476,60.979,-7.753,-7.424,-21.728,-25.169,-8.13,-4.124,-23.699,3.083,1.53,-5.691,-4.153,-20.966,138.009,-25.064,-10.251,-2.752,37.849,-19.497,-13.875,-11.915,-158.65
3.46685789999992,-21.824,-16.943,-119.624,-13.308,-8.645,-8.893,198.099,46.574,-11.844,-8.442,-24.267,-28.218,-12.733,2.028,-15.478,-1.531,-5.132,-9.784,-6.199,-20.945,133.261,-22.99,-14.339,-6.848,35.762,-16.916,-15.398,-7.292,-170.274
3.46692319999966,-33.585,-25.123,-125.652,-26.102,-24.005,-19.643,180.994,25.523,-22.591,-21.241,-30.903,-32.288,-20.405,-8.22,-28.783,-11.775,-19.471,-22.582,-16.438,-30.146,122.881,-31.164,-21.497,-9.915,29.578,-23.559,-20.506,-15.482,-173.69
3.48014909999983,-27.404,-16.901,-127.063,-14.805,-33.715,-9.377,148.538,51.113,-10.785,-10.973,-21.138,-24.571,-10.65,-4.113,-29.266,-2.542,-11.767,-9.752,-7.713,-22.431,125.832,-20.374,-8.668,10.075,14.18,-12.265,-9.727,-10.855,-164.295
3.48021789999984,-17.643,-2.539,-112.591,4.677,-11.14,2.928,147.877,72.578,2.546,4.919,-12.408,-16.862,2.68,14.334,-7.208,6.17,3.614,9.214,9.201,-8.064,130.829,-4.472,3.637,22.872,29.022,2.604,-1.52,2.988,-161.057
3.49511050000001,-26.847,-8.172,-111.454,0.574,-0.883,-1.686,180.517,58.673,-4.117,-1.746,-15.469,-21.968,-0.909,15.344,-5.151,1.553,1.561,1.007,2.532,-15.228,122.502,-13.177,-2.515,6.456,61.781,-7.132,-9.716,-4.7,-164.482
3.49517209999976,-42.189,-28.144,-135.421,-19.919,-26.497,-17.566,163.943,39.659,-21.531,-24.798,-31.335,-38.34,-24.474,-10.799,-30.761,-12.793,-18.933,-24.609,-23.086,-34.681,104.961,-34.681,-21.468,-15.068,50.961,-30.179,-23.538,-31.847,-168.416
3.51009299999987,-42.659,-38.362,-152.192,-38.342,-43.377,-34.454,188.369,26.3,-31.243,-37.581,-48.723,-46.499,-40.331,-35.379,-45.588,-27.125,-34.283,-35.855,-33.821,-40.794,95.122,-44.38,-31.692,-20.176,18.634,-37.321,-28.125,-41.549,-175.932
3.52623059999996,-31.346,-28.59,-138.207,-36.254,-30.013,-31.346,220.969,21.663,-25.064,-26.785,-38.94,-37.231,-25.946,-26.634,-33.759,-20.438,-22.466,-20.962,-18.418,-28.458,100.15,-33.577,-18.853,-4.274,2.222,-23.451,-17.339,-22.552,-176.268
3.52629509999997,-25.679,-13.704,-125.261,-15.214,-19.225,-13.384,211.014,33.936,-13.769,-10.364,-16.872,-26.435,-10.551,0.032,-17.844,-2.487,-4.513,-5.06,-4.055,-15.621,105.685,-15.613,-2.44,12.636,35.007,-8.571,-4.514,-9.21,-165.334
3.52633590000005,-33.338,-14.715,-135.382,-7.001,-24.841,-13.883,178.527,45.686,-13.755,-13.428,-19.929,-26.408,-16.176,1.569,-16.289,-4.021,-10.144,-12.739,-7.125,-19.192,97.895,-15.597,-7.049,2.378,63.149,-13.173,-7.583,-17.398,-161.582
3.54019029999972,-38.428,-19.311,-132.685,-15.191,-23.792,-20.017,164.517,45.128,-16.303,-20.587,-28.618,-32.017,-19.746,-10.728,-20.371,-10.165,-18.33,-23.485,-12.241,-27.37,90.112,-25.315,-15.238,-8.383,43.106,-20.845,-10.649,-21.991,-167.568
3.54025559999991,-26.606,-10.583,-108.474,-13.127,-13.522,-9.751,196.115,43.545,-9.114,-12.369,-19.88,-33.01,-12.553,-4.057,-17.277,-4.007,-11.652,-15.777,-8.643,-23.244,91.047,-23.241,-10.612,8.019,20.522,-14.676,-2.954,-10.698,-160.228
3.55516140000009,-13.26,-5.961,-111.44,-3.892,-14.533,-6.155,226.145,42.477,-10.129,-9.795,-17.299,-27.342,-12.541,4.144,-14.186,-1.954,-9.079,-9.101,-4.536,-18.61,91.468,-17.582,-6.503,16.208,36.383,-9.538,-2.439,-8.638,-145.724
3.5691810999997,-18.369,-10.566,-130.284,-1.327,-21.691,-9.735,193.644,44.996,-18.829,-15.421,-20.868,-23.728,-14.578,0.041,-17.758,-4.001,-10.094,-11.654,-3.506,-19.616,91.376,-17.052,-2.911,7.995,51.715,-11.578,-4.486,-15.29,-152.238
3.56924469999967,-25.011,-7.482,-121.444,-3.375,-12.447,-3.577,161.175,54.685,-12.662,-5.671,-11.625,-23.704,-7.391,1.066,-12.617,3.688,-2.4,-5.494,1.62,-11.912,93.334,-10.887,2.728,15.159,46.541,-5.419,2.179,-7.59,-164.381
3.58426899999995,-23.961,-2.863,-109.027,-9.007,-4.238,-1.524,191.752,56.68,-3.94,0.994,-9.052,-21.631,0.301,4.651,-3.895,7.782,2.726,2.708,7.766,-5.752,90.679,-6.778,-0.349,19.242,73.134,-0.29,3.201,0.615,-157.044
3.58433130000003,-27.524,-10.033,-122.238,-11.559,-17.554,-9.72,176.703,47.914,-9.572,-10.278,-19.802,-22.634,-4.822,1.573,-10.039,1.115,-0.863,-1.905,4.685,-13.431,83.416,-13.431,-5.472,11.026,93.553,-6.438,-2.437,-7.07,-151.252
3.59927279999965,-26.984,-13.609,-125.19,-3.863,-19.585,-8.685,144.251,49.915,-13.66,-10.78,-19.269,-26.198,-12.502,3.62,-12.59,1.626,-3.424,-3.953,1.606,-18.028,82.308,-13.93,-1.368,20.237,61.184,-7.968,-0.386,-8.088,-157.248
3.59934099999964,-16.198,-8.472,-111.232,-0.273,-6.758,-3.554,176.895,53.964,-6.987,-1.035,-12.59,-23.098,-7.366,10.789,-3.868,9.821,-0.347,-0.363,5.191,-12.375,83.763,-5.719,2.732,31.487,38.069,-1.3,3.713,1.142,-154.529
3.61428799999976,-12.596,-11.025,-115.732,-7.957,-17.51,-7.136,209.505,41.614,-6.468,-7.694,-17.701,-20.513,-3.261,8.217,-11.037,7.25,1.703,-4.973,3.136,-14.412,78.044,-8.275,-1.881,17.111,70.819,-4.885,1.66,-1.421,-150.277
3.61434650000001,-18.731,-18.187,-126.375,-10.511,-32.349,-12.252,177.021,38.499,-12.096,-13.834,-23.318,-26.128,-10.43,0.524,-25.883,-0.442,-3.422,-13.165,-3.527,-22.082,69.769,-16.976,-6.49,9.922,73.31,-13.077,-1.927,-7.055,-148.589
3.62933290000001,-21.274,-15.095,-115.49,-3.328,-18.997,-7.629,181.967,53.317,-9.523,-6.135,-18.172,-25.077,-11.956,1.548,-21.246,3.144,-8.029,-13.152,-1.474,-18.986,68.675,-14.91,-6.484,22.207,40.961,-11.527,-1.413,-4.999,-136.145
3.62939710000001,-16.642,-7.907,-102.054,4.36,-11.806,1.6,208.425,62.486,-0.804,0.018,-10.981,-14.294,-0.673,7.694,-11.491,12.875,1.2,-3.405,7.237,-8.721,72.704,-7.723,-2.379,22.185,73.708,-6.392,3.711,-5.506,-134.985
3.64520569999968,-13.551,-8.412,-105.538,1.282,-21.528,2.623,175.941,66.522,3.295,0.531,-10.458,-13.255,3.938,9.736,-14.553,14.399,10.421,7.869,8.254,-8.712,71.095,-9.252,-0.84,12.941,106.422,-7.923,5.244,-5.501,-156.879
3.64527339999995,-20.71,-16.6,-120.802,-17.675,-25.605,-9.163,165.519,58.77,-5.417,-8.179,-20.182,-25.537,-6.824,4.603,-24.273,6.188,0.677,3.251,-0.464,-17.925,58.728,-20.001,-8.523,9.855,74.04,-16.112,-3.982,-6.007,-165.431
3.65978389999964,-25.3,-25.293,-134.001,-29.953,-32.751,-28.621,198.141,26.436,-23.343,-27.126,-32.969,-35.758,-20.137,-1.037,-33.982,-4.064,-8.546,-10.073,-7.635,-23.03,48.423,-27.666,-15.175,7.795,41.69,-23.268,-12.688,-9.587,-155.02
3.65984889999982,-16.053,-21.169,-126.695,-15.578,-30.157,-32.179,220.484,14.627,-24.344,-30.685,-32.424,-31.624,-20.117,5.624,-26.776,-3.036,1.197,-4.427,-1.48,-18.396,51.449,-19.441,-9.524,14.448,64.703,-18.122,-6.527,-2.918,-147.692
3.67442249999976,-17.062,-6.803,-104.027,3.393,-2.462,-11.142,187.988,47.4,-7.413,-16.31,-20.608,-22.37,-10.363,17.914,-6.769,8.238,7.856,7.873,5.694,-12.23,56.008,-7.639,2.268,27.241,75.909,-4.784,1.676,8.356,-139.86
3.67450889999964,-36,-3.722,-97.775,3.902,2.151,-2.422,161.16,63.746,-5.869,-13.732,-21.1,-25.934,-11.89,15.334,-8.812,8.23,-1.374,0.693,1.077,-16.316,49.804,-11.217,3.291,25.164,98.887,-3.242,-1.399,4.761,-134.597
3.6893898999997,-33.403,-9.354,-107.923,-3.787,-24.491,-16.764,193.787,36.018,-21.232,-18.842,-30.3,-31.031,-20.587,0.974,-22.123,0.537,-8.545,-11.604,-2.51,-22.96,44.632,-18.378,-4.91,14.381,129.014,-10.923,-3.959,2.195,-145.221
3.68944749999991,-12.877,-8.32,-112.938,-7.369,-28.053,-18.796,193.593,29.834,-21.724,-14.212,-25.147,-25.877,-15.956,-4.15,-15.953,5.147,-4.438,-11.592,5.177,-15.252,49.198,-12.212,-5.417,14.366,111.979,-8.351,1.168,8.341,-153.273
3.70628629999965,-11.84,-2.164,-111.801,-3.776,-8.557,-6.482,189.813,40.563,-8.382,-6.001,-10.777,-18.679,-3.132,2.514,-7.228,18.974,2.227,-2.871,12.344,-1.917,56.833,-1.954,4.322,23.061,79.591,2.928,7.314,12.431,-141.849
3.70635719999973,-14.389,4.498,-107.078,7.499,3.747,0.697,179.89,49.744,2.385,6.301,-2.57,-9.439,5.58,13.27,-6.196,25.615,10.934,11.989,14.893,1.671,61.387,2.659,9.953,36.871,71.315,13.171,11.405,21.64,-132.997
3.71951149999995,-8.739,3.981,-102.873,9.028,5.28,4.794,147.434,67.625,5.969,11.93,-5.641,-6.868,6.599,19.405,-2.604,21.491,10.923,11.977,11.805,-3.454,54.153,-2.467,2.771,37.346,82.514,9.06,8.32,23.667,-142.086
3.73451899999964,-25.125,-14.978,-111.479,-11.473,-8.045,-10.067,180.075,52.188,-9.919,-10.111,-21.517,-24.279,-7.752,6.578,-11.823,8.15,-4.457,-9.04,-4.601,-17.795,35.656,-20.395,-11.576,11.693,102.924,-14.003,-6.033,-3.509,-154.752
3.73458529999971,-48.153,-26.746,-122.126,-26.319,-23.919,-35.16,212.682,19.86,-29.377,-32.131,-35.84,-37.063,-24.65,-8.798,-29.229,-2.105,-13.675,-19.277,-18.429,-30.073,26.399,-30.621,-18.737,-6.249,93.6,-25.772,-14.224,-22.461,-153.06
3.74953749999986,-38.884,-15.449,-114.832,-12.46,-14.161,-26.416,180.194,31.111,-20.638,-18.778,-28.632,-26.267,-17.966,-3.154,-20.491,1.484,-5.464,-5.425,-7.652,-21.846,32.52,-20.344,-10.009,7.589,61.231,-11.914,-4.476,-9.118,-145.222
3.74959910000007,-18.865,-2.626,-102.422,8.045,0.71,1.787,147.739,63.868,-0.637,0.196,-12.209,-13.946,0.495,13.755,-0.49,13.265,7.349,8.412,9.774,-6.455,39.148,-5.467,3.833,23.976,77.563,0.393,5.263,5.748,-143.54
3.76453249999986,-17.821,3.525,-98.221,12.648,-6.975,7.421,180.379,61.755,1.925,2.757,-7.074,-10.858,5.618,21.426,-0.49,23.498,15.027,14.552,14.375,-1.325,42.695,2.223,9.465,29.587,110.273,2.442,9.868,12.402,-142.884
3.76850209999975,-22.926,6.083,-96.585,6.487,-11.579,2.291,147.923,57.082,-3.712,0.193,-10.653,-11.359,-0.535,18.331,-7.662,21.938,8.351,7.877,11.287,-2.348,39.578,-0.853,5.357,27.508,89.671,3.464,10.371,16.488,-140.18
3.78046730000005,-23.928,-4.682,-103.661,-0.179,-2.858,-3.347,115.5,59.074,-9.856,-8.517,-18.327,-21.082,-8.732,6.529,-6.117,9.62,-10.1,-12.111,0.005,-11.568,28.78,-15.197,-6.944,12.624,69.601,-6.785,1.139,5.201,-141.577
3.78052939999998,-26.978,-10.825,-108.681,0.333,-3.368,-8.979,148.172,47.745,-8.822,-12.094,-22.407,-25.159,-8.723,-0.137,-4.574,7.049,-16.238,-17.734,-9.729,-17.191,24.653,-20.304,-12.572,1.34,92.585,-16.512,-5.01,-4.538,-143.484
3.79463749999968,-29.513,-1.08,-97.301,6.993,-9.512,-1.798,180.811,50.771,4.507,2.775,-13.676,-13.351,1.019,6.523,-5.082,15.752,-4.951,-4.909,-2.034,-8.465,28.727,-10.55,-5.9,8.511,93.517,-8.299,4.729,5.713,-147.439
3.79470549999996,-26.409,-2.104,-98.228,5.449,-7.453,3.327,148.355,59.429,3.478,4.821,-7.002,-10.776,1.018,7.541,-3.54,13.687,-1.359,-3.879,4.115,-6.92,26.136,-9.003,-3.845,12.601,76.005,-5.217,9.335,5.195,-150.878
3.80958389999978,-16.137,-12.86,-110.426,-2.753,-6.933,-6.41,151.281,48.611,-10.358,-6.967,-11.606,-17.938,-5.13,2.923,-4.048,9.062,-5.969,-11.56,0.013,-13.573,22.524,-13.092,-9.476,6.441,79.003,-12.384,1.641,-10.18,-143.555
3.80965569999989,-12.022,-8.236,-101.606,-0.701,-11.025,-5.891,118.854,51.636,-4.2,0.213,-12.619,-15.358,2.559,9.58,-7.118,15.201,-0.327,-4.888,0.525,-8.948,22.502,-12.055,-7.417,11.558,72.777,-10.322,0.614,-8.12,-135.727
3.82460899999978,-23.793,-5.154,-96.894,1.861,-11.014,2.311,86.46,67.979,5.026,5.335,-10.557,-12.781,6.655,12.132,-10.185,13.649,2.234,-2.322,1.037,-8.427,17.868,-14.604,-5.873,16.669,61.945,-7.238,2.151,1.109,-145.325
3.8287221999999,-28.38,-10.272,-112.678,-1.215,-13.052,-4.863,119.161,55.103,-2.152,-5.941,-14.132,-18.916,-1.548,5.972,-13.761,8,-1.866,-8.467,-1.526,-16.616,12.215,-16.126,-11.503,9.992,76.74,-10.305,-1.438,-1.453,-152.864
3.84064609999996,-17.081,-3.602,-105.393,4.422,-13.039,-9.469,151.829,42.24,-2.662,-1.836,-13.606,-18.897,0.503,15.7,-11.698,14.139,6.332,-1.286,6.673,-9.939,13.74,-8.426,-9.442,11.519,81.787,-5.171,1.125,2.134,-144.514
3.84071559999984,-14.502,3.062,-86.333,11.59,-0.731,1.811,119.402,60.129,4.001,7.387,-7.957,-13.755,5.625,26.443,-3.489,17.199,14.011,7.936,11.277,-1.732,14.238,-5.343,-0.723,17.143,79.143,-0.043,6.76,11.354,-142.833
3.85479039999973,-21.148,-5.651,-94.955,3.893,0.807,4.883,87.007,66.729,0.411,-0.817,-8.974,-14.254,1.521,11.559,-3.486,10.522,2.726,-1.293,1.532,-6.853,9.613,-9.436,-2.259,13.028,92.896,-4.142,5.728,8.781,-148.838
3.85487419999981,-15.491,-8.719,-110.23,-7.381,-15.588,-4.343,119.708,47.194,-6.25,-5.94,-13.575,-17.826,-3.604,-4.846,-14.241,9.999,-5.474,-10.513,-2.056,-9.408,6.53,-11.476,-8.917,11.478,78.459,-5.162,2.136,5.698,-149.713
3.86967950000007,-9.84,-2.05,-112.169,-3.275,-15.572,-10.487,152.376,41.512,-8.805,-5.934,-14.074,-21.394,-8.211,-1.255,-17.813,7.94,0.679,-6.404,0.508,-9.399,3.962,-12.489,-10.957,11.979,57.376,-4.132,0.597,9.279,-152.125
3.86974869999995,-13.929,-0.511,-107.958,11.072,-1.724,-6.378,121.485,52.741,-7.771,-6.952,-10.986,-18.811,-6.666,5.918,-11.647,2.296,2.728,-2.3,0.507,-9.902,1.909,-8.891,-8.385,6.331,90.106,-5.665,0.597,12.855,-150.436
3.88462909999998,-12.378,-1.535,-96.067,15.16,-4.796,4.387,127.512,58.836,3.507,3.301,-4.828,-10.595,4.612,8.986,-7.537,9.466,0.164,-2.81,5.63,-3.232,4.468,-2.222,-2.741,12.985,113.07,0.488,4.182,12.843,-134.917
3.88880840000002,-10.317,-4.095,-89.823,2.337,-5.304,4.895,95.109,60.826,8.627,9.958,-3.798,-9.048,7.169,11.539,-6.505,16.117,1.701,-4.856,10.235,-2.204,6.001,-2.22,-0.689,27.316,80.681,7.66,6.74,8.731,-128.122
3.90035669999997,-14.917,-8.702,-97.93,-8.936,0.849,-6.381,62.738,58.204,-2.14,-2.86,-11.991,-15.186,-2.06,6.404,-5.986,8.928,2.723,-6.9,6.126,-6.812,0.872,-5.291,-5.299,23.703,62.158,2.017,4.684,5.136,-137.727
3.90041930000007,-12.853,-5.107,-100.906,-2.779,-12.472,-9.448,95.463,49.949,-8.286,-6.443,-14.028,-15.171,-2.058,5.373,-9.566,6.87,5.795,-1.77,8.169,-2.195,-1.178,-4.261,-2.732,12.409,94.883,-4.133,3.142,12.304,-142.2
3.91471210000009,-3.619,1.558,-98.244,6.445,-13.484,1.32,102.028,56.559,3.505,7.908,-4.281,-6.447,8.703,19.2,-7.508,14.036,16.035,8.99,17.895,2.93,6.507,-0.159,3.93,17.007,104.522,3.044,6.213,18.951,-144.107
3.92969599999969,-5.664,1.044,-102.244,1.828,13.682,9.003,69.65,70.847,13.236,12.511,-1.715,-3.367,12.792,24.304,2.234,18.12,17.556,7.444,17.365,2.415,8.038,3.428,1.877,27.236,72.142,9.701,9.793,13.809,-152.16
3.92975549999983,-18.978,-7.666,-107.777,-10.982,11.107,-4.326,102.368,54.894,-1.634,-2.359,-15.033,-16.171,-0.028,5.837,-2.379,10.93,0.632,-11.007,3.515,-3.735,-4.778,-5.285,-6.322,21.573,51.578,0.469,3.123,5.086,-159.18
3.9447210999997,-28.181,-18.417,-115.866,-20.192,-21.18,-26.863,135.054,24.613,-23.15,-19.775,-27.313,-29.475,-20.008,-13.125,-20.308,-4.963,-17.299,-26.877,-14.419,-19.613,-18.606,-23.723,-17.586,2.084,75.605,-15.413,-9.688,-1.579,-162.607
3.94478009999966,-23.542,-19.935,-126.509,-17.098,-24.745,-24.275,102.643,31.761,-21.59,-22.317,-25.749,-24.322,-19.476,-12.087,-20.287,-10.081,-16.257,-20.19,-16.966,-24.204,-18.075,-25.748,-22.179,-6.627,108.317,-20.008,-10.703,-0.553,-160.908
3.96178469999995,-11.735,-9.157,-125.358,-6.835,-0.129,-5.295,78.462,59.906,-4.15,-7.95,-14.965,-15.076,-4.087,0.733,-7.972,3.762,-2.921,-4.801,-2.605,-8.81,-9.86,-13.939,-9.862,1.576,110.77,-9.742,-0.446,9.694,-152.55
3.96185359999981,-8.138,-6.586,-115.499,-3.242,2.432,-3.24,111.171,60.871,-0.559,0.255,-9.315,-18.647,-3.571,5.855,-8.988,9.393,0.156,-6.333,-0.041,-4.191,-10.874,-12.901,-4.217,7.722,78.384,-4.097,0.579,10.709,-146.25
3.97485899999992,-15.302,-14.777,-109.748,-10.411,-12.939,-9.385,132.577,45.441,-6.706,-6.918,-18.014,-23.24,-10.227,-0.298,-15.127,-1.887,-7.529,-11.962,-9.262,-14.433,-19.573,-19.036,-14.971,10.276,46.542,-9.216,-8.131,0.452,-148.153
3.97492799999964,-19.385,-15.787,-107.589,-15.012,-16,-11.425,100.169,44.371,-5.163,-11.521,-24.656,-21.679,-5.094,0.727,-15.624,-4.959,-1.886,-3.241,-6.179,-13.394,-23.652,-16.455,-14.956,12.828,66.988,-10.231,-8.635,2.501,-149.541
3.98975399999972,-18.341,-12.697,-111.067,-9.361,-5.226,-14.487,67.793,50.986,-5.158,-8.436,-16.947,-18.072,-1.503,13.021,-12.535,2.218,9.386,2.398,1.512,-8.77,-21.579,-13.877,-6.744,4.106,99.709,-7.659,-4.528,12.745,-152.466
3.98981550000008,-19.86,-16.783,-121.715,-6.278,1.44,-12.936,43.647,52.985,-8.739,-6.891,-12.832,-16.004,-4.063,18.644,-6.887,4.265,6.303,-6.826,-1.051,-12.347,-21.557,-15.912,-11.348,-4.096,107.294,-11.75,-7.085,6.072,-161.023
4.00480149999976,-25.987,-20.864,-130.302,-16.006,-2.66,-9.849,74.854,51.395,-6.168,-8.421,-19.479,-19.062,-2.009,7.867,-8.929,0.163,-1.388,-11.43,-4.636,-14.384,-24.097,-16.409,-14.41,1.032,74.911,-13.787,-13.225,-9.816,-162.911
4.00486509999973,-28.523,-17.77,-126.586,-19.063,-7.268,-10.351,107.567,54.93,1.522,-6.363,-16.386,-21.092,0.042,-1.875,-17.117,-2.399,1.175,-8.345,-3.095,-12.32,-24.585,-12.806,-6.711,6.666,67.152,-8.138,-9.626,-5.708,-149.428
4.02071609999985,-21.322,-5.969,-103.405,0.423,1.96,-0.607,98.75,66.145,7.156,2.353,-6.635,-12.874,2.091,6.836,-7.878,2.726,6.297,-4.238,3.056,-6.673,-19.95,-6.133,-1.582,11.782,99.872,1.091,1.142,17.864,-130.323
4.02078099999972,-16.69,3.771,-80.76,13.231,11.18,6.566,66.376,69.153,5.612,7.473,-6.116,-6.714,5.163,24.76,5.962,8.871,9.365,2.939,7.664,-1.543,-17.881,-2.541,-0.043,23.554,91.575,7.75,2.166,26.043,-121.996
4.03587449999986,-26.919,-10.577,-90.413,-2.664,2.46,-6.249,69.384,57.813,-3.615,0.806,-12.258,-10.805,2.084,22.686,-1.729,4.764,5.257,1.911,-0.029,-5.64,-24.523,-9.199,-6.191,19.944,59.208,-0.967,-8.595,5.525,-136.731
4.03593699999965,-30.991,-27.473,-113.889,-16.494,-6.252,-12.902,99.54,51.608,-4.124,-3.293,-12.758,-12.844,-0.992,6.782,-8.899,2.198,-0.384,-7.312,-6.176,-9.22,-27.06,-16.874,-15.406,0.969,82.715,-15.31,-11.148,-7.801,-162.722
4.04997150000008,-15.078,-15.15,-112.751,-8.28,-0.611,-2.131,100.978,55.654,3.053,-0.216,-8.647,-10.269,4.132,7.8,-0.181,7.831,6.277,-2.694,2.539,-4.088,-20.373,-12.246,-9.755,-0.057,115.42,-7.098,-0.378,3.478,-169.219
4.05003510000006,-10.453,-0.79,-101.879,-2.637,-3.171,-1.617,71.163,55.599,-2.073,-3.29,-7.614,-11.796,3.616,17.526,-1.206,7.823,11.393,4.481,6.123,-3.572,-20.865,-6.086,-1.549,14.8,93.276,6.741,3.208,13.721,-148.045
4.06489599999986,-20.176,-12.06,-102.802,-9.806,-11.877,-10.324,71.092,50.932,-7.707,-6.873,-11.192,-13.834,-3.048,10.848,-11.963,2.18,2.673,-2.184,-1.568,-8.691,-28.529,-8.642,-8.207,15.298,75.252,-1.975,-2.43,10.121,-134.065
4.06496389999984,-18.107,-21.27,-109.872,-15.944,-8.279,-11.851,103.808,48.832,-2.064,-3.28,-14.255,-16.894,-2.533,5.714,-10.414,2.178,1.645,-7.305,-0.03,-7.145,-27.475,-11.707,-11.785,6.061,78.762,-10.17,-4.99,3.963,-151.861
