Cz,Fz,Fp1,F3,C1,C3,T7,C5,CP5,CP3,CP1,P1,P3,O1,CPz,Pz,Oz,O2,P4,P2,CP2,CP4,CP6,C6,T8,C4,C2,F4,Fp2,Label
-7.089,-30.988,-104.102,-16.158,-6.835,-24.747,-63.308,-21.297,-22.756,-21.201,-21.736,-14.763,-21.08,-3.988,-0.502,1.421,-1.931,14.272,-5.863,-9.892,3.367,-19.281,-11.946,-4.435,26.656,-19.915,-153.162,-14.885,-120.993,4
-10.156,-30.957,-100.411,-29.461,-19.636,-29.333,-30.457,-39.207,-29.394,-26.303,-23.764,-19.872,-29.256,-5.008,-10.748,-3.191,-9.614,-4.698,-18.153,-17.054,-5.345,-22.336,-16.032,-2.381,6.137,-18.359,-156.083,-14.87,-120.872,4
-13.732,-41.684,-117.217,-57.609,-34.473,-44.161,2.361,-67.345,-36.024,-35.498,-31.937,-21.901,-33.325,-22.934,-24.569,-9.336,-23.436,-25.698,-29.918,-26.771,-7.901,-34.609,-26.262,-20.822,28.672,-31.148,-159.513,-15.88,-138.682,4
23.676,-4.214,-92.398,3.443,14.242,2.532,-62.162,-8.832,-2.155,5.54,7.046,4.259,1.562,10.915,19.518,25.505,7.337,14.296,6.5,11.688,19.763,5.407,10.151,18.148,44.467,3.742,-131.031,11.805,-88.734,4
13.407,-7.284,-88.719,-16.028,-4.216,-4.131,-29.313,-26.754,-6.251,-0.613,-3.72,1.181,-4.075,3.732,8.74,22.406,4.768,10.183,3.42,2.967,12.571,1.303,6.554,21.716,35.713,2.713,-132.949,11.28,-105.552,4
-8.636,-22.646,-96.827,-43.165,-23.167,-25.131,-34.919,-48.757,-20.077,-14.957,-14.987,-10.091,-13.805,-12.153,-6.638,9.064,-1.896,1.976,-8.879,-7.794,1.8,-13.555,-5.748,2.227,58.731,-11.122,-139.476,5.121,-114.668,4
-1.455,-16.988,-100.317,-26.728,-8.799,-15.885,-67.159,-28.216,-18.52,-9.307,-4.725,-9.056,-9.693,-8.043,1.566,9.567,-0.87,5.048,-6.821,-3.176,0.261,-9.956,-3.18,0.688,60.721,-12.135,-141.898,7.166,-102.258,4
16.989,-11.848,-97.142,-17.992,-0.593,-4.086,-34.304,-21.015,-9.792,-1.613,-4.208,-4.436,-8.658,-5.985,7.2,15.705,-2.406,6.579,-2.203,-4.197,2.823,-7.384,-0.103,10.421,28.385,-11.099,-140.219,5.621,-107.791,4
9.8,-18.496,-94.484,-28.22,-10.327,-14.328,-1.482,-43.024,-13.369,-7.247,-12.913,-6.993,-14.285,-9.053,1.045,12.615,-3.94,5.036,-11.423,-8.804,0.258,-14.037,-4.714,8.873,19.135,-12.624,-139.055,3.054,-117.929,4
-1.481,-19.502,-95.926,-27.679,-6.73,-18.412,-33.756,-41.956,-19.503,-12.363,-11.364,-7.499,-13.759,-9.044,-2.03,9.017,-1.887,5.543,-17.047,-5.721,-3.841,-12.998,-4.709,3.229,51.904,-12.099,-139.94,2.539,-117.811,4
8.255,-17.945,-97.367,-25.602,2.498,-11.221,-65.998,-28.594,-13.848,-10.301,-9.303,-6.467,-10.159,-10.06,3.095,14.643,0.164,8.611,-6.783,-3.666,-2.3,-8.887,-0.094,4.251,70.295,-13.112,-136.726,-1.562,-120.255,4
8.759,-23.051,-101.881,-26.601,-5.701,-16.333,-33.144,-37.275,-12.298,-9.778,-12.88,-8.509,-10.661,-6.976,4.629,16.165,0.164,6.554,-2.166,-4.175,-4.347,-12.464,0.419,5.271,43.073,-14.636,-136.077,-5.659,-117.573,4
-13.279,-31.224,-109.976,-29.649,-17.991,-25.026,-65.386,-41.336,-26.118,-17.453,-18.502,-13.112,-19.359,-5.944,-4.597,7.44,-3.423,0.399,-14.459,-6.732,-15.101,-18.087,-8.291,-0.37,20.488,-17.695,-143.114,-8.727,-110.283,4
-20.438,-33.242,-106.792,-41.402,-15.411,-23.976,-97.596,-33.098,-32.239,-23.071,-22.07,-16.685,-27.025,-9.012,-10.741,3.846,-3.419,4.497,-19.568,-11.336,-18.672,-19.093,-14.43,-3.956,28.152,-18.702,-141.946,-12.305,-117.858,4
-1.462,-27.574,-96.439,-43.922,-11.81,-24.977,-64.711,-43.311,-21.961,-18.95,-18.974,-14.107,-20.85,-4.905,-3.558,9.99,2.22,14.227,-11.864,-9.276,-14.555,-16.513,-7.756,-4.976,46.567,-12.535,-136.169,-10.755,-130.035,4
2.125,-31.645,-109.662,-37.218,-22.557,-32.636,-31.859,-60.686,-21.426,-19.955,-23.054,-15.117,-17.243,-8.486,-6.628,7.931,-7.004,1.917,-12.876,-7.73,-17.102,-20.082,-7.748,-10.607,45.496,-15.084,-140.131,-13.818,-135.028,4
-17.857,-48.007,-135.168,-46.403,-29.706,-35.165,-64.102,-52.94,-31.139,-28.132,-32.252,-22.787,-30.033,-22.31,-21.99,-1.811,-23.391,-19.089,-24.134,-15.919,-23.745,-29.284,-16.962,-11.621,21.372,-28.389,-144.601,-26.1,-137.967,4
-18.351,-45.397,-121.201,-54.041,-14.307,-26.933,-96.313,-36.494,-26.497,-22.981,-25.048,-19.178,-28.466,-15.627,-13.259,2.802,-17.22,-10.873,-22.061,-14.878,-21.672,-25.156,-11.822,-2.9,25.961,-23.75,-141.383,-21.463,-133.731,4
1.647,-24.86,-88.292,-36.568,3.125,-16.148,-63.429,-29.285,-10.589,-6.052,-10.678,-5.326,-9.483,-3.316,7.246,18.168,-1.321,9.118,-6.157,-0.519,-16.015,-11.299,0.998,1.714,56.161,-6.308,-132.02,-0.437,-117.715,4
-1.428,-17.15,-86.154,-24.236,-0.976,-9.472,-95.641,-18.497,-4.431,0.614,-10.155,-2.247,-4.862,-10.485,2.116,19.687,-2.857,11.158,-3.077,1.019,-14.462,-10.775,-1.565,2.225,38.175,-5.277,-124.716,5.199,-107.864,4
-15.772,-25.33,-114.245,-31.897,-11.221,-9.975,-127.821,-14.892,-7.5,-3.485,-13.731,-8.392,-11.517,-13.549,-7.62,10.958,-9.514,2.437,-17.419,-8.716,-21.62,-19.474,-12.322,-0.852,17.644,-17.055,-130.226,-5.053,-116.977,4
-6.022,-29.915,-117.205,-36.476,-5.575,-14.575,-94.906,-29.734,-11.591,-8.092,-13.205,-6.847,-10.481,-6.875,1.609,10.435,-5.918,-3.713,-20.988,-7.17,-27.233,-20.991,-14.359,-12.634,50.414,-21.649,-135.732,-9.146,-127.619,4
7.304,-24.762,-89.423,-30.804,7.239,-16.098,-62.023,-40.975,-14.141,-9.621,-12.167,-1.717,-9.959,-5.331,8.268,17.084,-4.375,-4.734,-13.282,-0.503,-22.083,-16.872,-9.734,-13.646,48.314,-15.992,-125.862,-2.989,-112.122,4
-5.511,-21.664,-80.624,-27.699,-2.503,-19.668,-43.006,-42.471,-17.713,-10.636,-14.204,-7.863,-15.584,-4.301,-2.499,15.53,-9.494,-2.167,-16.855,-4.089,-25.647,-17.879,-8.187,-1.337,15.991,-10.853,-125.224,-0.937,-96.128,4
-22.412,-32.913,-104.11,-33.819,-27.091,-25.283,-75.238,-43.454,-22.306,-14.724,-20.338,-18.614,-21.204,-11.982,-12.743,4.244,-14.608,-5.239,-26.059,-14.331,-45.089,-28.108,-16.888,-7.483,27.758,-18.526,-138.419,-11.182,-114.988,4
-19.315,-39.54,-115.789,-35.835,-23.99,-18.598,-107.438,-28.553,-17.673,-13.172,-19.293,-16.034,-18.109,-24.265,-7.607,1.166,-14.593,-7.795,-24.496,-16.366,-50.167,-33.715,-22.507,-19.771,44.636,-28.242,-134.182,-13.732,-127.168,4
-13.661,-29.767,-97.742,-30.676,-1.424,-9.87,-74.543,-15.717,-6.385,-6.499,-11.589,-10.894,-9.381,-14.507,2.135,9.874,-11.505,-2.665,-20.886,-11.226,-41.92,-27.021,-17.361,-11.554,16.415,-22.578,-123.801,-1.936,-106.036,4
-17.745,-30.761,-90.984,-38.842,-6.546,-23.18,-41.681,-36.706,-14.063,-16.226,-19.774,-20.105,-19.618,-6.808,-4.528,3.204,-13.542,-4.199,-28.037,-13.777,-48.538,-28.019,-17.344,-13.08,31.255,-19.994,-131.875,-8.081,-102.344,4
-14.654,-43.538,-105.75,-52.635,-21.396,-35.965,-73.914,-54.6,-31.467,-31.067,-31.537,-26.745,-36.505,-19.097,-15.794,-10.631,-17.115,-10.342,-32.62,-17.861,-55.662,-36.7,-23.986,-26.899,57.864,-30.22,-136.866,-24.979,-121.709,4
-4.905,-42.983,-106.669,-47.46,-12.153,-24.658,-106.116,-40.201,-26.313,-23.864,-23.309,-20.058,-27.759,-17.028,-9.118,-1.912,-11.975,-4.184,-25.415,-11.696,-50.483,-30.003,-20.888,-21.237,29.117,-27.116,-127.507,-17.27,-121.588,4
-9.511,-35.767,-97.853,-38.703,-9.58,-16.437,-73.222,-32.476,-15.016,-12.569,-15.089,-14.915,-16.973,-9.839,-5.01,4.75,-8.377,1.968,-19.242,-8.61,-51.97,-21.264,-14.72,-13.018,26.014,-16.843,-121.232,-7.519,-121.466,4
-17.699,-35.219,-97.755,-36.103,-22.378,-18.982,-105.424,-32.443,-17.562,-14.606,-19.172,-16.437,-23.616,-18.538,-11.665,-4.476,-12.979,-2.133,-21.272,-11.163,-57.041,-24.317,-15.217,-17.104,54.677,-18.875,-120.599,-16.22,-131.078,4
-11.533,-34.672,-98.682,-29.919,-15.695,-13.84,-137.594,-25.239,-17.544,-13.567,-16.591,-16.421,-22.568,-16.47,-2.945,-1.398,-11.429,-3.668,-23.812,-6.541,-56.984,-24.292,-16.739,-15.038,34.13,-22.442,-119.453,-18.254,-117.627,4
-8.448,-37.199,-103.194,-33.987,-4.921,-15.363,-104.669,-38.021,-18.039,-12.528,-14.525,-17.429,-18.959,-10.819,8.329,1.165,-11.93,-6.738,-26.35,-10.121,-62.562,-27.854,-23.382,-19.633,3.87,-23.957,-122.408,-18.235,-107.264,4
-12.538,-38.698,-109.239,-40.614,-16.187,-23.544,-83.56,-49.254,-22.12,-14.053,-17.073,-16.899,-20.989,-18.492,0.124,-7.545,-17.553,-11.342,-25.299,-15.746,-64.549,-33.974,-28.482,-30.372,18.211,-27.007,-120.236,-24.365,-124.062,4
-2.279,-31.487,-96.322,-25.716,-14.634,-7.639,-115.752,-17.442,-7.753,1.33,-6.297,-7.148,-5.599,-8.228,-0.389,4.758,-6.265,-0.06,-13.491,0.663,-53.213,-17.034,-14.109,-15.997,37.148,-14.172,-109.357,-13.07,-127.012,4
10.531,-25.82,-81.881,-16.981,6.898,8.762,-136.128,4.605,6.087,12.6,2.419,-0.481,7.727,12.273,10.883,17.048,7.061,12.236,-3.231,10.909,-49.062,-0.623,0.762,4.511,35.574,2.236,-105.15,0.776,-115.102,4
2.836,-30.405,-85.385,-32.333,2.28,-8.153,-103.204,-23.064,-7.751,-2.782,-10.392,-11.239,-8.163,3.551,1.138,-2.949,-4.217,2.49,-12.962,-7.545,-62.333,-18.553,-9.485,-3.178,34.001,-7.5,-112.729,-4.86,-113.962,4
-9.975,-36.01,-89.911,-45.621,-24.362,-27.612,-70.313,-48.144,-24.137,-18.661,-25.238,-23.523,-25.573,-13.871,-18.843,-17.29,-18.045,-14.419,-29.342,-20.345,-74.566,-36.978,-25.357,-18.544,48.824,-25.423,-121.326,-12.54,-112.824,4
-8.94,-34.95,-90.845,-45.063,-25.363,-24.511,-100.469,-42.461,-22.576,-20.179,-23.676,-19.914,-24.523,-13.345,-19.849,-10.613,-15.978,-13.892,-28.288,-11.103,-71.93,-27.207,-21.233,-19.55,59.534,-23.349,-121.717,-13.552,-110.662,4
6.95,-22.619,-90.242,-32.21,-1.771,-9.117,-132.644,-23.975,-11.283,-7.351,-5.721,-6.061,-10.153,-1.548,0.663,-2.918,-3.154,3.54,-8.793,5.302,-55.464,-8.736,-6.867,-3.649,44.105,-5.907,-108.275,-5.854,-109.527,4
24.874,-5.178,-75.295,-12.198,11.038,9.847,-158.639,-2.946,5.634,17.247,15.289,6.24,9.324,12.286,24.741,10.405,12.219,20.443,9.147,21.69,-43.625,5.105,1.337,12.749,35.352,12.03,-90.236,14.132,-91.486,4
19.726,1.999,-63.949,-9.112,10.515,15.473,-125.693,-0.894,8.703,23.377,16.81,7.258,12.389,9.712,24.204,16.03,10.669,17.861,6.064,23.205,-48.705,10.223,-0.714,10.174,53.759,21.239,-88.096,25.388,-80.636,4
0.751,-1.589,-71.57,-16.275,13.578,2.65,-92.779,-20.873,-5.138,8.497,5.523,0.079,-0.431,-5.155,9.323,3.719,-3.686,5.035,-1.114,11.911,-53.779,6.114,-0.713,5.553,57.292,17.12,-94.668,24.338,-94.388,4
3.312,-3.637,-78.158,-11.648,15.614,1.11,-98.834,-23.926,-6.158,5.927,5.517,-2.995,-2.48,-1.563,12.9,0.641,-0.608,6.567,6.059,11.899,-49.115,4.571,5.947,13.232,49.55,14.541,-92.012,27.388,-104.027,4
13.555,-5.682,-77.568,-9.587,3.815,7.769,-126.912,-9.558,-2.053,6.946,5,-1.968,-1.965,2.024,18.522,2.69,8.101,11.171,5.541,14.449,-50.09,4.054,6.454,12.194,56.673,15.039,-88.846,19.676,-104.436,4
6.881,-8.75,-73.904,-15.725,-1.312,1.614,-138.569,-14.159,-12.297,-2.283,0.896,-2.99,-8.111,-9.761,10.307,-2.948,0.409,5.525,-3.174,10.336,-51.065,2.513,1.324,9.621,49.956,11.95,-91.319,5.824,-105.356,4
4.825,-8.742,-68.195,-20.833,10.473,-5.56,-106.667,-29.514,-16.383,-3.817,3.969,-2.987,-9.127,-6.165,10.296,-0.896,-5.739,1.933,-0.097,11.863,-46.915,3.535,1.323,15.247,42.221,11.426,-89.691,11.454,-100.127,4
13.017,-12.319,-75.811,-29.521,9.438,-8.629,-126.028,-27.435,-13.293,-2.277,0.891,-2.984,-11.168,2.55,13.872,-2.432,-4.197,0.394,-3.171,8.777,-54.04,-1.592,-3.289,0.374,69.331,8.853,-91.65,12.467,-100.54,4
12.492,-12.819,-83.42,-27.442,-3.379,-5.546,-158.177,-10.502,-10.718,0.287,-1.671,-4.518,-10.132,-4.624,8.223,-8.577,-1.631,-1.143,-9.315,6.207,-57.573,-3.639,-5.335,-12.946,81.045,3.721,-95.657,6.307,-105.05,4
7.868,-0.511,-63.356,-6.923,7.382,14.952,-125.231,-0.757,7.223,17.193,14.724,3.683,9.346,2.553,15.899,4.751,7.08,7.567,7.088,21.57,-40.609,11.221,6.453,11.145,48.689,17.549,-83.266,27.305,-89.576,4
11.959,11.273,-37.678,3.33,27.867,24.671,-92.319,-5.367,16.437,25.373,23.419,11.364,15.484,15.358,30.74,11.919,10.659,14.22,13.228,26.159,-36.982,14.284,7.471,20.356,31.222,29.827,-74.986,44.184,-71.043,4
15.021,7.675,-23.808,5.376,26.302,10.301,-124.502,-5.874,0.027,14.589,10.075,1.619,-0.925,-0.539,27.636,-8.073,-1.647,3.447,-9.839,7.177,-50.777,-4.686,-8.93,-3.231,41.949,12.891,-86.694,28.258,-58.164,4
5.784,4.082,2.344,19.716,17.055,8.754,-156.653,-1.258,-2.534,8.939,2.893,-5.555,-5.022,-12.834,18.387,-14.213,-6.256,-7.315,-17.513,1.023,-51.751,-7.755,-10.97,-1.178,42.419,2.632,-90.193,26.693,-25.318,4
-2.418,11.762,35.129,23.794,14.988,12.844,-123.708,-13.04,5.665,9.442,6.476,1.111,2.155,-3.087,16.319,-6.002,1.435,-3.209,-7.25,9.731,-48.626,0.962,-1.738,14.192,49.037,15.949,-81.906,45.621,7.495,4
6.293,21.996,67.882,17.623,15.486,5.146,-90.797,-19.174,-2.025,7.384,5.958,2.134,0.103,-2.06,19.889,-9.07,0.921,2.429,-6.73,9.721,-53.7,-3.137,-2.248,4.956,76.14,16.446,-80.287,51.724,33.615,4
16.021,35.294,100.602,33.999,21.618,15.387,-122.981,5.436,0.026,14.549,12.099,-1.454,1.64,-8.205,26.529,-9.061,-1.641,1.915,-4.674,9.199,-48.523,0.964,0.828,4.439,90.409,14.892,-76.109,66.529,60.221,4
12.931,53.19,130.215,62.142,28.256,35.864,-100.317,19.775,14.883,25.805,21.821,3.67,8.299,-3.586,27.527,-1.367,0.922,0.888,1.991,14.313,-37.716,14.796,10.049,21.341,84.17,32.296,-65.786,96.176,82.703,4
13.943,64.408,132.134,74.375,26.691,33.267,-67.429,1.824,12.306,24.242,23.336,8.278,9.315,-3.583,29.036,-2.902,1.945,1.4,1.989,18.909,-35.117,11.707,9.526,24.393,69.742,37.387,-62.134,102.228,92.354,4
25.199,61.782,130.977,73.276,27.177,31.184,-99.637,-0.739,7.171,25.243,28.436,11.855,12.892,-9.215,40.278,-1.363,3.993,3.96,6.085,23.501,-30.983,9.134,5.931,23.857,51.741,32.739,-59.511,94.953,105.581,4
24.662,58.646,132.895,69.617,35.859,43.449,-131.813,21.291,20.996,40.074,39.678,22.09,24.662,0.016,44.336,10.934,14.235,16.763,15.813,27.576,-21.219,20.908,13.097,35.104,53.739,45.001,-52.791,98.444,107.013,4
16.44,58.587,113.295,63.4,38.384,45.454,-98.893,19.733,25.586,46.694,42.2,25.654,31.81,19.484,40.194,13.997,24.467,32.116,20.92,31.647,-19.148,25.498,20.256,33.532,74.177,51.616,-52.226,92.71,74.63,4
21.035,48.283,81.418,50.016,31.174,33.626,-66.006,-5.39,11.216,33.84,31.912,15.894,24.606,24.075,40.666,4.249,21.881,28.498,17.313,29.566,-27.326,18.3,14.088,16.08,71.029,36.195,-59.859,71.613,42.28,4
22.551,32.865,60.845,34.085,23.458,25.908,-98.216,-7.946,5.057,23.56,21.634,8.706,11.773,10.219,36.014,-4.464,12.637,13.612,2.439,17.753,-34.471,9.06,1.266,4.793,59.687,21.815,-67.483,58.221,29.943,4
6.646,24.635,44.902,29.952,13.701,23.32,-130.393,11.529,7.613,22.512,16.489,3.574,4.589,-4.136,20.097,-10.607,4.428,5.914,-9.859,6.465,-38.023,-2.22,-6.932,1.202,61.165,12.571,-73.563,51.503,13.007,4
-5.143,13.852,18.217,26.336,0.367,11.002,-126.164,4.346,-3.153,9.169,4.689,-7.188,-5.149,-17.452,6.244,-23.405,-8.897,-4.338,-15.485,-2.251,-44.132,-12.976,-11.536,-5.972,36.513,0.263,-82.199,36.083,-16.208,4
1.01,-2.556,-9.465,7.354,1.391,-2.842,-93.25,-18.2,-12.883,-4.16,-7.098,-13.328,-11.804,-26.144,5.726,-31.578,-16.06,-12.531,-22.129,-7.372,-46.137,-16.037,-16.135,-12.626,14.959,-4.86,-86.728,21.19,-33.61,4
6.644,-6.651,-20.214,-5.973,13.173,3.309,-75.739,-11.01,-0.063,9.164,2.643,-5.118,-1.034,-15.871,16.991,-22.325,-3.236,0.802,-15.447,1.345,-36.87,-9.361,-13.557,-10.564,43.633,-0.244,-81.006,20.656,-40.749,4
-1.047,-5.62,-27.367,-9.553,1.377,5.867,-81.298,-4.851,6.597,15.303,8.788,-3.576,7.164,-2.023,15.949,-16.155,7.525,13.609,-3.136,8.004,-36.321,-4.741,-7.396,-6.455,50.762,0.78,-80.412,17.049,-57.614,4
-4.12,-11.25,-44.758,-17.741,-17.58,-8.483,-113.492,-18.678,-9.803,-4.18,-7.615,-12.794,-5.651,-4.583,0.564,-25.873,1.882,9.497,-10.305,-2.763,-44.481,-11.396,-8.925,-9.01,18.948,-3.831,-88.529,5.761,-79.074,4
12.278,0.032,-52.397,-4.915,1.393,-0.79,-145.654,-10.463,-9.281,-1.615,-2.997,-7.658,-5.645,-3.554,8.76,-23.798,2.393,11.024,-6.197,0.314,-33.166,-8.311,-6.867,-11.563,49.156,2.833,-78.706,19.588,-80.532,4
28.147,24.623,-43.124,24.291,21.371,18.678,-112.721,-6.866,2.511,18.367,19.548,6.694,9.73,2.598,25.145,-7.892,10.587,17.673,15.327,20.294,-15.714,12.19,7.996,-3.866,81.894,22.298,-57.623,45.184,-64.569,4
21.459,23.574,-39.494,19.144,2.907,5.852,-79.82,-36.573,-13.373,6.565,11.844,2.077,-0.014,-4.065,15.386,-10.958,7.503,15.606,11.725,19.249,-20.822,16.788,12.599,9.97,58.246,28.935,-59.102,40.015,-55.283,4
10.167,9.718,-40.479,-1.368,-3.244,-2.351,-112.016,-25.778,-22.581,-4.2,2.61,-4.073,-10.772,2.599,11.785,-17.607,9.545,22.763,3.004,12.057,-24.899,8.575,4.902,16.108,25.912,19.173,-67.24,28.192,-56.765,4
15.28,15.343,-37.877,5.806,18.789,18.656,-144.179,7.035,1.008,16.809,20.026,6.689,10.755,21.04,29.704,-6.831,21.318,31.449,16.321,21.779,-14.628,13.689,6.946,12.505,36.645,18.129,-61.025,38.41,-61.831,4
18.338,12.254,-49.623,0.677,9.036,11.465,-111.247,-19.612,4.593,17.305,14.371,6.17,17.917,9.236,23.014,-7.337,15.662,14.512,10.157,17.146,-21.274,8.04,1.304,2.759,20.727,12.988,-66.6,30.687,-78.163,4
6.025,-12.349,-71.09,-27.5,-15.564,-16.723,-85.521,-51.868,-15.392,-4.742,-7.161,-7.156,-0.032,-5.631,0.45,-22.698,1.814,-3.434,-11.882,-0.289,-35.597,-15.022,-16.628,-8.002,-8.496,-6.493,-83.439,7.09,-104.213,4
6.531,-9.775,-73.58,-23.887,5.457,-2.362,-117.711,-19.54,-1.032,11.145,9.753,1.561,9.702,16.404,11.208,-13.454,13.083,14.501,-2.137,12.006,-18.143,-6.81,-10.464,-7.482,15.079,-1.876,-74.647,14.768,-110.256,4
23.943,14.313,-67.359,1.752,36.19,30.428,-124.253,13.267,29.196,42.384,35.358,20.002,34.283,32.269,36.812,8.588,32.537,38.565,16.821,32.999,3.904,19.325,10.039,3.284,47.852,22.204,-54.08,33.709,-94.777,4
21.357,9.176,-80.612,-3.372,24.37,26.811,-91.341,2.495,20.969,33.12,25.589,13.835,25.027,16.356,36.263,2.944,26.357,30.329,9.632,23.744,-3.272,13.158,5.418,2.256,57.025,18.596,-59.661,21.38,-98.781,4
-0.181,-9.276,-93.851,-18.738,4.366,3.218,-98.422,-22.61,-1.593,8.496,6.608,-4.11,1.436,3.532,18.296,-17.038,8.4,12.368,-0.112,7.839,-14.027,-1.2,-5.858,-9.529,48.771,1.159,-74.97,2.915,-126.859,4
-4.279,-7.73,-90.171,-18.719,4.874,-6.519,-104.471,-24.637,-6.715,2.34,1.479,-9.741,-8.299,4.04,10.593,-21.632,5.318,10.819,-0.624,7.319,-14.525,2.9,-2.266,-11.569,24.644,1.67,-76.432,2.912,-134.416,4
0.848,-12.333,-91.106,-26.385,-1.791,-14.197,-102.83,-30.76,-16.442,-6.884,-7.744,-12.805,-17,-1.087,8.533,-24.172,4.288,9.271,-9.845,-0.373,-22.708,-6.325,-7.899,-9.508,-7.656,-2.43,-78.405,2.909,-121.474,4
-7.35,-34.35,-103.31,-46.851,-16.646,-30.064,-99.653,-53.783,-33.844,-22.246,-22.081,-22.526,-28.766,-15.943,-2.746,-34.906,-5.963,1.577,-24.18,-13.693,-30.369,-23.737,-22.748,-18.72,-26.091,-17.284,-87.548,-8.364,-128.013,4
-10.929,-43.537,-107.305,-55.001,-10.482,-33.108,-105.701,-56.803,-31.248,-19.15,-21.035,-23.016,-25.151,-20.537,-9.404,-35.896,-6.981,4.137,-24.668,-10.605,-24.191,-20.127,-21.188,-29.46,6.723,-17.267,-87.461,-18.09,-143.766,4
-3.745,-34.785,-103.099,-45.725,3.873,-19.755,-137.871,-33.693,-15.336,-6.323,-10.255,-11.21,-9.757,-0.537,3.926,-26.639,7.37,10.793,-16.958,-2.397,-19.044,-14.984,-15.02,-28.406,39.504,-14.688,-81.738,-17.047,-137.987,4
-6.303,-30.139,-101.971,-34.921,0.796,-15.124,-120.315,-32.634,-16.857,-6.829,-9.22,-10.174,-5.136,20.468,12.631,-24.563,16.072,11.807,-14.38,-2.395,-19.025,-21.117,-19.103,-21.717,21.021,-16.211,-83.705,-8.833,-127.091,4
-17.055,-28.06,-103.406,-33.349,-11.501,-22.281,-87.407,-53.094,-23.5,-12.97,-13.31,-18.361,-12.816,16.349,0.323,-26.075,14.519,15.381,-12.829,-0.343,-15.932,-17.509,-17.035,-21.183,-11.275,-10.559,-83.622,-3.701,-137.722,4
-16.526,-22.908,-104.328,-30.242,-12.001,-15.599,-119.595,-42.795,-13.231,-6.297,-7.661,-14.757,-8.704,5.062,-3.776,-21.951,11.431,15.878,-7.18,3.243,-10.281,-8.783,-8.308,-27.822,-1.018,-6.962,-76.366,-3.698,-150.392,4
-3.702,-16.226,-98.588,-22.527,0.306,1.323,-124.086,-16.112,0.103,6.517,1.056,-5.52,3.6,1.983,16.72,-18.343,6.808,6.128,-9.222,1.703,-5.148,-8.774,-9.837,-27.282,-2.042,-8.492,-73.216,-5.231,-138.971,4
2.45,-12.623,-87.731,-24.041,7.99,4.395,-91.174,-16.096,0.103,9.584,1.567,-8.076,1.547,-2.63,24.388,-19.349,2.191,-1.562,-15.361,1.189,-2.581,-9.79,-13.413,-15.984,-34.315,-4.898,-75.704,-7.275,-117.315,4
-14.459,-20.295,-98.402,-37.849,-3.288,-10.978,-103.89,-28.375,-7.582,-1.696,-10.217,-17.29,-12.287,-10.824,1.31,-26.502,-4.984,-6.684,-19.956,-8.546,-8.726,-15.415,-14.425,-20.067,-5.591,-10.528,-81.776,-12.903,-125.395,4
-30.326,-37.693,-125.968,-49.595,-21.728,-28.386,-136.062,-38.593,-18.845,-17.576,-25.064,-25.982,-25.595,-19.522,-17.134,-39.795,-16.762,-15.899,-31.719,-26.468,-18.451,-30.257,-26.705,-46.174,27.202,-29.473,-90.403,-28.259,-157.545,4
-22.099,-44.828,-129.428,-51.082,-24.78,-33.993,-108.261,-50.85,-29.073,-27.292,-29.65,-31.079,-32.741,-23.601,-9.945,-44.879,-17.77,-17.42,-39.372,-27.979,-19.97,-37.911,-36.925,-56.886,-5.101,-35.079,-93.899,-44.625,-163.022,4
-19.003,-40.172,-111.368,-43.346,-18.608,-29.861,-122.498,-48.237,-27.507,-25.216,-25.522,-29.511,-31.172,-17.43,-3.275,-38.686,-6.993,-9.205,-31.648,-19.754,-17.9,-32.238,-30.74,-42.997,-37.371,-29.921,-90.731,-41.506,-142.367,4
-30.255,-41.669,-111.256,-38.692,-21.151,-29.318,-154.651,-40.504,-23.381,-21.604,-28.058,-26.92,-28.067,-10.752,-13.006,-38.135,-8.011,-7.147,-31.104,-23.833,-19.419,-29.644,-27.636,-36.294,-20.94,-33.477,-90.641,-31.731,-142.737,4
-16.904,-45.726,-124.465,-44.289,-22.667,-32.363,-121.708,-50.71,-26.944,-23.12,-31.103,-26.381,-28.551,-11.766,-14.529,-40.146,-13.638,-6.628,-36.196,-24.833,-16.326,-31.664,-30.17,-41.893,-5.037,-34.468,-89.525,-33.749,-154.377,4
2.58,-36.459,-116.656,-44.757,-13.422,-25.671,-148.227,-53.221,-24.355,-16.949,-18.265,-17.645,-18.789,-10.73,2.391,-29.86,-4.916,-0.473,-25.402,-12.001,-6.576,-23.435,-21.943,-34.167,-6.057,-23.163,-80.214,-27.567,-145.002,4
-10.23,-23.102,-95.023,-31.392,-6.749,-12.837,-180.354,-37.798,-13.06,-4.636,-4.414,-6.357,-5.962,-7.133,11.61,-19.071,2.262,1.064,-10.519,-2.767,1.628,-9.067,-11.162,-17.227,15.466,-10.332,-71.425,-11.658,-127.438,4
-20.466,-21.03,-89.804,-23.676,-11.353,-15.386,-147.386,-44.421,-14.071,-3.607,-7.484,-6.862,-6.468,-6.101,4.426,-20.077,-0.814,0.038,-12.558,-4.814,-0.936,-9.57,-11.663,-17.722,42.091,-9.297,-70.329,-15.745,-118.601,4
-8.662,-26.644,-93.813,-26.726,-18.002,-25.104,-114.451,-62.307,-26.865,-12.825,-14.648,-14.54,-14.147,-4.558,-1.726,-24.668,-2.863,2.6,-18.181,-10.444,-8.619,-17.245,-13.189,-27.438,43.073,-15.435,-72.308,-27,-110.798,4
-5.58,-21.494,-82.961,-21.576,-19.008,-18.932,-146.611,-50.462,-24.277,-10.763,-11.048,-16.575,-15.669,-3.017,-1.724,-23.618,-1.835,5.671,-13.552,-8.897,-2.975,-10.056,-7.028,-17.676,24.587,-12.858,-69.162,-11.604,-108.638,4
-8.648,-4.567,-63.41,-5.161,-11.817,-3.031,-114.702,-25.82,-5.297,0.006,-4.376,-11.435,-10.018,-5.063,1.352,-18.984,1.24,7.715,-6.366,1.358,7.786,-0.824,-0.361,-1.777,17.39,-2.087,-61.408,9.925,-110.066,4
-0.955,0.561,-61.298,5.09,-5.657,1.583,-81.799,-20.159,3.418,3.08,-5.397,-12.448,-6.934,-6.083,3.912,-20.502,2.776,7.195,-9.946,0.844,4.192,-6.971,-3.434,-7.923,32.23,-2.597,-61.346,5.817,-103.809,4
2.12,-13.784,-79.679,-4.136,-8.213,-0.98,-113.993,-20.139,-3.758,-1.534,-10.002,-17.559,-11.538,-9.15,0.322,-28.166,-5.936,-1.522,-20.694,-11.964,-2.984,-15.161,-14.701,-20.211,21.439,-13.353,-68.457,-11.095,-102.68,4
-3.005,-20.943,-91.895,-14.891,-13.328,1.07,-133.347,-12.947,-2.218,1.029,-11.017,-13.955,-9.99,-10.166,-5.314,-26.601,-6.442,-5.619,-23.235,-11.952,-1.444,-13.609,-16.224,-16.092,-8.296,-14.877,-69.926,-14.67,-116.41,4
-7.101,-14.774,-83.606,-9.753,-16.389,2.606,-100.426,-13.446,7.519,8.2,-7.932,-8.818,0.266,-0.934,-5.309,-19.402,6.884,4.633,-15.015,-3.743,-1.443,-12.571,-9.035,-10.44,16.303,-12.3,-67.294,-6.971,-119.88,4
-10.68,-10.661,-71.739,-1.034,-18.421,-2.52,-82.394,-23.166,2.388,5.118,-7.924,-12.908,1.803,6.751,-2.742,-23.481,6.365,10.776,-13.975,-7.326,-2.466,-13.583,-9.538,-17.09,49.074,-17.923,-67.739,-3.89,-106.952,4
-2.984,-6.04,-72.18,-3.082,-14.305,-5.591,-114.587,-32.877,-7.861,-3.596,-9.965,-15.457,-7.933,-2.989,0.847,-26.531,-4.4,4.105,-19.085,-8.855,1.635,-11.008,-11.578,-18.61,32.119,-18.418,-64.085,-1.837,-106.845,4
9.314,3.188,-75.694,-0.005,-2.507,1.587,-130.867,-32.844,-2.217,5.117,-0.734,-6.22,-5.363,-9.134,6.994,-13.697,2.264,2.564,-8.307,3.449,6.244,-2.287,-1.32,-2.71,13.131,-3.03,-53.263,8.411,-107.763,4
9.817,8.82,-64.86,10.753,4.668,14.905,-149.179,-22.053,5.469,21.506,13.612,3.52,8.987,6.757,16.721,-2.925,16.607,15.882,8.607,15.229,14.435,8.473,9.952,10.613,41.295,11.317,-46.037,16.087,-82.04,4
4.172,4.713,-53.524,7.669,1.077,11.816,-161.837,-24.08,-4.27,15.336,10.012,-0.069,6.416,15.459,22.339,-7.533,16.59,25.087,5.013,16.238,20.568,10.514,7.893,8.553,38.692,9.257,-47.016,12.485,-66.588,4
0.069,-3.489,-66.278,-6.171,-4.56,-9.2,-128.888,-47.11,-19.123,-3.122,-4.343,-8.266,-7.935,3.148,16.682,-10.599,10.938,19.427,-4.726,11.611,13.887,5.381,6.348,7.52,11.501,3.612,-49.53,10.423,-87.526,4
-2.493,0.101,-79.02,-6.165,-4.043,-8.679,-95.971,-46.55,-13.468,0.467,1.297,-2.622,-3.316,7.244,15.128,-0.855,16.05,20.945,8.086,16.722,15.923,14.084,14.538,13.148,40.179,10.781,-42.821,20.146,-96.148,4
7.244,13.933,-63.572,5.624,3.134,17.458,-128.151,-19.351,10.624,20.959,18.202,10.7,13.081,30.29,26.384,11.954,28.842,37.83,24.472,30.026,30.251,28.415,20.671,15.184,70.877,22.041,-34.069,29.348,-84.781,4
16.97,12.382,-52.237,6.643,13.377,22.051,-149.027,-16.258,16.761,28.11,20.233,11.202,13.58,28.723,31.48,11.429,29.838,38.304,17.275,26.409,28.684,22.239,17.065,14.144,44.167,20.482,-37.109,27.782,-93.918,4
10.293,-0.438,-66.53,-4.634,21.048,7.172,-116.09,-31.099,3.424,18.861,13.553,4.531,7.931,7.178,24.789,1.172,18.537,19.823,2.913,11.526,17.897,8.897,11.412,13.618,33.876,12.265,-43.219,18.532,-97.923,4
5.16,2.636,-75.685,-9.753,16.928,8.189,-90.359,-26.457,3.421,14.744,10.978,5.551,9.46,7.683,19.129,0.146,13.908,15.705,3.935,13.052,18.904,11.449,7.815,6.944,58.433,9.178,-43.688,8.268,-77.845,4
7.204,11.855,-74.072,-0.009,9.739,15.866,-122.544,-16.697,16.225,20.364,12.503,9.644,14.574,21.507,19.622,4.757,21.066,23.373,11.103,21.235,18.885,16.049,7.807,2.839,39.932,11.219,-43.132,8.259,-80.841,4
7.197,13.893,-72.461,12.286,15.877,16.362,-154.697,-10.02,18.258,25.467,16.077,9.122,20.707,25.072,25.238,4.752,27.705,22.325,12.629,21.214,16.304,16.545,11.897,10.52,7.616,15.306,-38.991,17.985,-101.764,4
8.214,16.44,-63.167,11.25,18.935,15.834,-140.71,-3.35,13.629,21.343,14.012,7.576,19.662,21.461,28.286,4.747,26.141,23.328,11.592,22.218,16.8,18.577,11.886,11.535,13.756,16.827,-36.39,20.016,-97.564,4
2.571,15.912,-57.981,8.164,9.694,9.67,-107.781,-11.544,10.029,14.149,9.387,5.519,10.421,20.415,24.16,6.279,25.602,32.526,10.556,20.658,14.734,13.948,4.701,-8.457,46.53,9.126,-41.477,10.775,-88.757,4
-2.043,13.334,-63.558,18.402,15.32,9.66,-74.886,-19.217,12.581,19.771,17.575,10.124,15.533,27.054,28.746,7.81,34.798,36.08,14.644,20.638,16.257,11.885,5.721,-15.621,65.951,8.092,-39.898,9.739,-90.718,4
11.279,19.469,-61.958,24.019,27.6,26.045,-78.91,-6.902,18.716,32.046,28.828,17.286,27.301,33.687,38.964,15.487,40.399,33.482,21.801,30.351,21.363,24.168,18.011,9.498,33.61,20.379,-31.149,18.439,-86.016,4
16.391,20.474,-56.26,10.163,14.765,31.654,-111.106,-4.334,16.648,30.477,23.676,12.658,21.126,23.92,30.215,18.033,27.038,27.813,16.656,26.734,17.244,26.193,21.067,21.271,16.67,23.945,-32.143,22.006,-82.344,4
-4.117,9.695,-59.278,3.493,0.406,22.913,-132.512,-13.039,8.947,23.787,14.943,4.961,11.883,11.6,14.816,8.793,14.204,20.101,7.418,12.363,11.079,14.384,12.336,2.807,29.974,14.7,-36.721,16.349,-88.41,4
-9.236,6.099,-64.342,15.272,8.602,25.964,-126.232,-2.779,15.085,29.398,19.026,9.567,19.044,16.712,24.023,8.785,18.8,18.031,9.46,17.474,11.068,11.808,8.226,-5.393,9.451,11.611,-35.66,5.062,-94.981,4
10.753,11.728,-63.765,15.77,14.741,37.209,-158.381,16.179,28.903,39.103,28.741,17.242,25.684,19.257,40.393,16.973,20.831,19.55,14.574,27.19,12.593,17.432,10.779,1.785,-6.44,14.673,-33.575,1.983,-105.132,4
16.377,12.741,-59.091,7.557,14.726,36.147,-158.735,17.7,26.825,37.527,28.2,15.688,22.585,8.479,35.741,16.956,13.637,15.945,11.485,21.015,13.605,17.927,11.281,-1.291,26.355,14.659,-31.492,11.202,-106.564,4
6.627,9.655,-63.642,10.111,17.786,22.791,-125.788,-2.298,11.941,26.218,16.389,9.524,16.415,6.934,20.336,12.328,9.525,12.342,5.838,17.92,7.956,14.835,7.683,-6.925,39.136,11.57,-32.486,7.605,-94.674,4
7.645,2.473,-77.923,6.515,15.719,9.96,-99.023,-22.276,5.269,16.971,11.762,7.465,13.837,19.222,21.853,12.316,11.053,16.941,5.32,18.415,-1.785,11.746,4.089,-1.282,6.821,10.534,-37.576,-3.161,-96.629,4
12.248,-2.141,-79.895,-3.226,13.654,14.049,-118.903,-18.155,16.534,22.589,19.947,10.532,18.434,23.301,35.151,15.889,13.603,22.047,9.413,15.323,-1.271,11.735,5.622,3.842,-16.752,13.597,-34.977,1.453,-108.828,4
-2.108,-4.7,-76.228,-3.735,6.98,20.183,-85.997,-11.477,21.641,27.69,16.341,7.96,21.489,17.13,27.431,15.361,13.59,16.902,7.355,14.795,-2.807,9.674,3.567,-5.383,16.053,8.973,-33.405,-2.135,-108.207,4
-17.476,-15.966,-86.911,-14.49,-12.495,4.281,-62.345,-29.396,7.787,13.317,1.98,-1.782,9.684,13.015,6.912,6.637,9.99,9.713,-3.923,9.657,-15.1,0.955,-5.658,-18.698,39.603,-3.844,-45.155,-19.039,-108.098,4
-1.577,-18.512,-91.435,-24.721,-10.945,-4.433,-94.558,-28.855,4.193,9.718,3.515,0.269,5.064,12.489,12.54,4.069,12.541,12.777,-5.969,5.549,-16.109,-1.096,-5.652,-15.605,41.613,-2.303,-44.597,-13.897,-109.527,4
16.356,-1.075,-82.634,-6.253,14.681,16.064,-126.739,3.45,21.607,27.639,15.807,8.466,17.354,10.428,29.434,12.774,18.164,18.399,3.771,13.228,-4.822,8.127,4.087,0.804,26.202,9.995,-30.208,2.511,-103.27,4
4.556,4.049,-81.527,7.073,13.642,27.831,-132.76,10.619,26.709,33.759,18.352,6.408,21.435,6.831,23.769,16.859,16.609,16.844,6.329,17.313,-3.28,11.705,5.108,2.34,6.708,8.96,-31.715,0.972,-103.167,4
-2.621,-4.664,-78.371,-2.668,-3.79,21.143,-122.381,-8.86,16.948,23.991,13.723,4.352,14.242,7.336,15.548,12.744,14.543,17.852,0.175,13.197,-11.986,5.546,-0.533,-8.933,20.021,1.267,-39.88,-4.665,-105.625,4
9.165,-6.708,-75.731,-4.202,-3.787,14.462,-89.471,-15.511,11.296,16.795,7.562,3.323,7.055,9.378,15.02,8.633,12.48,16.297,-5.973,10.11,-21.196,-2.144,-8.217,-9.949,33.321,-3.858,-39.328,-9.783,-105.52,4
1.984,-15.411,-90.513,-7.784,-6.857,0.615,-56.593,-21.131,4.625,6.532,-1.667,-8.463,-3.198,1.172,3.222,2.477,0.172,3.985,-14.164,1.903,-25.273,-8.802,-16.918,-10.963,9.722,-11.026,-45.436,-18.995,-118.734,4
-7.752,-20.519,-91.959,-20.072,-14.534,-6.045,-69.345,-27.77,0.009,3.964,-1.666,-13.065,-7.293,-5.489,-0.879,2.474,-2.902,3.469,-13.125,1.389,-19.613,-4.695,-11.265,-14.026,-5.145,-6.917,-46.415,-11.803,-120.664,4
12.236,1.531,-65.227,-4.17,-0.688,18.039,-101.551,-7.762,16.403,23.94,14.73,4.366,6.546,5.787,16.54,16.304,10.421,20.372,3.794,17.269,-9.859,10.679,8.213,3.406,-0.017,12.046,-27.926,8.701,-91.342,4
27.08,20.485,-50.305,25.035,15.195,39.538,-132.7,22.472,35.854,40.31,27.011,17.169,21.397,15.515,28.819,24.997,16.046,23.425,14.549,25.449,-3.189,22.451,16.915,23.383,12.791,24.841,-17.652,24.061,-76.394,4
14.246,13.804,-54.865,21.424,11.081,34.888,-140.252,23.474,31.208,34.634,20.324,9.98,19.838,8.327,24.179,21.898,10.906,14.18,8.387,17.227,-4.723,18.843,11.775,15.163,45.566,20.718,-25.319,29.673,-92.711,4
4.497,7.643,-61.47,0.91,-0.201,24.094,-107.324,-0.628,16.32,21.792,9.545,2.285,9.572,4.221,16.47,17.265,6.797,16.728,1.206,12.086,-14.964,7.041,6.127,-5.857,78.308,7.89,-31.441,17.86,-100.303,4
7.054,4.049,-63.458,0.91,-1.225,17.923,-79.552,-11.898,14.254,19.721,8.511,3.82,7.001,11.901,14.917,16.736,7.815,21.834,0.692,13.099,-20.585,3.448,4.072,-8.413,45.954,0.709,-33.971,0.423,-90.469,4
6.023,0.459,-48.538,13.204,7.485,20.466,-111.748,3.996,20.9,24.312,12.088,6.378,14.167,9.84,21.05,17.744,12.418,17.714,0.692,12.573,-15.441,6.518,3.556,2.354,13.633,4.295,-33.425,-1.114,-77.571,4
-0.131,1.483,-32.608,12.678,7.99,24.032,-86.533,9.627,21.903,21.214,8.49,0.736,10.566,0.608,20.516,13.115,9.844,13.598,-3.408,7.95,-17.475,1.901,-0.546,1.839,27.964,2.754,-34.416,-0.088,-71.858,4
-3.205,-2.617,-42.821,-0.654,-5.338,10.176,-53.659,-18.047,13.172,11.459,-2.789,-6.437,-3.277,2.145,7.176,3.368,1.637,9.485,-9.552,-0.767,-26.167,-4.249,-5.669,-8.409,60.724,-5.446,-41.554,-6.748,-83.569,4
1.922,-5.688,-52.512,-2.703,-9.943,2.993,-85.88,-20.078,11.622,11.96,-5.86,-4.381,-0.712,5.217,4.607,3.877,5.222,4.865,-8.005,-2.816,-24.091,-1.171,-1.052,-2.765,59.638,-1.342,-42.025,-0.081,-93.22,4
3.457,6.101,-40.164,11.645,-2.249,21.946,-118.07,12.729,24.418,23.218,4.392,0.746,10.047,-2.986,12.287,13.095,11.876,11.008,-4.411,3.847,-20.993,1.904,5.609,9.021,49.332,7.368,-36.86,10.677,-79.806,4
-7.305,8.144,-36.538,13.17,-0.197,27.047,-85.164,12.204,23.882,22.683,7.974,-2.328,3.377,-3.495,12.787,13.594,9.303,19.194,-7.993,4.356,-25.583,-0.659,-0.032,3.377,63.115,4.287,-41.434,9.13,-71.53,4
-10.372,-5.184,-43.674,-1.7,3.901,6.527,-52.291,-20.083,6.439,11.902,-0.231,-5.912,-3.286,10.341,11.75,6.92,11.343,17.638,-8.497,-0.259,-24.533,-3.732,-6.692,-1.238,58.442,1.721,-45.491,10.145,-85.29,4
3.471,-2.105,-41.581,-2.211,12.607,9.082,-84.514,-14.94,8.994,14.964,1.818,-1.296,5.939,15.966,15.836,11.012,19.016,19.669,-0.804,5.376,-20.41,-0.655,0.999,13.108,40.452,8.38,-37.761,15.77,-92.89,4
9.615,9.68,-42.052,12.136,8.496,31.102,-116.705,17.862,29.99,29.293,14.624,5.366,13.617,12.876,17.87,22.272,22.583,26.31,1.246,14.08,-19.365,9.08,6.121,15.657,46.047,14.007,-29.526,12.681,-86.137,4
-4.739,2.498,-53.28,8.025,0.802,21.85,-83.801,11.697,28.423,25.678,12.048,2.286,10.53,10.302,17.34,18.151,17.95,15.525,-6.44,6.894,-21.395,7.021,-6.693,-3.314,41.903,8.357,-33.595,4.983,-90.662,4
-17.03,-8.263,-58.35,-8.889,5.412,-0.201,-50.929,-20.59,12.513,10.795,-0.772,-7.45,5.909,0.558,15.273,5.325,3.587,-2.421,-14.63,-4.896,-28.033,-10.916,-16.932,-14.582,14.196,-2.41,-41.758,-4.755,-102.354,4
-9.328,-1.082,-52.144,-3.245,10.53,13.631,-83.154,-12.373,19.161,20.006,3.84,-1.807,11.026,-6.615,16.282,10.443,1.022,0.655,-14.103,2.281,-25.956,-9.369,-9.231,-7.907,20.33,0.154,-38.643,-6.8,-93.542,4
7.075,12.751,-40.821,17.763,7.958,40.77,-115.346,20.427,36.56,39.966,18.693,11.003,23.31,6.711,18.315,23.752,17.927,12.95,-5.38,14.574,-11.586,6.522,-2.049,-2.264,52.072,10.913,-29.382,8.064,-80.641,4
5.019,12.738,-40.268,19.282,7.438,34.581,-82.443,18.358,32.937,34.803,17.649,6.893,23.799,23.611,16.248,22.704,25.594,14.986,-4.862,9.949,-9.525,1.905,-4.096,-3.286,49.971,9.877,-30.89,14.716,-95.417,4
-5.745,6.065,-49.449,9.017,8.967,19.69,-79.287,-1.641,23.683,24.01,10.459,-0.798,12.505,21.538,18.281,18.071,16.859,18.045,-8.956,5.328,-17.712,-3.22,-5.117,-2.258,41.212,5.257,-34.445,4.967,-103.007,4
0.409,8.621,-48.888,10.545,2.298,23.769,-111.483,8.607,25.196,26.035,9.424,3.813,9.418,9.733,23.898,19.077,15.818,21.613,-2.287,9.933,-15.133,7.542,-0.501,-0.719,57.565,10.374,-29.8,2.401,-83.948,4
3.994,8.612,-41.666,9.51,-5.901,19.647,-78.584,9.623,18.511,20.373,4.804,0.223,8.897,2.039,13.116,14.447,13.24,11.857,-2.285,4.8,-16.142,4.46,1.036,-1.231,52.384,8.827,-31.307,2.398,-86.938,4
-9.842,-2.667,-43.674,-3.82,-4.358,5.282,-45.717,-21.125,8.246,12.156,-2.373,-11.048,1.715,-1.037,1.319,8.797,4.518,2.112,-14.578,-4.426,-23.811,-7.327,-4.6,1.332,20.056,-1.94,-39.473,-5.289,-104.27,4
-8.807,-3.689,-44.655,-2.791,1.794,13.474,-77.947,-14.444,16.435,20.853,2.24,-6.426,3.251,-2.061,9.515,9.813,8.1,7.745,-12.002,-0.323,-21.225,-5.271,-8.694,3.892,12.352,-1.426,-37.384,-1.185,-90.845,4
5.034,8.098,-37.438,10.019,4.354,26.268,-110.144,18.358,25.128,24.419,7.873,0.241,8.883,-1.546,18.215,10.316,15.264,12.348,-2.768,2.239,-17.106,-0.655,-2.025,1.327,33.856,7.797,-30.687,11.112,-79.996,4
-3.681,5.016,-46.622,3.349,-0.774,10.873,-77.247,-3.177,12.807,11.586,-0.844,-7.444,1.189,-0.52,11.537,3.645,9.101,1.577,-13.012,-5.448,-22.212,-6.802,-3.56,-5.847,48.167,2.666,-34.242,5.977,-97.334,4
-21.095,-13.432,-66.043,-17.659,-13.068,-5.532,-44.382,-35.449,-1.038,1.329,-11.601,-14.097,-9.058,-1.544,-1.283,-4.555,1.407,-11.232,-26.831,-10.053,-27.313,-17.041,-20.463,-19.161,35.823,-11.169,-42.917,-14.521,-99.799,4
-10.316,-12.907,-54.194,-17.129,-15.617,7.281,-76.613,-12.36,8.697,10.549,-2.368,-7.423,1.197,-2.055,-0.257,0.06,3.967,-6.61,-19.632,-3.383,-23.699,-10.364,-17.881,-18.117,8.123,-7.572,-39.288,-17.58,-83.305,4
10.187,7.086,-21.864,5.942,-2.281,30.328,-108.811,20.44,31.23,34.105,19.151,5.905,24.25,5.632,19.211,21.065,16.259,11.84,1.392,11.477,-7.794,13.213,4.166,7.516,14.262,13.953,-23.367,6.004,-81.173,4
5.566,13.227,-26.966,11.059,3.356,29.785,-75.915,8.124,30.174,38.681,20.157,9.485,24.738,13.823,24.315,26.167,20.853,15.414,6.514,16.076,-3.175,14.224,3.65,12.12,47.036,17.525,-19.245,16.756,-90.313,4
-3.149,3.48,-57.677,-4.321,-1.77,10.8,-67.642,-21.085,6.065,14.564,1.693,-0.258,1.147,7.662,9.946,8.21,7,0.542,-9.886,4.277,-19.054,-6.795,-12.235,-10.434,42.378,1.114,-30.497,2.907,-97.907,4
11.199,2.964,-54.033,-0.218,2.843,6.691,-93.702,-19.527,2.985,7.377,0.155,-2.82,-2.44,3.043,13.01,5.64,4.944,-0.483,-11.926,0.174,-20.572,-4.739,-8.125,-5.301,10.06,-0.424,-30.979,2.904,-91.149,4
15.286,5.523,-36.049,11.053,3.864,12.832,-70.555,-7.725,17.327,19.153,9.376,2.306,11.394,8.675,17.095,15.881,21.333,13.862,0.382,5.297,-6.719,5,0.593,5.975,32.079,7.773,-25.825,9.561,-72.615,4
-5.734,-1.655,-45.234,-1.254,-8.435,9.745,-102.759,-7.205,12.186,16.572,2.194,-0.258,5.235,10.204,2.734,10.229,21.824,17.946,-5.766,2.218,-12.86,-6.276,-7.605,-11.961,58.687,-1.456,-33.483,-4.793,-74.592,4
-2.142,4.494,-44.164,-0.74,-7.402,17.42,-134.932,2.536,12.174,19.629,4.241,2.304,2.156,8.657,9.391,10.219,17.191,15.367,-5.761,6.314,-16.945,-1.147,-6.572,-3.752,26.353,1.619,-28.327,-0.177,-86.3,4
22.963,26.007,-23.115,22.314,4.901,35.333,-102.009,17.903,30.093,35.491,21.656,11.011,20.085,11.722,29.362,23.529,32.543,16.888,14.737,19.628,-1.047,20.371,11.365,29.039,0.712,26.208,-8.831,29.024,-73.406,4
10.645,20.345,-29.752,14.608,4.896,21.466,-69.12,-1.07,18.28,20.599,11.9,1.266,12.892,8.124,14.475,15.821,32.511,7.65,4.989,9.362,-5.657,8.568,3.669,13.641,33.499,14.911,-20.093,22.848,-67.697,4
-14.469,-10.926,-55.338,-14.609,-3.818,-9.807,-101.326,-33.344,-12.477,-8.111,-15.776,-16.154,-17.347,-3.667,-8.593,-5.2,8.912,-6.702,-27.291,-14.726,-29.217,-23.716,-28.61,-18.648,56.519,-17.379,-47.225,-9.451,-89.659,4
-3.696,-16.55,-56.82,-17.668,-9.962,-8.772,-129.402,-30.237,-7.854,-1.443,-15.761,-15.113,-17.329,-6.737,-2.949,-7.756,5.317,-4.134,-31.363,-14.711,-27.651,-26.766,-33.192,-18.117,24.187,-17.362,-43.079,-15.077,-97.766,4
3.48,1.909,-46.004,-4.842,-9.952,11.729,-145.154,2.581,12.646,14.953,0.649,-5.364,0.619,-0.071,9.349,3.01,18.119,4.067,-11.351,0.673,-13.279,-8.296,-7.031,7.004,-2.477,6.734,-28.692,-2.766,-86.398,4
-15.479,4.981,-45.958,-2.788,-6.356,10.692,-161.915,9.75,10.584,11.351,-0.889,-6.383,-1.431,5.565,5.754,6.081,17.076,5.6,-6.729,-0.352,-15.315,-4.19,-2.414,8.021,30.313,5.703,-34.298,0.31,-88.873,4
-16.488,-3.221,-46.425,-10.983,-13.01,-1.614,-128.965,-11.776,0.84,3.655,-11.134,-13.549,-10.651,2.485,-5.01,-2.634,10.399,2.008,-14.407,-12.647,-24.521,-15.968,-15.731,-6.331,57.947,-8.135,-41.436,-0.714,-94.419,4
2.996,2.93,-37.157,-15.582,-14.021,0.437,-96.048,-23.035,4.425,5.701,-7.024,-10.462,-6.03,0.434,-1.419,-5.193,12.951,4.055,-13.88,-10.073,-22.959,-15.44,-10.592,-3.251,25.614,-5.053,-36.272,2.36,-76.906,4
5.555,16.76,-28.41,-1.222,7.51,18.368,-128.228,-4.569,16.716,17.991,5.278,-0.205,6.784,11.192,18.05,7.62,23.184,18.908,-1.059,3.769,-12.69,1.481,3.763,14.683,19.953,10.833,-27.014,12.604,-56.85,4
-4.697,19.817,-33.505,11.587,13.65,26.546,-160.375,16.44,18.237,25.657,8.347,-1.229,6.777,11.693,17.519,11.71,25.21,22.475,4.578,4.278,-10.628,4.042,3.759,16.205,49.647,18.507,-22.888,16.69,-70.625,4
-4.692,8.526,-49.865,-2.769,-8.905,11.663,-164.825,6.177,2.849,10.262,0.141,-13.011,-8.087,-11.373,-2.99,-3.67,6.741,0.424,-10.796,-7.509,-20.352,-8.77,-7.515,3.381,32.691,8.755,-30.038,6.939,-97.194,4
-5.712,-1.216,-51.352,-15.062,-12.483,-0.132,-131.873,-16.883,-4.326,-2.556,-4.469,-15.56,-15.763,-21.608,-2.475,-9.814,-4.024,-9.311,-19.495,-10.576,-24.43,-10.298,-14.68,1.329,0.383,0.549,-36.668,2.834,-92.999,4
-16.465,0.834,-38.493,-6.338,2.387,7.04,-98.953,-18.915,2.851,7.693,3.22,-8.372,-7.038,-4.68,11.36,-2.12,12.374,5.043,-6.667,-4.417,-18.77,-2.091,-10.567,9.012,21.387,8.233,-33.045,6.929,-68.827,4
-14.911,8.518,-33.332,1.866,-2.226,13.181,-99.367,-10.699,6.946,14.345,7.827,-7.339,-1.396,6.083,9.299,-2.63,18.509,6.575,-1.025,-0.827,-16.702,0.472,-1.335,14.126,34.686,14.885,-28.401,4.873,-64.148,4
0.985,13.12,-34.323,5.45,-5.81,10.606,-131.543,-1.979,11.038,10.745,3.209,-9.893,-2.419,-2.12,6.216,-4.165,6.196,-2.653,-6.147,-0.314,-13.611,0.472,-1.846,13.087,7.499,13.333,-29.397,8.455,-76.891,4
3.546,10.033,-34.801,4.932,6.491,13.669,-160.613,7.757,16.15,12.271,1.156,-9.371,-2.416,-8.778,9.284,-0.062,6.189,-1.626,-8.703,-1.85,-6.938,-2.09,-10.041,1.291,21.836,9.734,-27.319,13.569,-80.913,4
-7.216,5.412,-36.303,2.878,10.583,16.73,-163.013,5.187,11.01,13.284,6.79,-3.726,-1.389,-4.67,10.299,-0.062,11.306,-0.599,-9.206,-0.312,-3.857,-1.576,-7.982,-2.296,54.602,8.187,-23.705,9.457,-72.123,4
-6.185,12.067,-32.168,16.195,6.986,16.713,-154.141,-1.478,12.536,16.344,10.37,0.888,3.223,4.556,16.949,1.987,9.246,1.963,-3.562,5.324,-1.291,7.648,3.809,15.125,43.789,15.351,-19.583,9.448,-63.854,4
-2.08,15.641,-29.062,21.814,3.905,18.233,-142.716,1.085,20.721,20.426,6.773,-2.699,5.781,1.99,17.956,2.498,8.724,5.547,-2.534,1.733,-4.364,6.103,5.342,22.282,14.543,19.434,-18.027,7.901,-65.327,4
-9.25,-0.768,-42.866,0.275,-6.857,11.555,-154.357,-1.99,9.429,11.184,0.106,-10.381,-6.52,-14.406,4.106,-9.288,1.031,-5.217,-18.925,-11.589,-17.167,-8.248,-6.958,5.866,11.455,3.021,-27.742,-9.013,-76.532,4
-7.704,-6.403,-51.532,-3.823,-9.924,6.933,-183.404,-3.012,2.248,6.562,0.106,-7.809,-12.149,-17.465,3.077,-12.352,-3.069,-9.823,-20.443,-12.09,-19.199,-7.215,-7.464,3.298,12.98,-3.13,-31.813,-7.979,-87.214,4
6.136,10.51,-36.111,14.624,5.455,20.246,-166.827,8.261,19.151,19.363,9.328,2.958,2.72,0.995,17.931,0.98,15.89,8.63,0.582,2.779,-3.811,10.723,8.938,16.103,24.238,15.829,-16.412,13.546,-84.565,4
7.667,12.036,-27.366,7.949,11.085,25.348,-133.872,1.593,20.669,19.344,14.442,3.467,4.767,9.191,17.401,0.979,23.559,13.745,4.68,7.387,-0.733,12.249,9.953,11.476,47.78,19.399,-11.273,13.02,-73.21,4
-2.075,0.753,-40.658,-1.793,-0.197,8.929,-124.517,-18.388,2.718,6.005,5.206,-4.733,-9.583,-3.114,6.625,-11.317,9.19,-1.126,-9.669,-2.354,-9.954,-0.571,-4.914,1.218,36.462,4.523,-22.532,0.199,-74.161,4
-6.683,6.9,-46.253,16.14,-5.32,6.871,-156.668,-7.099,6.301,8.048,-0.435,-5.753,-7.524,-9.258,5.594,-7.72,8.157,-2.149,-11.197,-3.376,-9.944,-1.595,-5.421,7.877,4.15,7.592,-22.51,4.81,-80.235,4
-5.14,14.578,-32.375,26.882,-0.191,23.258,-177.003,18.011,20.64,20.335,6.738,-2.161,4.267,-1.564,7.637,0.485,16.345,7.587,-2.988,5.849,-4.299,8.141,6.367,16.578,-7.125,17.318,-14.29,9.928,-66.835,4
-0.012,11.489,-20.559,18.658,5.957,25.796,-144.039,12.87,23.693,24.926,13.903,-0.622,7.336,-1.05,12.241,-1.565,12.231,7.579,-0.936,8.404,-3.782,12.231,9.435,14.512,25.67,15.764,-14.276,4.795,-45.251,4
3.575,15.576,-17.977,18.64,12.098,19.111,-111.107,-3.025,23.669,22.339,15.426,2.964,8.353,-9.246,21.45,-1.563,11.194,2.448,-3.497,5.834,-2.242,11.194,8.913,12.961,58.432,15.748,-14.262,5.815,-46.743,4
4.083,20.684,-17.959,25.793,13.623,19.604,-143.271,-3.534,18.522,18.731,15.411,6.548,8.345,-4.114,21.428,1.512,18.355,2.958,-3.493,7.878,4.421,11.695,9.417,14.997,29.172,20.343,-8.612,17.08,-61.04,4
9.202,19.639,-20.503,25.768,8.999,18.047,-175.403,-2.506,10.307,17.175,14.371,2.443,2.701,8.698,17.821,-2.076,20.386,8.591,-0.416,9.919,3.392,10.147,5.821,13.958,-3.133,20.835,-7.066,22.698,-63.029,4
14.316,20.644,-29.191,18.057,2.842,12.906,-183.425,-5.065,10.297,15.109,11.283,-3.708,1.162,2.029,20.365,-5.66,18.316,12.68,-1.952,6.323,-4.809,5.526,5.303,10.87,5.067,17.228,-11.158,14.991,-58.355,4
5.593,19.086,-32.748,11.891,-3.821,16.479,-204.758,0.576,11.823,11.507,8.71,-4.216,2.698,-9.756,14.197,-2.58,18.81,9.082,-5.537,5.292,-4.292,5.52,9.396,14.445,18.894,14.137,-15.245,8.828,-62.395,4
-0.048,15.481,-19.908,20.589,-5.866,23.123,-211.726,8.772,14.373,15.082,11.263,-0.626,5.256,2.549,6.498,-0.016,24.427,9.585,1.641,8.873,3.397,9.101,9.387,23.14,11.703,15.148,-13.181,17.529,-64.382,4
11.735,19.564,-5.543,32.351,1.824,24.637,-178.726,11.325,24.605,24.289,16.374,2.961,11.911,20.99,16.737,2.033,29.013,18.284,5.738,9.889,3.906,9.092,7.84,20.043,33.721,19.743,-10.094,21.609,-54.071,4
18.383,15.958,-18.346,28.733,6.946,22.563,-153.957,5.166,20.482,18.629,12.772,0.909,9.85,13.796,20.307,-0.53,22.324,16.217,-6.563,5.268,0.316,4.984,8.857,7.727,41.884,14.088,-14.182,10.829,-52.48,4
5.045,2.622,-44.967,18.97,-1.258,15.88,-164.049,-5.086,4.067,4.778,2.513,-7.289,-2.968,-1.074,4.405,-9.751,12.568,0.831,-13.217,-0.885,1.341,2.418,6.287,6.183,9.567,6.39,-19.291,5.695,-67.797,4
-2.645,6.206,-42.873,16.39,-7.405,12.791,-155.176,-4.056,10.211,10.409,3.535,-8.306,-1.94,2.001,0.302,-10.254,13.58,1.343,-4.494,-0.372,2.364,2.415,3.207,13.349,2.385,12.018,-14.149,11.325,-68.754,4
5.555,18.495,-17.215,17.398,0.287,21.999,-147.336,10.805,26.595,21.669,11.728,-2.15,9.845,6.609,14.646,-2.047,19.202,14.149,-3.977,4.752,0.825,3.437,3.716,15.897,35.17,18.154,-9.524,12.851,-49.73,4
2.987,10.792,-15.148,17.893,-0.225,24.027,-168.706,7.72,18.371,13.963,6.594,-6.247,0.614,-5.18,13.095,-8.192,13.035,7.475,-17.806,-1.401,-2.25,-6.3,-1.923,5.635,33.598,4.816,-19.76,6.178,-58.389,4
-15.459,-6.638,-41.261,12.239,-15.594,9.658,-160.852,-14.316,-0.09,-1.421,-8.782,-15.974,-18.342,-15.934,-4.337,-19.455,1.751,-7.902,-25.985,-12.158,-6.859,-21.15,-12.168,-11.277,1.289,-12.095,-31.524,-6.636,-89.069,4
-7.246,-7.656,-50.441,5.567,-10.968,6.574,-127.904,-17.376,-0.09,1.142,-4.163,-8.786,-9.615,-2.085,-3.308,-10.214,8.921,1.328,-15.713,-2.924,-3.266,-13.445,-10.106,-8.192,-3.323,-5.423,-25.344,-12.265,-76.172,4
19.401,6.184,-30.923,13.759,11.585,19.888,-147.243,-3.014,12.205,16.51,16.334,6.08,10.887,18.409,18.212,5.165,28.38,17.208,-1.352,11.936,10.57,8.598,1.687,11.797,-11.004,14.05,-10.462,3.117,-43.309,4
11.697,13.863,-22.183,28.089,14.135,27.04,-179.372,6.211,16.291,25.203,21.441,8.635,13.438,16.854,22.805,4.648,29.376,14.117,0.186,12.948,14.145,12.688,3.222,13.322,-14.067,19.159,-8.915,20.532,-57.098,4
-8.807,11.8,-37.53,27.549,5.411,28.55,-211.468,13.889,17.812,26.203,16.296,6.577,12.4,8.64,10.487,1.057,21.662,12.054,-1.863,10.886,6.447,6.015,1.17,4.087,18.735,11.968,-16.078,14.876,-80.094,4
1.448,8.714,-39.542,16.763,10.529,29.546,-178.468,11.313,24.967,28.738,18.329,6.571,16.486,17.341,10.989,3.105,27.276,18.702,3.262,10.363,7.465,6.521,6.804,11.767,36.134,10.931,-15.55,3.591,-61.571,4
10.156,5.632,-23.108,11.623,10.518,22.344,-145.502,-2.018,24.942,26.148,16.261,3.49,9.809,25.52,16.613,0.541,29.298,18.171,0.184,5.742,11.556,4.978,7.309,17.903,3.823,11.945,-13.485,4.612,-53.825,4
0.924,8.7,-18.987,21.345,4.872,21.297,-177.632,5.669,20.306,22.023,11.634,3.999,5.189,16.273,11.986,0.028,23.633,19.177,-6.988,7.273,9.495,3.948,1.667,10.201,-8.989,9.884,-15.008,10.242,-73.239,4
3.997,24.06,-22.554,38.743,14.601,35.108,-206.144,23.594,26.946,29.686,19.82,10.143,13.893,7.548,16.072,6.175,21.561,21.719,-0.833,13.414,13.072,10.605,5.764,11.215,23.808,14.485,-10.895,17.404,-70.604,4
7.579,27.11,-15.359,38.191,16.636,33.536,-173.15,9.738,25.894,29.656,20.312,7.059,11.317,2.417,23.741,4.632,13.854,10.427,-0.833,6.74,13.571,6.495,4.221,14.79,26.858,13.958,-8.322,18.412,-50.553,4
-5.748,9.664,-16.368,20.223,-3.361,13.01,-141.726,-11.789,9.474,10.671,1.849,-5.756,-5.6,-4.758,7.835,-9.717,4.619,-0.854,-19.275,-6.074,-1.812,-7.856,-10.128,5.554,-3.907,0.624,-17.023,7.635,-47.429,4
-13.94,5.556,-28.135,20.202,-13.603,9.411,-173.86,-2.043,7.416,5.025,-5.325,-10.361,-8.668,-0.142,-6.517,-15.855,12.299,5.807,-20.792,-7.605,-6.421,-6.823,-10.63,1.962,6.343,0.111,-21.617,3.529,-55.066,4
-6.241,19.383,-26.058,35.039,-6.93,19.648,-195.715,6.668,16.63,14.754,3.902,-2.666,0.562,9.079,2.711,-5.593,19.971,11.436,-2.329,-0.425,5.369,7.528,3.725,12.719,29.903,12.919,-16.472,13.259,-58.085,4
4.011,20.388,-18.859,28.344,-3.337,16.042,-162.732,-9.22,12.515,12.177,6.459,1.435,2.098,4.46,10.393,-1.489,14.828,7.326,-2.326,2.649,6.388,8.033,4.746,16.292,17.577,13.93,-12.357,15.807,-53.928,4
2.983,14.733,-19.353,18.069,-1.284,13.465,-176.914,-5.625,9.941,9.604,4.403,-1.128,-0.978,2.406,6.796,-8.147,12.764,5.782,-12.57,0.597,1.259,-1.197,-3.456,9.103,4.24,7.769,-13.37,12.205,-52.338,4
-8.291,18.304,-15.235,31.371,-2.82,23.697,-209.012,21.021,20.177,17.791,6.961,-2.151,0.048,10.088,1.154,-9.164,13.264,3.215,-11.533,-1.965,2.794,-1.195,-3.965,3.971,7.309,5.712,-16.943,12.705,-63.044,4
-8.795,15.212,-13.683,36.463,-11.526,19.063,-185.749,16.902,18.62,13.162,0.294,-7.272,-3.538,0.856,-6.532,-12.228,5.566,-2.936,-15.108,-9.135,-3.356,-2.731,-6.522,3.455,-0.895,-1.979,-24.61,7.057,-63.493,4
-0.077,4.95,-23.915,18.496,-9.978,4.187,-152.776,-4.12,9.892,3.415,-8.416,-13.413,-7.633,-10.415,-8.574,-20.925,1.462,-0.372,-20.728,-11.688,-10.013,-9.388,-12.151,3.964,-5.505,-6.075,-28.172,-1.659,-48.06,4
-3.663,5.458,-21.842,10.793,-2.283,11.355,-184.898,5.618,17.054,15.195,1.839,-6.739,1.596,4.964,1.68,-13.732,11.707,11.924,-10.973,-1.43,-0.781,-3.744,-7.528,3.96,14.481,2.128,-19.947,-1.657,-48.012,4
-11.856,4.428,-16.185,8.22,-8.429,14.93,-163.196,6.637,18.574,19.791,8.497,-1.609,6.205,12.644,2.191,-7.058,16.306,10.888,-9.938,0.108,-0.268,0.359,-3.934,1.907,18.565,3.15,-17.877,-4.217,-60.772,4
-14.918,-10.946,-36.149,-7.157,-18.154,-7.627,-130.246,-25.645,-3.986,-4.82,-10.979,-15.952,-12.244,-7.349,-11.643,-25.495,2.969,-6.03,-28.371,-19.359,-13.588,-16.036,-15.201,-3.731,-10.655,-7.099,-30.667,-13.947,-68.396,4
-15.928,-15.546,-46.871,-5.101,-15.062,-11.205,-162.391,-23.57,-11.154,-11.987,-16.604,-22.084,-19.917,-9.39,-13.681,-31.617,-1.644,-6.023,-30.392,-22.414,-8.451,-18.581,-18.26,0.372,-28.063,-4.53,-31.149,-9.322,-74.987,4
-7.203,2.401,-23.77,16.934,-4.288,15.446,-194.504,9.241,13.96,14.665,7.491,-4.131,1.62,11.111,1.19,-11.605,15.776,12.426,-8.844,0.15,9.488,6.028,0.714,18.302,-7.03,12.893,-13.699,11.18,-69.277,4
0.489,6.497,-22.722,13.331,0.839,19.529,-161.522,6.158,20.094,21.31,13.119,2.021,6.742,9.051,7.848,-8.007,20.371,13.95,-2.175,6.81,11.528,11.145,8.398,24.431,18.592,16.978,-8.563,15.779,-59.474,4
-6.684,-14.002,-54.462,-11.273,-11.457,-0.983,-128.572,-26.123,-5.03,-1.765,-5.337,-13.351,-13.757,-10.938,-6.504,-23.369,3.956,-1.945,-17.543,-8.566,2.807,-5.772,-7.492,4.939,16.524,1.592,-19.312,-0.118,-72.222,4
-2.066,-20.136,-57.994,-12.799,-24.766,-3.031,-143.813,-31.22,-8.611,-5.35,-5.844,-16.411,-14.768,-8.366,-14.694,-23.857,4.465,-0.919,-18.55,-7.533,3.829,-3.205,-11.583,-2.75,3.188,-5.07,-20.83,-7.803,-79.322,4
12.793,-3.21,-32.32,3.095,-10.909,11.317,-175.945,-11.209,11.378,13.611,7.994,-3.587,2.665,8.549,-0.335,-15.124,20.342,13.939,-3.674,4.258,14.583,9.094,1.748,14.671,9.332,9.28,-12.1,1.427,-61.312,4
5.607,5.503,-24.603,10.264,10.107,21.551,-208.044,3.147,15.977,21.794,12.085,1.027,7.273,12.639,11.961,-13.572,21.858,15.462,-1.621,4.766,22.253,5.499,4.308,21.829,14.446,17.98,-7.477,9.622,-52.542,4
-1.57,0.887,-35.337,9.23,4.461,19.481,-175.048,-0.443,10.838,17.674,11.56,-4.609,4.704,3.917,6.826,-17.145,14.152,7.25,-7.767,2.712,20.182,2.419,-3.381,12.073,-5.036,12.839,-9.519,7.563,-61.198,4
5.091,-5.774,-47.085,2.048,-8.863,4.604,-142.086,-27.595,6.217,9.46,2.839,-11.777,-0.936,-5.821,0.671,-24.3,9.527,1.095,-12.37,-2.926,11.965,-2.194,-9.013,5.401,-18.351,9.752,-19.243,0.896,-71.383,4
-5.16,-7.818,-45.501,-3.589,-5.78,-0.523,-156.8,-34.739,1.087,2.278,-6.897,-14.839,-10.156,-10.426,-1.379,-33.497,4.907,-3.517,-20.555,-12.657,9.391,-16.024,-16.176,2.322,-5.525,4.107,-27.933,-2.179,-75.923,4
-10.278,5.51,-20.352,14.345,7.033,19.969,-188.919,-1.917,13.382,13.034,5.917,-6.627,-0.412,-5.805,1.696,-28.341,11.562,-1.977,-18.485,-5.985,19.628,-10.373,-12.574,4.368,12.923,2.566,-19.196,8.069,-58.94,4
11.249,24.972,-0.864,41.483,15.223,38.393,-172.848,19.602,31.299,31.976,22.818,5.675,18.031,2.398,15.527,-12.431,23.846,10.833,-2.073,9.391,34.978,9.618,1.271,12.561,26.743,16.396,-4.832,23.943,-36.852,4
11.75,21.873,-12.647,36.831,5.474,28.108,-139.888,-3.471,16.411,23.747,14.086,2.083,8.279,2.908,17.048,-17.029,20.748,14.921,-5.657,4.77,34.943,3.46,-2.829,12.548,14.933,17.404,-10.463,20.845,-42.451,4
-15.414,5.97,-26.466,14.252,-10.413,11.174,-172.023,-15.763,-5.635,1.182,-3.347,-13.801,-12.221,2.393,-2.436,-38.017,12.018,5.684,-26.656,-9.067,21.588,-14.986,-18.707,4.339,-12.747,-0.544,-22.748,3.918,-51.63,4
-14.886,7.501,-22.854,11.164,-6.817,8.089,-163.142,-8.575,5.129,1.181,-5.905,-17.373,-10.16,8.538,-8.582,-40.54,13.543,3.629,-26.117,-9.57,20.541,-11.385,-16.639,2.798,6.222,1.506,-22.725,5.451,-50.041,4
4.596,16.203,-19.757,18.838,2.412,11.154,-130.191,-12.153,18.956,12.963,-0.776,-8.646,-2.465,11.091,2.698,-29.741,18.14,11.822,-11.234,-4.95,28.718,-1.64,-5.864,7.918,38.491,15.336,-17.067,20.302,-60.237,4
-3.093,11.576,-22.299,16.257,-3.738,11.656,-162.337,-15.727,9.716,8.339,-0.263,-7.101,-8.098,4.932,-2.428,-30.224,17.61,13.86,-8.661,-4.945,28.689,-2.663,-4.321,14.058,6.177,14.297,-16.025,18.745,-59.153,4
-17.434,4.392,-24.326,9.069,-6.296,6.521,-194.45,-12.637,2.534,1.671,-4.874,-12.729,-12.188,0.829,-12.672,-34.292,18.104,10.772,-12.751,-5.452,28.66,-4.197,-3.805,14.556,-26.105,10.696,-18.571,7.968,-42.187,4
-6.146,2.338,-26.863,0.35,-2.191,-1.17,-161.467,-23.383,4.581,3.718,-4.869,-11.179,-8.078,3.39,-2.413,-32.721,19.623,10.249,-12.738,-3.91,33.755,-4.193,-3.289,8.906,6.709,11.198,-18.552,8.985,-53.928,4
3.594,-2.275,-35.033,-8.359,-7.312,-4.243,-128.518,-38.729,-0.035,1.665,-1.278,-7.582,-4.996,4.923,7.323,-32.688,18.579,9.727,-13.238,-4.93,35.77,-6.75,-6.359,6.336,39.49,6.576,-16.484,11.025,-75.904,4
-11.779,-3.297,-44.219,-7.839,-9.867,0.372,-160.665,-36.129,-0.547,2.176,0.773,-7.574,-3.966,6.455,2.193,-31.119,18.56,10.229,-10.663,-4.925,38.296,-6.231,-6.865,9.403,12.811,10.668,-14.419,9.477,-64.045,4
-16.89,6.952,-38.54,-0.146,-0.635,14.716,-192.78,-11.502,14.31,17.543,7.432,-2.956,2.698,15.158,5.265,-23.403,26.739,19.953,-5.017,3.277,47.479,1.46,-3.272,12.98,-12.818,21.928,-10.306,15.103,-51.685,4
1.057,9.507,-26.718,4.977,6.538,28.022,-204.882,8.49,22.493,27.259,14.085,0.121,11.917,17.704,16.53,-20.306,29.274,25.056,-6.036,7.372,49.993,3.508,-2.757,16.041,-27.662,20.369,-8.246,16.625,-65.466,4
0.544,-4.847,-40.524,0.874,4.994,16.211,-204.678,-8.425,9.151,13.4,5.361,-8.589,2.171,3.342,11.903,-26.945,16.437,12.735,-13.715,-3.394,43.796,-7.767,-9.414,7.828,-33.269,7.028,-15.41,1.751,-77.183,4
-18.924,-14.576,-64.562,-11.423,-1.158,-7.372,-171.685,-40.692,-6.228,-2.495,-7.452,-17.289,-16.274,-2.809,-1.429,-36.652,9.76,0.427,-20.361,-13.125,40.166,-17.493,-17.601,-10.623,-2.498,-2.712,-25.129,-9.009,-77.106,4
-14.807,-10.463,-56.813,-14.485,-6.28,-4.291,-138.726,-38.09,-2.635,1.606,-5.395,-12.661,-13.697,9.489,0.109,-39.689,15.386,2.988,-21.366,-10.55,44.224,-12.352,-16.559,-14.711,24.657,-1.173,-23.567,-1.828,-81.128,4
-0.447,-2.768,-36.776,-3.712,-3.2,14.669,-170.863,-10.899,12.224,13.9,4.344,-5.989,1.174,15.115,11.38,-34.014,17.932,10.67,-14.172,-3.367,50.328,-6.704,-9.883,-0.864,3.115,6.001,-16.883,10.982,-83.096,4
-8.644,0.308,-35.714,3.464,-0.123,13.63,-200.918,-4.741,15.798,13.373,5.877,-5.983,2.71,11.514,12.393,-30.394,19.963,17.832,-7.498,-0.29,54.376,-7.21,-7.311,6.309,-29.163,8.044,-16.354,14.557,-77.889,4
-17.344,-5.84,-43.363,6.022,-5.758,2.858,-167.929,-16.519,7.585,6.7,1.772,-8.026,-3.953,10.99,4.696,-34.975,20.968,17.814,-11.589,-2.851,54.834,-6.691,-10.89,0.155,-23.498,3.937,-22.485,2.247,-74.225,4
-4.519,-9.932,-42.808,10.115,-2.679,7.466,-184.667,-14.966,8.09,9.255,2.283,-9.555,-2.924,10.467,5.204,-34.427,15.824,9.599,-11.577,-4.385,55.291,-4.122,-11.391,-3.943,1.116,6.495,-22.975,-9.026,-64.417,4
7.268,3.91,-28.42,16.252,11.156,22.827,-216.758,4.005,22.939,21.029,10.99,-3.91,4.763,12.505,12.371,-24.659,19.907,13.176,-0.295,5.353,63.433,1.517,-0.622,9.381,-5.033,19.809,-9.12,9.426,-48.984,4
0.601,19.788,-10.461,22.384,7.559,29.977,-216.541,11.685,28.551,24.082,16.614,3.779,8.857,18.128,14.92,-22.585,28.596,24.433,-0.807,9.446,70.029,7.663,4.502,20.13,-20.397,25.936,0.111,36.057,-56.619,4
-11.183,12.083,-13.524,17.238,-9.867,13.041,-183.537,-15.479,9.567,9.713,4.815,-4.934,-2.423,11.963,6.708,-32.296,17.809,13.65,-14.638,-4.908,64.836,-2.078,-10.872,4.74,3.702,13.615,-12.185,25.774,-72.957,4
-12.196,-5.347,-28.88,-0.71,-12.419,-8.489,-150.566,-43.128,-9.398,-5.154,-10.047,-18.249,-16.765,0.167,-6.106,-41.486,5.496,-0.708,-17.697,-12.588,58.624,-14.884,-20.082,-8.072,23.678,3.355,-21.906,-0.891,-58.027,4
-10.647,-2.268,-31.413,-2.246,-9.845,-1.821,-182.691,-28.228,-4.777,-0.026,-7.476,-13.62,-13.162,2.729,-6.613,-39.395,13.175,9.539,-10.507,-5.403,63.176,-8.209,-5.718,6.281,-0.424,10.524,-16.249,7.307,-40.038,4
-8.587,13.616,-26.258,15.687,-14.446,15.087,-214.783,-6.683,7.01,11.245,3.29,-5.41,-2.39,11.948,5.689,-30.646,24.432,23.362,-6.398,0.75,70.797,1.021,1.973,16.52,-4.522,18.711,-11.11,34.964,-53.318,4
3.205,21.799,-15.986,20.794,-6.747,13.023,-181.781,-17.434,9.053,11.746,5.849,-6.941,-1.363,18.083,13.368,-26.005,29.019,24.363,-3.83,4.848,76.874,-0.005,-3.665,14.967,28.27,19.717,-7.512,40.052,-53.777,4
12.423,21.777,-0.601,16.163,9.142,6.862,-148.811,-28.688,9.044,9.173,4.306,-5.91,-1.362,21.651,11.818,-27.516,30.014,23.826,-3.314,7.405,81.408,0.508,-2.636,21.1,27.217,22.771,-4.431,30.278,-32.206,4
4.214,18.682,-2.137,14.61,10.157,7.88,-180.938,-16.876,8.01,8.139,2.765,-5.904,-1.873,15.994,8.22,-30.05,21.275,19.192,-11.508,-1.312,76.716,-3.591,-8.269,15.443,2.087,18.137,-12.624,28.199,-43.445,4
-5.525,12.003,-20.578,8.447,-2.661,6.847,-213.032,-11.736,1.854,1.471,-4.923,-14.607,-10.068,4.195,2.064,-35.655,10.495,5.853,-20.718,-12.581,65.881,-15.371,-21.581,-0.966,-0.477,5.311,-20.808,29.707,-61.332,4
-7.568,6.356,-24.143,4.34,-12.904,2.742,-187.204,-17.872,-1.221,-3.141,-11.578,-18.179,-13.132,5.728,-4.086,-40.23,11.509,-0.813,-19.673,-12.569,65.302,-15.356,-16.948,4.67,5.671,5.306,-17.713,28.653,-36.68,4
-4.999,8.911,-11.312,12.533,-14.428,3.252,-187.529,-14.78,1.341,-0.576,-7.468,-13.55,-7.996,11.87,-6.643,-36.092,15.084,6.36,-14.53,-8.458,73.434,-6.119,-6.173,12.863,5.666,10.936,-14.622,25.55,-22.299,4
2.178,11.463,-8.227,15.082,-18.512,4.785,-160.189,-14.253,0.315,0.961,-4.386,-14.561,-9.012,3.149,-9.198,-35.543,11.995,11.477,-20.151,-11.523,75.41,-8.674,-9.753,2.604,5.66,9.901,-16.656,24.5,-49.429,4
0.639,7.353,-16.415,8.919,-17.981,1.194,-127.241,-24.485,-2.246,-2.114,-8.993,-18.645,-15.663,-1.977,-10.213,-42.168,5.835,3.78,-28.84,-16.635,73.798,-15.325,-16.403,1.576,-7.666,8.866,-18.176,23.963,-59.625,4
-12.169,6.834,-21.01,10.447,-2.594,-1.881,-152.217,-27.022,-4.293,-2.112,-10.008,-19.651,-18.209,3.66,-6.105,-41.613,0.706,-2.883,-29.323,-17.643,74.236,-17.359,-19.461,8.747,-22.003,4.759,-20.72,20.866,-53.418,4
-15.231,8.876,-18.939,13.511,0.482,2.732,-184.34,-21.36,-6.338,0.452,-7.949,-19.631,-15.629,-0.442,-5.074,-38.498,1.73,0.706,-29.294,-18.137,74.162,-19.903,-21.49,-0.483,-9.685,-4.468,-21.211,16.746,-68.734,4
-11.117,6.306,-16.359,12.472,-20.011,7.34,-178.008,-16.215,-3.771,1.988,-8.966,-17.562,-13.052,-2.491,-7.118,-41.021,8.389,4.803,-28.24,-17.095,76.137,-18.859,-17.371,-10.729,16.452,-3.951,-19.653,20.316,-72.764,4
-11.618,9.373,-11.219,13.485,-15.892,8.87,-176.294,-8.002,4.942,9.159,-4.858,-11.909,-6.891,9.295,-1.988,-34.32,17.09,10.434,-16.941,-8.368,82.721,-9.619,-9.669,-1.497,21.046,6.812,-15.023,30.029,-47.075,4
-5.459,14.487,-7.622,11.422,4.104,11.422,-182.777,-7.994,8.011,13.76,2.319,-9.336,-0.737,13.896,1.6,-23.527,21.171,19.133,-8.727,-1.7,85.2,-1.412,-6.585,11.825,-5.102,15.002,-7.836,28.462,-40.881,4
2.231,6.276,-18.885,6.8,-6.146,5.776,-149.807,-26.941,-1.218,2.476,-1.782,-14.45,-4.322,7.222,-2.5,-28.626,19.613,15.015,-14.866,-5.284,84.09,-4.484,-11.189,10.276,-33.786,16.011,-10.902,18.188,-62.869,4
-3.919,-1.415,-32.699,8.33,-12.8,-4.476,-122.505,-40.747,-9.414,-7.26,-7.416,-15.46,-13.027,7.215,0.064,-36.282,17.032,6.291,-19.462,-7.841,85.03,-11.14,-15.789,0.02,-18.896,8.823,-18.575,15.608,-73.052,4
-14.161,2.172,-27.543,8.834,4.631,-0.886,-152.608,-31.485,-3.769,3.505,-3.822,-10.321,-7.891,10.794,4.163,-29.586,19.576,12.432,-14.832,-3.222,86.482,-9.592,-11.162,-3.566,13.911,3.179,-15.483,17.129,-64.27,4
-11.585,1.145,-18.806,1.653,-2.546,7.312,-145.283,-23.256,4.944,10.162,-0.232,-10.311,1.851,11.808,-2.501,-25.97,19.044,18.055,-11.231,-3.219,85.371,-6.508,-7.053,0.536,9.286,7.786,-11.369,11.989,-53.96,4
-4.914,-0.905,-22.373,0.626,-20.474,7.305,-155.897,-21.184,4.427,4.004,-2.793,-14.911,-2.25,11.796,-4.036,-32.092,12.878,11.377,-15.318,-6.289,85.798,-9.063,-12.169,5.146,-22.998,9.316,-14.431,9.416,-51.344,4
-8.495,10.879,-23.376,19.069,-6.621,13.445,-188.016,-8.355,4.935,8.611,0.283,-12.847,-5.321,10.247,4.165,-29.498,12.865,12.903,-15.303,-5.258,89.298,-8.03,-11.644,9.751,-31.685,9.306,-11.343,20.165,-58.465,4
-8.999,19.065,-16.18,36.468,8.754,22.653,-172.459,3.949,13.127,18.336,7.455,-5.15,3.906,11.262,6.21,-18.711,20.024,20.575,-5.554,-0.642,96.381,1.712,-2.411,7.692,1.135,15.445,-5.184,29.366,-67.628,4
4.842,13.923,-16.676,29.259,8.233,17.507,-139.499,-3.227,15.163,13.707,5.399,-3.608,4.414,13.812,9.278,-19.716,22.566,17.48,-4.523,1.407,100.383,5.297,-2.409,2.049,27.774,15.941,-6.203,22.677,-62.437,4
2.788,8.274,-24.344,15.91,7.2,8.781,-171.635,-12.958,6.951,4.472,-2.292,-8.727,-4.3,10.724,11.83,-28.918,17.42,12.34,-16.302,-3.717,93.623,-3.418,-12.14,0.51,-4.53,6.704,-9.783,14.457,-52.129,4
-22.318,10.827,-24.32,19.993,0.021,9.797,-191.955,-17.043,-1.253,3.442,-3.826,-11.792,-6.857,8.664,-0.477,-29.914,13.304,11.815,-18.335,-9.349,88.406,-9.05,-15.202,-1.539,-36.288,3.623,-12.847,19.566,-57.2,4
-23.32,16.964,-13.025,25.608,-6.639,12.348,-158.976,-21.637,-1.252,7.537,1.301,-8.707,-0.702,11.217,-2.526,-22.712,16.877,10.266,-9.095,-4.216,95.49,-2.893,-11.6,-2.562,-32.153,9.255,-11.298,27.743,-62.778,4
0.782,23.095,-1.741,27.119,1.052,14.897,-139.349,-17.005,8.483,15.215,7.447,-3.575,5.958,12.743,14.895,-18.591,23.008,12.817,-7.549,0.911,102.055,3.257,-6.978,7.174,-24.437,14.881,-3.09,27.715,-48.883,4
1.293,23.071,-2.251,39.388,4.125,17.444,-171.485,-9.815,12.061,17.249,9.489,-3.571,5.44,11.193,13.343,-21.134,17.862,13.317,-12.152,-3.188,99.391,1.717,-5.434,9.728,-6.994,15.891,0.5,24.101,-33.465,4
-12.54,18.95,-12.495,40.373,-5.101,9.742,-159.018,-21.076,-2.808,4.936,-0.254,-12.277,-5.324,4.522,-5.626,-27.26,6.573,3.057,-18.8,-10.357,93.656,-6.481,-13.113,-2.064,5.309,7.678,-10.259,17.93,-40.091,4
-8.429,9.709,-23.754,19.328,-12.268,-4.1,-146.051,-32.326,-12.539,-5.827,-10.5,-19.437,-12.491,-0.093,-8.694,-32.356,5.542,-2.069,-28.003,-14.446,86.903,-14.672,-21.297,-5.136,-17.75,-4.112,-19.983,5.616,-54.396,4
-4.835,3.04,-24.754,14.698,-16.354,-1.022,-178.181,-20.511,-0.231,0.838,-3.317,-13.27,-5.818,9.641,-4.074,-29.25,15.782,12.79,-20.803,-8.283,86.304,-10.046,-14.616,3.578,-27.467,-2.059,-14.84,2.024,-52.804,4
-13.539,13.283,-10.385,32.614,-14.288,16.397,-210.278,-2.559,9.503,14.67,8.469,-3.01,4.946,21.414,-3.046,-18.974,22.939,25.073,-2.339,5.557,95.951,5.845,-0.769,10.747,5.349,10.751,-5.091,16.367,-42.506,4
-15.575,24.54,-1.153,33.094,-3.516,19.967,-177.28,-2.045,5.395,14.655,4.362,-5.057,2.38,12.684,3.617,-17.931,17.793,18.9,-5.41,2.478,98.417,7.376,-3.33,11.248,8.929,14.838,-6.623,24.035,-48.098,4
-9.411,12.22,-14.984,15.642,-3,2.016,-144.315,-25.609,-2.808,-1.753,-6.401,-14.785,-9.406,-0.649,4.126,-28.671,8.554,7.61,-22.311,-13.919,86.535,-11.074,-17.159,0.991,-23.355,2.528,-14.301,13.253,-65.981,4
-8.377,-0.6,-26.752,11.528,-11.706,-8.744,-111.383,-45.563,-8.44,-8.924,-8.444,-15.795,-12.47,6.011,-5.612,-32.229,5.984,4.017,-23.313,-14.929,82.35,-18.748,-18.678,-7.719,-36.139,-5.671,-14.287,11.19,-69.501,4
-8.881,7.598,-18.016,23.812,-10.67,3.56,-143.547,-25.025,-2.796,2.356,-2.8,-9.632,-5.798,12.153,-4.069,-24,8.539,5.55,-16.118,-6.205,90.465,-8.483,-13.024,-0.539,-3.315,2.531,-8.125,22.45,-63.796,4
-3.237,13.738,-10.826,30.96,-3.999,15.852,-175.679,2.152,6.428,10.038,0.789,-8.085,-5.792,0.358,2.595,-21.414,9.043,6.569,-17.638,-7.224,94.985,-4.376,-11.987,2.535,20.766,7.139,-7.604,21.915,-66.806,4
3.426,8.601,-13.889,24.269,-3.995,13.275,-189.848,-7.072,4.372,6.442,-1.773,-11.151,-9.885,-1.692,-0.994,-24.979,8.522,8.099,-17.621,-8.753,91.304,-9.495,-12.487,-5.664,-1.796,0.472,-11.183,12.159,-64.178,4
-3.75,5.007,-20.535,19.122,-14.75,8.651,-161.993,-17.311,-1.267,3.362,-3.821,-13.189,-7.826,13.167,-6.628,-24.441,9.538,11.165,-14.529,-7.208,82.503,-11.534,-14.011,-1.56,-34.07,-3.627,-11.684,6.512,-50.282,4
-17.066,-2.683,-28.712,16.541,-26.518,1.47,-142.876,-17.806,-2.803,-0.74,-8.94,-15.737,-9.355,11.105,-9.183,-25.954,7.991,12.691,-21.175,-12.323,77.298,-15.109,-20.145,1.515,-35.572,-6.697,-15.771,2.919,-52.793,4
-10.389,-5.242,-19.974,10.377,-15.733,-2.63,-111.482,-27.522,-3.825,-0.74,-9.956,-12.648,-11.907,2.384,-3.026,-24.903,7.983,14.215,-23.715,-12.823,83.881,-16.119,-19.1,-7.196,-2.749,-8.739,-17.292,8.552,-63.499,4
10.114,14.231,2.076,21.638,7.337,13.254,-96.514,-17.76,6.937,13.094,5.936,1.197,1.425,16.726,12.346,-13.095,15.147,20.348,-10.371,0.509,94.043,-5.344,-9.347,-3.09,24.406,2.54,-4.467,28.011,-56.263,4
10.104,24.975,-6.636,40.059,4.768,21.95,-95.905,-3.91,14.615,18.716,13.102,4.782,9.108,24.907,10.284,-7.447,19.231,21.865,-3.701,4.607,92.412,1.321,-6.264,7.159,-5.845,11.759,2.198,36.692,-55.182,4
-6.812,9.069,-33.269,27.724,-9.582,2.972,-98.371,-23.886,1.28,5.377,-2.28,-9.055,-4.221,6.951,-6.12,-16.661,12.552,15.183,-11.382,-6.668,81.049,-5.34,-12.406,1.517,-28.38,3.55,-12.149,25.385,-65.373,4
-10.392,7.01,-19.916,13.864,3.748,-0.104,-130.548,-23.35,-0.77,5.884,-3.815,-11.095,-5.241,6.432,0.034,-17.669,13.051,16.705,-11.371,-7.174,77.894,-4.822,-11.881,3.052,-11.958,2.522,-16.235,17.162,-50.451,4
-3.209,27.496,9.306,35.879,19.113,22.437,-138.102,4.338,18.698,21.76,12.583,0.699,10.133,26.918,17.965,-5.356,25.846,26.934,-2.138,4.617,87.037,4.916,-0.598,16.882,7.009,13.791,-1.362,26.367,-25.809,4
-0.644,33.616,4.686,48.651,11.41,26.001,-105.176,-1.814,21.241,24.299,13.083,2.235,12.685,27.403,17.434,-0.74,28.894,24.858,1.451,7.686,91.049,9.522,4.013,15.328,14.687,17.875,3.762,44.783,-31.931,4
-0.131,23.336,-11.201,31.696,4.226,14.192,-108.657,-16.157,9.437,16.591,5.897,-2.89,4.475,8.42,8.195,-4.838,17.082,15.612,-3.674,-0.519,82.761,5.414,-2.651,4.554,5.963,15.296,-2.389,46.275,-48.293,4
-0.644,14.091,-13.751,20.906,-1.414,9.567,-134.676,-11.53,4.817,9.402,1.281,-5.961,-2.702,1.752,-0.01,-12.005,9.38,13.547,-14.941,-7.691,72.944,-4.837,-10.845,-1.086,-19.658,9.133,-6.998,20.614,-45.683,4
-4.229,8.954,-16.299,22.422,-14.732,6.484,-131.467,-14.592,1.226,3.245,-4.868,-12.615,-8.335,9.435,-6.157,-18.141,8.346,7.898,-21.074,-10.244,68.261,-12.005,-13.908,-2.11,-25.786,-0.098,-10.577,3.687,-44.101,4
-4.225,15.093,-15.77,27.01,-14.717,11.6,-163.611,-6.893,4.811,8.364,-0.765,-12.09,-3.203,11.474,-0.516,-12.999,6.289,1.742,-13.368,-8.697,69.729,-7.894,-11.333,1.991,-16.539,4.513,-10.054,20.077,-55.327,4
-1.147,26.349,-10.119,35.692,-2.407,22.859,-139.369,7.458,17.101,21.164,9.994,-1.32,7.046,6.34,5.12,-2.228,8.844,8.913,-7.207,-5.615,75.807,-1.226,-7.735,4.038,-24.207,16.292,-3.896,36.963,-58.858,4
-1.146,25.81,-8.06,33.607,-0.868,18.738,-106.442,-6.894,16.572,20.63,8.96,0.219,7.552,9.92,7.164,-1.713,12.934,15.052,-8.737,-5.097,78.293,-1.225,-9.777,-4.675,-11.375,12.689,-2.868,31.291,-50.602,4
-3.194,18.612,-10.613,21.278,-5.99,10.522,-138.611,-16.621,7.334,9.851,3.315,-9.515,1.396,11.447,13.817,-7.859,6.261,6.327,-13.851,-9.702,70.53,-7.372,-14.89,-13.38,10.153,1.406,-9.525,22.038,-54.65,4
-10.363,16.032,-15.726,19.208,-4.447,11.024,-170.748,-7.382,4.253,4.206,0.238,-12.067,-7.827,-1.885,11.242,-8.876,-3.992,0.686,-19.473,-13.791,65.336,-12.487,-14.363,-8.243,-22.133,1.917,-12.077,18.43,-61.768,4
-11.889,20.626,-13.661,29.435,5.291,15.624,-137.789,-9.424,8.859,10.862,3.824,-2.834,-5.257,3.753,7.644,-1.695,4.209,13.493,-10.232,-5.068,70.906,-1.716,-3.078,9.184,-41.578,13.698,-2.331,21.998,-45.312,4
-0.094,28.29,-2.376,40.164,12.97,22.268,-111.524,-5.829,18.584,22.634,13.554,3.829,11.142,27.315,16.858,7.528,19.574,24.75,6.172,4.158,72.372,12.118,6.659,17.884,-8.749,21.369,4.844,34.271,-35.021,4
-1.631,19.04,-17.743,30.39,-3.437,14.561,-143.688,-4.286,10.881,14.414,3.294,-6.421,3.446,13.968,5.571,-1.701,10.845,14.991,-8.691,-9.166,55.906,-4.801,-3.081,1.472,5.605,7.515,-8.993,31.163,-57.015,4
-21.097,0.578,-44.365,5.256,-23.413,-5.946,-143.032,-24.262,-10.647,-7.629,-16.689,-21.271,-20.636,-12.686,-18.513,-16.556,-7.096,1.656,-28.15,-21.964,43.555,-22.214,-14.861,-9.288,-26.676,-5.3,-20.768,13.713,-66.18,4
-13.904,7.238,-24.853,9.35,-3.922,3.794,-148.012,-14.504,-0.902,4.161,-1.815,-9.979,-5.758,9.868,0.46,-0.658,4.694,12.925,-5.58,-5.036,57.856,1.886,-1.014,9.677,-14.354,13.148,-3.328,21.384,-45.109,4
9.676,25.674,3.861,34.443,21.697,31.967,-135.568,11.126,27.275,33.359,23.802,10.011,22.937,38.035,29.661,22.397,26.206,29.819,14.918,11.875,72.655,21.864,12.307,21.962,18.448,31.578,12.044,42.367,-36.867,4
-5.703,14.889,-19.197,25.7,7.331,23.226,-102.645,-7.328,20.076,22.567,10.458,2.828,11.131,19.554,12.726,12.128,15.421,19.03,-5.589,-0.432,58.238,-0.187,-2.562,3.497,-13.846,15.665,-1.8,33.104,-51.174,4
-27.726,-3.056,-41.207,2.62,-13.681,0.149,-134.818,-23.714,-0.437,-1.022,-9.02,-13.056,-10.91,0.067,-10.341,-4.278,-2.525,3.13,-19.928,-15.289,42.298,-15.043,-15.367,-9.314,-38.935,0.792,-15.631,11.554,-63.419,4
-6.182,2.582,-20.161,11.327,-14.18,8.346,-166.959,-0.637,6.224,7.689,-2.351,-9.457,-6.288,7.751,-4.183,1.874,7.212,12.86,-8.125,-7.589,50.453,-0.684,-6.643,-3.669,-13.281,12.062,-9.98,15.128,-66.429,4
10.218,13.338,-6.821,27.197,-11.092,21.145,-134.004,3.462,16.976,21.513,7.897,-0.738,6.014,14.916,4.018,7.507,16.938,21.045,-4.019,1.64,55.525,3.928,-4.587,-0.592,-6.096,18.71,-2.797,27.408,-57.653,4
-9.772,12.3,-21.159,23.071,-2.371,14.464,-101.082,-12.423,12.861,17.905,6.865,-0.225,7.545,15.925,5.039,2.889,9.749,10.777,-11.699,-5.021,49.834,-6.322,-12.267,-6.226,-22.996,8.958,-3.307,28.406,-41.202,4
-13.86,9.726,-27.798,19.974,6.853,10.863,-133.256,-9.337,9.262,14.814,1.735,-3.299,3.439,15.909,8.108,-0.188,10.764,6.668,-15.274,-9.115,52.346,-5.804,-11.23,-6.22,-25.534,8.436,-3.816,28.889,-39.112,4
-0.527,12.278,-22.647,24.565,-1.351,13.414,-124.414,-9.327,5.666,11.213,-2.365,-6.369,-2.2,8.721,9.636,-1.212,11.265,9.735,-13.722,-5.007,53.831,-2.212,-7.12,-1.091,-16.799,14.063,-1.763,30.397,-54.954,4
-8.211,12.778,-20.575,21.467,-9.034,8.79,-91.502,-20.076,1.05,6.078,-1.338,-8.412,-6.297,5.639,8.09,-2.748,2.545,5.115,-15.245,-8.588,47.117,-7.333,-9.675,-4.164,-9.098,7.902,-2.273,22.682,-66.682,4
-15.375,13.278,-18.505,18.371,-7.488,12.367,-123.686,-9.81,8.733,14.269,3.274,-6.867,-1.679,12.293,3.983,-1.208,6.129,5.622,-14.717,-11.141,47.582,-7.838,-10.177,-8.258,-8.577,5.332,-3.808,20.098,-58.418,4
0.522,18.388,-12.339,28.599,-7.993,27.212,-155.837,9.155,21.532,23.477,6.857,-3.274,8.568,15.355,3.979,5.453,14.832,12.789,-8.042,-1.909,52.657,1.392,-5.557,2.509,-9.593,16.598,-1.243,35.447,-41.966,4
10.255,20.931,-7.716,32.669,0.724,25.648,-122.894,2.486,19.974,20.892,10.948,0.316,10.097,13.802,12.172,9.546,11.231,15.337,-1.887,3.216,54.654,8.05,0.597,12.752,3.225,22.216,-0.217,48.22,-38.338,4
1.536,16.811,-6.171,18.804,11.482,12.814,-103.303,-11.861,12.782,14.211,7.351,-0.709,2.914,16.35,13.185,6.463,13.269,14.81,-3.422,-0.373,55.624,5.481,3.158,4.543,12.955,15.534,-4.315,36.388,-42.91,4
-9.736,11.159,-11.288,10.588,-4.924,12.289,-135.475,-5.189,10.72,8.049,-1.878,-8.906,-3.236,11.211,0.364,-0.204,14.28,8.135,-10.591,-5.496,48.396,-3.746,-3.506,-6.733,-4.988,8.859,-7.897,17.909,-46.966,4
-11.776,2.951,-21.523,11.09,-23.362,11.765,-146.098,-1.086,3.537,-0.668,-7.511,-18.118,-11.43,-3.658,-7.833,-7.376,-1.616,0.442,-20.314,-14.712,36.052,-14.501,-16.31,-12.361,-37.259,2.702,-10.963,14.817,-54.604,4
-5.104,-0.126,-22.526,7.493,-14.629,1.507,-113.165,-21.577,-4.664,-2.717,-8.016,-18.1,-16.029,-0.58,-5.264,-8.905,-3.663,6.077,-21.831,-18.283,37.553,-13.462,-16.806,-11.837,-37.222,0.65,-13.513,24.024,-57.623,4
0.536,13.194,-8.671,15.17,-1.295,5.091,-85.899,-25.654,3.025,8.044,-1.86,-7.836,-3.718,18.888,-0.648,-0.187,12.222,15.805,-6.439,-4.945,47.762,-0.641,-1.42,0.471,-4.397,12.433,-8.377,35.271,-47.319,4
-3.05,20.353,-0.978,28.475,-0.781,18.919,-118.089,4.086,16.342,17.258,4.289,-5.266,4.483,18.869,0.89,3.912,11.185,13.74,-1.822,-2.891,48.739,2.434,2.168,6.106,16.612,19.08,-3.245,38.821,-46.76,4
-9.707,4.964,-12.76,17.688,-4.366,14.289,-150.246,11.766,10.178,8.019,-4.424,-15.507,-8.842,1.944,-4.747,-6.339,-4.195,6.042,-20.264,-18.769,42.542,-12.426,-15.253,-9.27,-15.68,5.229,-12.976,27.512,-59.008,4
-12.259,-1.701,-23.506,5.887,-9.997,-2.119,-117.308,-20.521,-5.201,-6.334,-14.154,-22.152,-17.542,-3.693,-10.377,-13.505,-8.29,1.937,-26.391,-20.288,39.938,-18.048,-21.385,-13.871,-46.402,-3.998,-17.574,17.238,-52.801,4
-8.661,11.621,-16.31,15.615,-13.061,-1.092,-84.403,-30.234,-1.097,-2.229,-7.479,-15.47,-8.303,-3.689,-4.219,-6.319,-2.646,2.96,-13.557,-7.972,45.021,-3.173,-6.507,2.536,-18.691,7.277,-7.31,25.93,-37.892,4
-0.967,17.757,-3.998,22.259,-4.851,17.352,-116.594,2.584,16.322,15.192,2.262,-6.745,2.976,-1.124,4.494,1.885,4.529,10.129,-7.396,-4.89,48.562,6.051,1.697,7.657,7.967,15.979,-2.18,38.2,-40.928,4
-3.528,9.542,-1.433,19.163,1.301,26.044,-148.753,19.487,20.404,21.836,4.821,-7.763,5.535,11.172,2.953,2.395,7.086,14.73,-11.487,-8.471,43.391,-4.713,-8.039,-5.671,-7.922,8.278,-8.837,32.014,-53.182,4
-13.771,-5.324,-12.702,11.972,-6.897,7.574,-115.816,-12.808,3.99,5.933,-6.454,-17.489,-6.254,10.649,-6.784,-6.829,-2.655,6.518,-21.721,-15.635,38.224,-18.541,-21.863,-20.522,-37.116,-6.587,-16.513,10.465,-66.449,4
-13.757,-10.955,-24.472,2.738,-17.648,-10.364,-85.474,-39.435,-6.772,-10.467,-19.256,-21.57,-16.494,-5.756,-18.048,-12.97,-8.8,-2.71,-27.335,-20.743,39.723,-20.059,-23.891,-25.624,-39.128,-12.216,-19.058,0.721,-70.481,4
-6.058,3.913,-15.226,10.42,-9.946,2.966,-117.664,-8.145,3.993,1.839,-7.453,-11.302,-5.719,1.935,-11.37,-3.735,1.455,6.514,-14.5,-5.865,46.856,-4.67,-10.547,-13.816,-9.375,2.653,-10.842,19.675,-50.43,4
-3.491,15.18,-1.379,24.754,4.408,20.382,-130.867,15.43,15.772,18.231,8.948,-6.68,5.045,20.376,6.572,3.953,12.212,21.365,-3.727,5.412,50.907,6.605,-0.802,-3.556,3.442,15.458,-1.61,36.562,-43.208,4
-7.586,4.919,-11.624,13.971,-4.305,10.115,-97.948,-4.566,9.096,6.942,-5.406,-15.895,-6.231,8.573,2.979,-2.711,7.077,15.196,-13.969,-9.963,41.122,-4.672,-11.048,-10.725,-19.103,2.123,-10.83,21.156,-66.731,4
-17.312,-0.209,-23.907,1.662,-21.207,1.908,-130.125,-9.172,2.427,-2.799,-14.622,-18.441,-12.372,-3.731,-12.393,-8.344,-2.664,1.348,-20.615,-18.15,31.86,-15.938,-19.234,-19.423,-22.158,-9.15,-18.504,5.765,-70.25,4
-20.881,4.402,-16.711,6.271,-15.038,9.591,-148.951,1.596,9.085,7.45,-2.312,-12.787,-5.187,8.055,-8.282,-5.261,0.412,5.445,-14.959,-7.886,37.976,-8.75,-11.017,-14.281,-13.426,0.593,-9.776,20.104,-57.372,4
-9.589,2.348,-18.744,0.117,-4.265,4.971,-116.014,-13.263,12.149,7.955,-3.334,-13.286,-4.158,6.51,0.948,-3.719,2.973,10.051,-15.457,-7.365,40.499,-6.179,-7.933,-7.094,-39.028,4.179,-7.717,30.33,-71.659,4
-4.969,4.395,-31.533,0.629,-4.26,1.892,-137.415,-16.323,9.576,4.361,-6.405,-13.273,-4.153,-5.279,0.435,-2.691,-3.69,1.844,-15.441,-10.432,35.848,-11.296,-13.048,-9.136,-37.965,-0.436,-12.832,21.591,-76.711,4
-17.772,11.563,-24.329,20.096,-0.67,14.698,-169.553,8.796,12.128,12.554,4.36,-9.674,-1.075,2.411,1.459,-1.151,-1.637,3.379,-13.377,-6.835,39.91,-8.211,-12.522,-18.349,-5.139,1.613,-7.696,17.471,-53.068,4
-24.414,5.404,-13.034,14.953,-3.743,9.56,-136.596,3.664,6.992,7.93,-1.792,-13.25,-7.734,10.605,-1.104,-5.249,2.976,10.035,-19.511,-12.464,35.772,-8.203,-13.534,-22.941,-12.306,-1.462,-8.201,17.966,-61.212,4
-18.242,-1.774,-21.218,-8.116,-16.547,-8.893,-125.188,-20.418,-2.748,-7.447,-13.061,-15.798,-12.85,5.472,-6.226,-8.83,-1.126,4.902,-22.565,-16.037,24.466,-12.806,-17.107,-17.283,-44.569,-4.535,-16.902,14.361,-85.741,4
-16.174,1.814,-31.442,-3.497,-11.92,-2.224,-142.994,-15.274,5.964,-3.341,-1.777,-9.635,-4.128,8.54,-2.634,-0.624,6.048,8.483,-8.71,-3.726,32.126,-4.596,-7.868,-9.581,-38.377,7.765,-11.25,17.421,-71.823,4
-14.109,5.398,-28.849,8.29,0.9,10.586,-110.063,-10.136,15.691,7.933,3.86,-6.039,2.024,12.118,0.955,7.061,18.337,26.406,3.594,1.913,40.803,5.143,2.386,-2.911,-5.551,13.905,-1.505,27.137,-57.407,4
-5.898,3.856,-24.722,1.109,-6.273,3.916,-138.642,-14.737,5.942,3.827,-5.365,-8.082,-4.125,6.47,-0.583,2.956,9.097,24.842,-2.045,-3.724,34.102,-2.547,-4.789,-2.396,-15.279,5.694,-5.601,25.061,-74.256,4
-4.355,-2.296,-27.259,-3.503,-16.001,0.325,-170.779,-7.55,3.374,-2.325,-4.847,-10.636,-6.683,10.05,-1.095,-2.17,0.891,9.448,-9.216,-5.77,34.068,-8.18,-11.444,-8.029,-34.219,2.103,-10.719,15.814,-77.255,4
-16.134,-7.416,-31.842,-4.012,-11.374,1.862,-137.821,-9.591,11.568,1.264,-3.306,-13.187,-4.115,16.187,-3.655,-0.119,8.063,8.926,-7.669,-5.764,38.132,-3.561,-5.285,-5.972,-28.037,5.174,-10.708,15.286,-64.37,4
-21.753,-6.897,-33.348,-6.569,-8.289,-1.726,-107.457,-18.291,7.458,6.386,-6.889,-13.686,-4.111,8.999,-6.213,0.394,5.493,15.065,-5.613,-7.807,33.483,-3.557,-2.206,0.694,-7.517,5.681,-12.234,19.369,-68.917,4
-10.973,-5.353,-30.753,-0.415,-11.355,4.936,-139.625,-2.391,7.963,9.453,-1.759,-10.598,-1.033,9.502,-1.084,-1.656,2.926,16.587,-6.632,-5.75,33.45,-7.652,-4.765,-1.868,8.884,6.188,-11.71,18.838,-73.459,4
-3.789,-2.786,-24.574,2.659,-9.294,14.665,-106.697,6.833,22.299,12.005,1.317,-8.538,5.116,20.251,2.504,1.932,11.632,18.107,-7.137,-5.232,34.953,-6.62,-3.736,-0.329,-7.006,6.182,-7.6,19.844,-66.725,4
-14.032,-1.759,-28.136,-9.126,-9.285,3.892,-73.803,-8.543,17.154,7.895,-10.467,-12.628,-3.086,15.108,-5.183,-1.144,9.571,9.892,-13.79,-11.887,29.283,-10.2,-6.294,3.77,-35.688,3.102,-10.666,17.775,-77.417,4
-16.067,-6.88,-34.768,-9.117,-17.472,-5.846,-106.005,-11.609,-0.282,-0.822,-16.605,-19.788,-15.378,3.31,-8.764,-11.389,0.34,3.735,-22.998,-16.486,28.741,-15.313,-11.411,-6.48,-25.406,0.025,-16.291,13.146,-85.536,4
2.392,1.836,-18.339,14.97,-12.332,10.554,-137.149,3.772,9.965,7.888,-1.219,-12.084,-4.604,8.429,3.027,-2.156,9.049,21.15,-12.216,-8.785,37.422,-5.563,-4.739,-5.449,2.284,6.685,-7.565,24.404,-57.274,4
7.513,22.327,1.659,31.349,4.074,27.449,-109.86,12.478,28.398,25.298,12.615,1.248,13.331,14.056,13.783,16.802,19.799,31.887,2.14,0.445,41.483,2.127,2.438,14.024,2.281,17.437,4.225,42.822,-36.724,4
-11.45,12.058,-11.662,13.387,-8.225,13.077,-142.025,4.268,15.05,12.465,-1.23,-10.024,-0.002,7.895,-3.137,6.026,8.508,11.363,-10.669,-8.264,31.708,-12.22,-7.298,10.424,-18.726,8.198,-7.05,29.972,-62.303,4
-18.611,-14.081,-29.581,-14.803,-37.418,-15.625,-133.174,-21.864,-9.044,-17.773,-26.332,-31.53,-26.13,3.276,-29.262,-18.058,-5.333,-1.969,-29.102,-25.162,18.356,-26.552,-19.074,-9.567,-32.539,-11.79,-26.51,3.302,-79.147,4
-4.248,-7.407,-20.33,-9.665,-29.696,-17.659,-100.253,-32.6,-6.986,-16.219,-23.232,-26.888,-23.542,8.908,-25.646,-15.479,-0.204,8.279,-23.437,-23.6,20.387,-20.378,-13.932,-3.409,-28.408,-7.168,-21.361,11.495,-57.038,4
1.392,10.531,-16.212,15.447,-1.49,5.925,-132.428,-6.952,10.44,6.851,-2.716,-10.98,-2.002,12.485,-5.641,-0.606,10.042,14.419,-11.631,-8.207,33.686,-8.575,-3.16,12.988,-20.695,10.258,-6.482,35.05,-45.198,4
-7.319,8.983,-24.392,12.87,-1.488,12.067,-164.571,3.813,13.503,12.48,-2.201,-12.506,2.611,10.424,-5.123,-0.093,10.544,15.429,-11.107,-4.613,36.727,-8.054,-1.107,10.413,-12.477,7.686,-9.55,31.941,-63.596,4
-9.873,3.339,-22.831,-7.122,-16.856,-0.241,-131.619,-22.318,4.268,3.758,-10.396,-17.616,-7.638,12.975,-12.29,-4.704,8.997,17.975,-13.657,-12.805,32.591,-12.656,-6.741,-1.892,4.441,-3.08,-18.249,20.126,-69.168,4
-10.888,1.286,-23.32,-3.017,-19.401,0.784,-121.241,-29.468,0.165,3.242,-9.361,-17.599,-10.192,16.036,-11.253,-4.699,8.988,12.834,-17.23,-16.379,34.096,-16.23,-11.346,-2.403,-4.272,-2.565,-16.182,23.18,-51.68,4
-20.098,0.773,-27.908,8.769,-17.844,7.956,-153.395,-7.41,6.825,8.362,-10.889,-17.581,-5.571,9.36,-13.803,-3.67,5.393,6.674,-20.286,-14.313,36.111,-19.288,-11.846,8.358,-36.031,-1.025,-15.653,26.743,-44.456,4
-15.98,-0.765,-18.658,-0.973,-19.876,-0.249,-167.074,-2.279,9.38,3.743,-14.464,-17.051,-5.565,6.276,-16.863,-5.203,5.387,8.204,-17.705,-14.811,36.587,-20.805,-12.347,6.3,-26.774,-7.684,-20.761,19.544,-58.244,4
-3.156,-12.035,-18.127,-14.292,-23.442,-14.081,-134.12,-18.671,-0.876,-10.606,-16.499,-21.133,-15.294,8.319,-15.822,-8.272,4.87,5.634,-18.199,-18.895,38.087,-23.346,-16.433,-9.587,-14.452,-13.312,-22.277,7.229,-69.969,4
-10.325,-18.683,-38.602,-12.741,-24.955,-17.141,-155.502,-22.751,-7.535,-13.669,-21.093,-28.284,-22.963,-2.448,-22.466,-10.313,-2.308,-2.056,-25.866,-23.486,34.975,-26.396,-19.49,-9.578,-46.713,-11.762,-21.23,0.049,-74.51,4
-21.073,-9.955,-50.858,-8.63,-22.881,-9.952,-173.278,-16.068,-2.404,-3.409,-20.559,-24.669,-16.792,-8.593,-26.03,-10.815,-3.33,-2.566,-26.352,-22.951,32.891,-25.345,-18.446,1.703,-43.592,-10.725,-22.746,7.734,-77.509,4
-17.978,-8.408,-45.172,-9.134,-20.809,-6.868,-140.317,-25.273,-4.451,-6.479,-18.49,-23.108,-15.239,-3.461,-18.831,-11.829,-0.765,1.022,-22.74,-22.415,33.883,-24.295,-20.477,-4.959,-10.761,-13.276,-24.772,11.312,-69.747,4
-20.01,-15.06,-34.369,-6.051,-20.788,-15.57,-125.319,-37.031,-11.619,-19.281,-25.131,-30.257,-24.445,-7.044,-16.763,-13.866,-4.35,-0.003,-24.254,-27.004,31.8,-24.271,-15.846,-5.979,-36.878,-11.726,-23.723,0.03,-53.283,4
-21.014,-1.212,-17.428,10.349,-12.571,-8.382,-157.47,-15.989,1.201,-6.454,-16.397,-23.054,-16.223,-0.377,-9.062,-5.143,0.265,4.607,-16.545,-19.292,38.428,-9.902,1.588,21.179,-49.136,1.093,-16.527,10.276,-49.132,4
-8.698,19.794,-8.189,29.294,5.373,20.315,-181.903,13.74,22.204,19.68,9.235,-2.539,6.847,20.628,11.439,12.281,16.146,14.337,-1.671,1.219,54.271,8.038,7.735,34.478,-16.299,15.949,-4.727,38.443,-52.156,4
-6.64,14.651,-23.038,26.703,11.003,24.906,-173.012,6.042,18.083,19.148,9.226,-2.536,7.864,13.948,9.891,12.781,15.105,12.785,-6.793,-1.856,54.217,-0.679,-7.13,12.927,-25.505,8.761,-4.21,30.72,-56.715,4
-20.466,-6.369,-38.896,7.721,-6.427,-2.271,-148.248,-20.604,0.134,-0.338,-13.837,-19.952,-9.562,-8.096,-15.734,-5.163,-3.353,3.039,-25.229,-25.42,37.769,-20.146,-16.857,-4.505,-57.754,-12.252,-18.038,3.025,-70.491,4
-23.007,-7.899,-33.222,9.251,-24.351,-10.466,-115.312,-26.731,0.134,-5.461,-16.897,-21.982,-13.651,0.109,-19.817,-8.744,-5.911,4.573,-23.155,-25.907,34.657,-14.49,-8.131,3.697,-24.909,-13.265,-23.143,9.169,-75.031,4
-18.885,7.478,-19.869,24.098,-18.179,5.938,-97.266,-18.507,10.893,5.303,-2.024,-7.615,-2.879,15.479,-4.428,7.147,8.439,9.691,-8.787,-9.487,46.918,-1.156,0.587,14.452,-11.564,2.118,-12.362,29.652,-53.951,4
-22.453,4.909,-16.775,15.365,-7.402,5.42,-129.444,-17.464,8.833,4.785,-3.558,-7.095,1.223,5.217,-3.911,7.139,6.382,4.046,-10.315,-12.551,48.408,-5.766,-3.512,12.388,-43.828,0.579,-8.251,19.889,-44.676,4
-20.381,-9.953,-28.029,-3.606,-17.129,-7.905,-161.59,-14.885,0.114,-7.515,-16.875,-20.408,-9.537,-8.108,-11.592,-5.163,-7.969,-2.618,-18.502,-22.785,39.138,-12.42,-8.12,7.253,-44.296,-9.156,-15.415,1.938,-60,4
-6.016,-2.771,-32.612,7.669,-24.284,0.299,-193.704,4.085,5.75,-1.872,-11.223,-18.338,-10.552,0.097,-7.482,3.551,-3.863,5.069,-11.311,-12.516,45.247,-3.698,0.598,12.881,-11.464,-1.462,-11.813,12.695,-63.526,4
2.187,11.577,-18.235,28.665,-9.915,18.23,-160.722,11.765,21.113,16.573,6.207,-4.488,5.852,15.466,-1.327,19.429,8.949,15.823,-0.029,-0.72,60.571,5.527,8.282,20.04,3.404,8.273,-1.043,34.711,-58.34,4
-7.549,5.418,-14.63,23.514,-1.708,13.601,-127.774,-13.862,21.092,12.97,4.152,-6.532,6.871,12.377,-0.301,12.75,3.817,9.659,-5.152,-7.38,56.412,0.399,-0.436,15.409,10.061,2.63,-3.604,32.627,-62.892,4
-15.226,1.314,-26.911,17.343,-10.416,2.316,-159.922,-25.119,5.189,0.662,-8.148,-17.284,-8.505,0.069,-0.813,2.491,-2.847,-0.597,-11.807,-15.569,47.646,-6.262,-3.509,12.832,-8.905,-3.008,-11.285,22.861,-52.583,4
-9.575,15.657,-15.101,31.158,-12.455,9.486,-192.037,4.108,4.16,7.321,-4.041,-14.706,-7.472,6.729,-1.324,9.148,3.816,5.552,-4.11,-8.894,58.869,-0.62,6.74,24.603,-37.585,6.729,-5.126,31.547,-32.038,4
-10.59,21.789,1.308,35.225,-8.856,13.063,-159.057,10.252,13.889,10.388,1.598,-11.105,-0.292,17.48,-3.372,13.238,7.398,14.768,-1.032,-5.299,62.396,1.942,5.197,25.09,-13.981,11.333,-0.51,38.176,-42.765,4
-16.215,7.423,-19.186,21.357,-12.433,-2.831,-126.111,-22.034,6.191,-4.992,-7.625,-17.241,-9.513,6.705,-5.93,3.491,2.78,6.556,-14.351,-16.052,50.039,-8.818,-8.128,6.11,7.55,-1.999,-9.731,22.256,-66.288,4
-9.539,-0.269,-35.048,18.262,-17.544,-6.415,-158.26,-27.647,-2.012,-8.061,-12.74,-18.249,-13.602,-6.11,-8.486,-1.124,-2.346,-3.184,-18.948,-19.622,51.525,-11.883,-7.096,0.981,-16.537,-10.194,-14.844,10.451,-64.685,4
-4.406,8.952,-20.156,25.416,-19.576,6.912,-190.377,-9.177,9.773,5.267,-5.555,-14.644,-3.855,-2.518,-11.039,4.001,-1.831,5.016,-8.683,-8.844,61.72,-0.089,5.207,19.423,-17.545,0.575,-6.12,25.809,-51.813,4
-7.988,14.579,-11.427,23.341,-20.581,7.417,-157.399,-13.266,13.349,5.774,-5.55,-16.167,-2.314,1.583,-11.54,4.509,3.293,14.744,-6.625,-9.347,56.023,1.961,5.202,29.137,-8.306,4.161,-4.577,38.079,-44.588,4
-2.345,8.929,-10.391,17.17,-16.974,-0.275,-146.995,-20.425,3.09,-1.916,-10.155,-18.2,-6.41,1.07,-9.992,2.455,4.827,10.631,-12.253,-16.51,51.356,-7.263,-3.513,21.423,-32.888,-3.016,-10.72,30.356,-36.859,4
3.805,15.068,0.891,27.399,-8.248,12.021,-179.124,0.088,13.845,7.82,-0.923,-10.497,1.281,7.216,-3.834,11.674,5.847,11.133,-1.483,-5.735,65.137,-0.595,3.663,27.037,-29.269,6.721,-4.049,34.937,-31.699,4
0.215,30.934,6.013,46.84,-1.58,27.378,-176.383,15.457,28.176,19.083,9.836,-3.314,9.476,11.82,2.83,18.323,14.038,21.88,11.839,6.566,72.244,13.237,16.979,37.256,3.548,19.01,5.688,50.271,-34.741,4
-0.81,16.046,-10.387,37.571,-10.799,8.395,-143.419,-13.248,8.68,-2.453,-6.055,-14.581,-2.316,5.66,-5.882,3.96,10.95,19.809,-5.079,-9.322,55.778,-0.608,2.618,19.288,3.032,1.572,-6.1,33.827,-50.076,4
-4.907,-13.684,-31.894,5.258,-29.744,-22.352,-110.488,-45.51,-13.358,-28.066,-28.591,-30.448,-21.269,0.019,-24.832,-12.438,-4.43,7.494,-29.153,-27.244,42.402,-26.223,-18.39,-1.223,-29.246,-21.483,-22.488,3.567,-65.907,4
-15.661,-8.035,-30.837,5.253,-26.64,-10.546,-142.653,-22.923,2.537,-10.107,-19.341,-22.221,-13.563,6.679,-26.344,-4.229,-0.839,9.023,-18.365,-16.97,52.606,-16.975,-7.1,13.635,-18.971,-12.753,-15.806,11.76,-59.694,4
-13.596,13.49,-11.851,31.888,-7.658,21.227,-174.785,9.888,23.027,18.08,2.196,-5.293,7.967,13.332,-11.461,8.583,12.994,16.187,-0.416,-3.633,62.287,3.022,6.739,25.917,4.102,4.679,-5.031,34.802,-45.802,4
-5.385,8.866,-9.79,27.245,-12.262,14.546,-141.823,-9.59,14.807,8.328,-1.905,-11.435,3.348,7.171,-4.789,3.964,5.808,11.047,-10.662,-9.265,55.053,-5.178,-5.563,13.083,-28.178,0.063,-8.612,29.645,-51.904,4
-5.892,1.173,-24.125,15.435,-20.446,-5.448,-108.893,-41.856,5.058,-6.025,-10.612,-19.108,-7.413,0.504,-6.321,-0.651,-2.907,4.889,-18.335,-13.354,54.998,-12.345,-9.656,13.582,-57.351,-7.622,-10.653,21.93,-58,4
-5.374,8.856,-21.027,30.276,-1.47,7.365,-141.06,-20.809,15.812,5.764,0.157,-6.281,6.939,5.627,-2.729,8.059,5.293,7.958,-4.485,-3.095,67.75,2.524,5.211,24.327,-24.506,0.583,-5.519,30.618,-51.794,4
0.779,14.483,-7.173,35.881,9.802,25.8,-173.194,9.438,27.066,21.127,10.915,2.434,20.252,12.793,4.446,14.711,10.411,12.048,5.253,5.105,72.806,11.743,11.353,22.254,8.306,10.316,-0.391,34.173,-47.644,4
4.364,15.493,-2.555,26.624,0.058,22.701,-144.332,7.891,27.552,23.668,9.367,-3.716,13.059,11.756,7.516,13.159,8.864,12.036,4.736,3.563,68.122,10.194,11.342,26.842,-23.977,14.404,3.708,31.577,-35.813,4
-0.251,13.94,-6.139,27.622,-1.991,13.969,-111.4,-9.535,20.864,14.422,4.235,-9.348,5.874,8.67,3.41,9.56,8.855,12.536,-1.416,-0.539,62.419,8.135,9.793,32.451,-55.204,12.341,-0.394,33.083,-30.142,4
-15.107,3.68,-18.428,20.934,-3.526,4.221,-78.501,-34.628,7.523,1.088,-4.479,-14.974,1.769,7.637,-5.815,5.452,4.747,10.987,-12.174,-6.686,54.159,-2.119,-2.512,18.586,-34.657,2.082,-13.201,28.439,-57.264,4
-17.654,0.09,-28.656,10.155,-10.182,-1.419,-110.698,-39.717,2.393,0.575,-7.548,-16.496,-1.819,6.093,-4.785,2.373,-0.38,4.316,-16.26,-9.753,52.568,-10.826,-10.194,8.321,-36.671,-4.067,-16.774,19.189,-75.65,4
-4.829,2.139,-26.066,13.219,0.074,5.243,-142.862,-12.013,11.1,9.283,-1.905,-9.819,0.745,8.648,6.491,5.444,1.157,1.238,-9.584,-5.133,56.614,-4.156,-3.011,13.948,-61.738,0.035,-12.659,13.534,-60.205,4
-7.898,-0.937,-25.015,12.693,10.32,10.361,-160.138,0.295,16.724,9.274,1.171,-8.272,2.793,15.812,9.558,9.025,6.279,10.97,-3.939,-0.004,55.021,4.045,0.578,14.447,-50.917,2.597,-11.109,11.472,-56.046,4
-18.648,4.187,-21.916,10.631,1.088,11.375,-127.19,-10.464,18.244,12.339,2.194,-6.727,7.401,17.845,6.475,10.553,11.908,20.693,2.213,2.045,54.966,6.091,0.577,15.457,-23.202,6.692,-8.024,21.706,-62.65,4
-12.482,9.306,-9.087,21.891,-6.085,13.925,-94.275,-17.113,20.275,17.449,2.704,-3.134,14.054,9.63,5.444,11.054,9.847,13.5,3.235,1.53,56.448,5.06,4.163,20.564,-28.302,11.809,-7.504,32.955,-50.804,4
-11.445,-0.437,-11.127,22.894,-3.518,8.788,-110.575,-23.244,14.107,9.235,-2.934,-10.816,4.306,0.912,-0.71,4.896,-1.434,1.191,-7.526,-4.106,48.194,-4.167,-0.452,15.421,-49.278,3.088,-14.157,23.701,-48.192,4
-16.044,4.174,-21.362,19.285,-2.49,9.804,-142.74,-12.462,13.068,7.176,-2.931,-13.367,-3.383,3.984,-2.246,3.866,2.154,9.387,-7.006,-3.59,46.097,-4.675,-4.038,12.332,-42.569,-2.551,-10.556,23.165,-58.902,4
-3.22,28.249,-10.582,37.709,-0.95,25.676,-149.257,7.018,21.252,17.928,7.83,-1.57,7.891,13.202,11.077,14.621,16.496,25.772,4.784,7.172,58.858,8.138,8.262,25.639,-23.571,14.358,3.287,47.22,-53.208,4
3.443,31.807,-2.887,46.38,-2.486,21.551,-116.32,-14.506,12.009,12.787,8.847,-3.106,7.371,9.09,13.115,15.631,11.869,20.623,3.754,9.214,58.8,11.716,12.352,31.761,-30.207,23.053,5.845,48.71,-40.347,4
-6.807,14.356,-15.179,22.768,-11.193,0.013,-113.642,-41.132,-1.835,0.991,-0.896,-11.299,-5.956,-3.726,-0.218,4.857,-1.975,5.745,-4.446,-0.529,46.958,2.995,-0.981,20.971,-36.837,9.71,-2.87,23.046,-39.282,4
-11.411,4.608,-22.849,6.351,-13.231,0.525,-145.804,-18.549,3.29,3.039,-4.993,-8.726,-4.413,-2.186,-6.366,2.803,-0.436,4.202,-6.491,-6.164,42.3,-4.181,-8.664,8.142,-31.677,-0.034,-11.064,12.264,-52.563,4
-11.399,1.53,-26.924,16.079,-10.144,9.234,-147.195,-3.673,6.361,5.085,-5.5,-11.279,-1.847,10.624,-4.823,1.263,3.663,6.76,-12.12,-7.182,41.233,-9.3,-7.631,5.06,-52.65,-0.546,-14.639,15.326,-70.441,4
-7.802,6.139,-26.897,29.383,-7.06,9.225,-114.26,-21.088,5.33,6.617,0.14,-9.731,-0.821,14.2,-1.744,0.749,4.171,8.802,-8.01,-3.589,44.778,-3.143,-1.988,13.765,-68.479,4.578,-6.428,23.507,-63.198,4
2.452,18.94,-10.477,30.378,-3.467,14.339,-81.358,-24.141,16.595,14.295,10.899,5.136,12.5,10.087,7.992,12.532,12.364,14.941,9.929,7.685,55.492,16.328,13.383,26.046,-38.697,18.405,6.386,40.902,-40.081,4
-1.649,20.458,-9.954,21.126,-2.951,15.349,-113.552,-20.018,18.115,13.256,7.814,1.032,15.049,9.052,11.057,16.105,16.45,18,10.432,9.727,51.338,16.312,16.956,28.582,-24.313,22.485,1.257,43.423,-44.14,4
-12.918,10.192,-21.727,19.568,-4.485,9.186,-145.714,-20.511,8.363,8.12,-1.928,-13.314,3.763,12.117,3.362,4.306,9.774,16.957,-1.874,-0.529,40.016,2.463,5.668,30.09,-47.343,13.754,-6.429,31.084,-48.706,4
-5.22,7.62,-8.898,25.184,-7.042,15.324,-171.184,-5.633,13.478,13.235,0.123,-8.177,5.296,18.253,-0.228,3.789,11.301,20.527,1.202,-0.016,43.562,7.072,7.2,31.597,-44.734,12.203,-0.275,28.492,-33.288,4
-3.166,3.002,-8.889,16.449,-21.892,14.284,-181.771,0.008,16.538,7.586,-2.438,-7.657,5.803,17.722,-6.375,6.859,14.876,21.018,3.25,4.082,41.469,10.138,11.803,20.294,-30.857,10.654,-3.861,23.34,-52.723,4
-16.995,-9.809,-38.594,3.113,-31.604,-4.685,-167.244,-20.485,4.227,-10.352,-16.78,-20.457,-7.01,7.971,-17.127,-4.418,9.225,16.387,-7,-4.631,28.107,-5.241,0.008,10.028,-48.757,0.397,-16.665,12.046,-84.945,4
-9.293,-7.75,-41.629,5.159,-15.691,-11.853,-134.29,-35.321,0.124,-10.854,-15.227,-16.85,-8.54,6.426,-12.499,-7.488,7.679,17.395,-7.505,-8.212,31.665,-8.31,-3.066,18.727,-57.93,2.446,-12.55,22.28,-65.393,4
9.159,1.992,-25.706,3.617,-6.453,-5.181,-101.368,-34.773,3.71,-0.597,-3.428,-9.149,-2.896,11.03,-1.216,1.229,8.184,16.353,-0.325,-0.007,42.905,1.945,6.159,26.905,-39.941,12.177,-3.315,35.065,-36.638,4
5.051,1.99,-21.582,3.613,-14.644,3.021,-133.542,-21.931,7.292,4.014,-0.351,-9.14,-0.332,7.433,-4.289,4.302,3.565,12.238,4.798,7.165,43.374,7.578,11.276,26.366,-18.896,12.677,-3.312,29.907,-36.601,4
2.997,14.283,-1.58,32.299,-6.432,22.998,-165.683,5.243,25.216,19.38,9.895,1.628,15.038,11.524,1.863,10.957,12.271,22.472,20.675,17.916,51.015,23.965,25.097,41.709,2.639,24.96,5.913,37.562,-27.343,4
16.314,32.712,10.717,51.222,9.968,37.832,-132.73,12.41,36.974,35.242,24.742,9.823,27.83,22.271,22.354,20.68,22.504,28.085,31.413,26.608,59.673,39.822,36.343,58.574,-4.535,45.428,16.665,60.578,-30.902,4
13.736,17.31,-18.495,24.018,3.298,21.913,-111.08,-11.168,19.006,20.862,11.91,-2.994,9.872,14.564,18.233,8.364,7.625,13.2,11.401,11.724,45.781,20.827,17.863,44.17,-36.806,33.599,5.378,55.907,-62.122,4
-2.671,-2.687,-32.821,1.453,-4.902,1.911,-143.245,-18.329,5.155,2.398,-7.57,-11.7,-7.557,5.328,-4.839,-5.989,0.445,15.236,-3.467,-0.583,36.514,0.826,2.476,22.097,-37.282,11.024,-8.46,31.773,-55.4,4
-1.644,12.172,-8.71,15.284,4.837,10.618,-119.023,-2.429,19.494,14.691,4.733,-1.443,5.771,20.692,-0.224,6.313,22.474,35.713,15.492,16.324,50.822,17.731,20.404,28.735,-4.457,21.259,2.307,30.716,-22.557,4
11.165,23.431,-0.504,21.929,6.881,22.39,-86.116,-3.452,28.696,26.459,19.073,3.682,17.548,32.454,18.732,16.553,30.648,33.628,27.259,24.504,54.358,30.009,30.118,41.001,1.695,34.045,14.088,38.882,-29.707,4
7.568,7.014,-20.484,9.099,-7.983,13.659,-98.326,-21.379,14.323,13.625,5.734,-5.031,6.772,21.663,9.492,3.728,13.712,18.225,7.252,6.549,40.471,11.024,9.083,30.202,-30.582,16.593,0.754,25.523,-61.952,4
-7.809,-2.215,-39.931,7.041,-11.561,5.448,-130.503,-24.431,7.136,6.951,-4.005,-9.124,2.155,12.932,-8.449,-3.448,7.038,18.719,-4.026,1.932,36.844,-0.77,-2.709,15.827,-49.507,1.719,-11.542,14.739,-74.698,4
-2.678,7.521,-34.768,19.841,1.258,16.201,-150.864,-7.501,21.474,22.314,10.856,0.106,15.473,17.53,-0.243,6.802,17.789,24.336,10.323,17.299,43.98,12.55,11.126,27.082,-52.531,14.525,-0.772,23.946,-64.377,4
16.28,15.71,-12.704,28.018,9.454,30.53,-179.403,10.437,32.723,32.025,21.091,7.791,21.605,23.66,15.639,11.406,21.87,26.873,20.046,20.356,49.059,23.809,22.898,47.547,-56.577,30.392,8.962,28.021,-40.747,4
12.678,15.695,-10.13,23.892,9.444,25.376,-146.436,0.181,21.419,21.747,11.336,2.66,10.312,21.587,13.061,3.71,12.114,23.26,14.903,12.138,47.473,20.199,17.752,43.914,-26.806,27.8,2.806,28.505,-35.07,4
-1.167,14.654,-23.952,16.183,8.41,13.055,-113.502,-24.922,10.127,11.992,5.689,-4.003,1.593,13.369,3.315,-2.442,4.417,11.454,8.228,8.028,41.278,14.031,13.124,27.988,6.008,19.576,1.778,37.186,-57.065,4
4.469,18.738,-17.268,20.266,6.865,20.727,-145.663,-7.991,21.9,20.689,12.856,-1.95,8.764,10.794,6.897,-0.39,9.536,16.565,8.22,9.044,41.236,16.066,16.184,33.083,-9.879,21.605,5.875,38.173,-59.569,4
5.489,15.133,-10.079,25.881,3.272,31.977,-177.793,22.755,31.1,26.816,13.355,-0.923,14.903,14.369,10.989,-1.414,11.063,26.283,7.187,6.474,42.732,16.05,14.631,37.661,-33.436,23.121,0.234,27.889,-44.14,4
-13.471,-1.276,-24.925,12.023,-3.904,11.965,-144.828,-9.543,15.7,9.37,1.046,-9.119,4.641,12.306,0.22,-10.122,2.856,8.838,-1.017,-2.754,33.98,5.275,6.932,22.766,-31.865,12.339,-10.013,21.201,-52.805,4
-16.019,-3.836,-28.999,2.277,-5.949,-7.002,-111.895,-41.809,4.413,0.14,-3.053,-11.671,-3.048,10.756,-5.416,-12.161,2.853,0.12,-3.578,-3.776,31.897,0.659,6.925,24.281,-40.543,6.179,-8.466,21.18,-62.486,4
4.489,12.049,-11.551,16.107,5.328,10.935,-144.059,-12.053,14.655,13.972,7.196,-3.463,4.128,17.918,6.885,-5.489,12.071,20.612,6.672,8.011,42.111,10.393,12.553,43.212,-53.31,16.419,0.764,27.819,-53.202,4
4.484,14.087,-3.855,24.287,6.859,22.195,-176.19,12.037,16.689,13.445,9.238,-3.972,4.636,20.462,9.952,-7.533,15.133,23.665,8.715,8.003,40.532,9.358,9.979,37.021,-35.838,19.989,0.763,31.889,-55.711,4
-16.525,1.777,-15.635,14.017,-9.029,4.755,-143.226,-13.59,4.89,-0.913,-1.529,-12.677,-4.59,12.244,-3.378,-14.697,11.532,10.322,-2.565,-2.252,30.758,-0.898,3.309,19.053,-11.212,9.21,-8.459,23.148,-60.778,4
-15.484,1.263,-26.89,12.466,-14.655,2.188,-166.649,-12.04,7.959,4.724,-3.577,-8.566,-0.487,7.109,-1.838,-14.17,9.983,16.459,-0.513,1.337,34.313,3.714,8.941,26.719,-9.151,8.177,-7.938,16.977,-46.373,4
2.463,8.434,-23.277,16.04,-9.005,18.068,-198.758,12.051,20.246,16.502,5.136,-0.36,10.272,14.274,7.385,-10.57,11.51,23.103,12.808,11.069,41.963,13.956,19.179,39.5,-16.314,18.415,1.291,25.67,-39.666,4
2.46,6.377,-20.692,6.802,-14.119,14.463,-165.771,2.305,16.64,12.387,6.155,-2.921,7.187,23.481,-1.331,-11.584,12.011,17.956,9.721,8.497,39.36,10.868,13.524,32.8,-27.569,17.884,-0.247,32.304,-52.947,4
-8.301,-0.802,-35.016,-1.402,-15.13,-0.408,-132.818,-14.091,5.352,4.178,-2.56,-8.042,-1.529,19.359,-8.502,-16.696,8.413,17.426,-3.096,3.878,31.636,3.173,2.752,21.496,-37.275,12.231,-6.394,27.661,-67.238,4
-4.706,-2.851,-41.641,0.137,-1.795,-3.481,-164.96,-9.466,4.322,2.124,-6.144,-8.546,-3.064,5.508,1.24,-23.339,3.794,11.261,-4.118,3.874,33.141,3.17,6.335,20.963,-31.09,14.268,-4.851,24.047,-72.294,4
3.495,1.251,-29.816,2.698,-0.768,2.67,-176.066,-2.797,8.416,5.708,0.01,-7.513,-0.5,3.965,5.85,-22.291,4.302,3.565,0.497,4.894,40.28,6.24,12.989,27.089,-16.714,15.278,-2.285,22.486,-60.439,4
-3.168,3.299,-20.052,4.232,-17.674,8.302,-151.299,-1.769,8.92,10.313,3.596,-5.968,1.55,12.671,-4.915,-20.732,5.323,9.197,0.496,5.914,39.728,5.21,6.828,27.575,-18.747,12.701,-4.332,21.951,-42.96,4
-17.51,-3.877,-24.131,-3.456,-27.39,-2.977,-118.36,-20.723,-0.31,-0.968,-6.654,-12.622,-5.624,8.047,-14.131,-30.957,-0.83,8.163,-5.139,-1.264,27.905,-3.505,-1.375,16.789,-36.147,8.078,-8.426,20.905,-51.626,4
-22.615,-17.705,-41.525,-23.433,-26.338,-26.027,-88.528,-48.367,-17.216,-21.971,-19.967,-23.88,-19.451,-3.744,-15.654,-41.172,-5.953,-1.579,-14.356,-14.583,19.168,-12.211,-3.935,6.526,-45.332,-3.201,-17.127,11.15,-76.678,4
-10.809,-17.688,-52.754,-22.897,-24.262,-21.391,-120.715,-31.925,-13.1,-15.802,-15.336,-17.709,-15.333,3.944,-11.028,-34.471,1.738,8.669,-11.268,-7.396,26.321,-7.588,-2.395,14.204,-32.479,-4.735,-15.06,8.065,-78.65,4
8.157,3.335,-35.283,6.327,-12.455,11.418,-152.87,0.895,16.627,15.465,9.27,4.85,9.786,24.945,3.328,-17.531,20.692,30.689,13.334,19.251,47.299,15.474,15.026,35.194,-15.54,19.348,6.472,31.111,-58.592,4
13.272,15.627,-17.317,18.104,3.951,22.678,-119.929,2.431,25.831,24.159,22.068,13.042,20.534,32.092,14.595,-8.804,29.892,36.806,28.178,28.966,59.035,30.315,32.43,46.43,-7.84,37.26,16.711,47.986,-46.238,4
2.5,6.39,-20.886,3.741,5.484,8.31,-87.022,-22.675,10.949,10.302,8.726,3.296,11.805,25.913,9.97,-15.967,24.227,33.696,17.391,15.617,53.341,19.014,22.151,40.748,-1.172,29.025,5.424,34.105,-42.605,4
-0.064,4.846,-12.668,6.811,-2.718,10.351,-119.21,-10.869,13.499,14.39,2.57,-1.319,13.33,23.838,2.788,-25.685,19.592,34.174,11.226,10.478,51.238,8.749,9.321,34.559,-7.831,21.824,2.345,28.948,-38.464,4
4.034,7.915,-7.532,16.026,-8.863,15.976,-86.303,-2.149,19.634,21.036,8.715,-0.805,14.853,19.715,3.297,-26.684,18.548,30.042,12.24,11.493,54.261,9.765,10.849,28.889,-37.025,19.753,4.392,38.653,-52.258,4
0.444,-3.876,-28.017,5.252,-12.44,-0.946,-53.429,-33.397,7.831,6.158,2.046,-6.439,3.568,13.548,-0.292,-27.682,10.845,16.179,0.957,4.309,50.108,1.046,4.69,18.102,-49.795,8.463,-2.785,25.807,-72.698,4
7.616,0.739,-22.866,11.394,-6.28,5.715,-85.651,-25.679,18.069,10.763,6.655,-0.285,10.736,21.731,1.245,-27.142,12.371,14.114,1.468,8.915,56.718,3.606,5.71,22.182,-27.204,12.553,2.341,17.584,-55.719,4
20.928,21.23,4.309,34.437,2.948,37.473,-117.841,7.134,39.568,35.855,25.604,12.523,29.169,28.882,13.539,-19.43,21.068,24.346,17.348,23.251,72.03,21.533,18.512,37.017,-8.734,29.958,13.097,33.96,-36.196,4
3.489,7.377,-13.626,14.422,-6.789,21.554,-84.935,-9.779,19.548,19.425,7.647,-0.81,10.697,8.873,5.841,-27.608,9.264,14.075,6.06,9.908,62.225,8.704,8.248,24.685,-15.897,18.145,-1.261,29.828,-63.824,4
-22.13,-15.172,-37.178,-17.355,-18.565,-10.743,-52.062,-42.045,-7.623,-12.357,-19,-18.74,-12.88,-5.481,-12.608,-45.511,-4.066,-2.845,-11.365,-9.058,48.842,-11.797,-6.105,8.266,-32.275,-1.34,-14.58,12.892,-72.47,4
-8.275,0.212,-17.674,1.617,-14.961,2.587,-70.966,-29.195,6.216,1.487,-0.026,-6.426,4.039,9.382,-1.324,-37.269,7.209,9.453,6.065,4.271,61.089,6.658,6.196,24.652,-46.588,12.493,-0.733,25.174,-39.609,4
9.664,16.094,-8.947,23.133,-15.458,31.786,-103.17,3.622,23.116,21.466,13.806,5.364,16.33,18.082,13.021,-24.424,12.837,21.227,17.33,17.075,69.225,17.922,13.362,34.361,-45.004,24.264,6.953,35.395,-51.865,4
-1.104,7.881,-27.893,10.814,-16.467,22.533,-98.969,-6.116,15.409,14.272,1.497,-1.302,5.555,12.428,2.25,-32.084,4.628,12.497,5.017,8.349,64.032,3.047,6.177,21.519,-28.565,13.993,1.31,30.749,-84.089,4
-1.103,10.434,-25.304,11.828,-0.057,18.412,-66.082,-13.794,13.856,17.332,10.717,2.286,12.722,19.588,1.735,-30.002,13.844,19.656,13.209,13.463,73.702,9.704,14.367,27.133,-13.168,18.59,7.457,39.428,-52.754,4
16.316,24.256,-6.835,26.161,12.751,37.349,-98.291,10.81,29.212,32.684,28.637,13.042,28.079,28.278,22.226,-14.091,26.126,36.543,31.127,28.819,86.948,27.113,25.624,40.938,10.412,34.965,15.646,48.098,-19.913,4
10.152,26.794,1.368,24.085,11.713,41.922,-130.468,20.021,36.867,32.651,24.51,13.029,27.538,20.052,27.839,-14.589,19.44,29.846,26.485,25.204,83.275,22.475,21.5,36.286,19.623,34.93,13.069,46,-35.775,4
-8.813,19.082,-0.17,16.889,8.116,27.536,-97.55,-3.565,24.535,22.885,16.289,5.844,22.388,11.323,12.954,-24.821,12.76,16.497,14.163,12.371,73.458,12.207,14.306,32.152,-12.672,27.211,7.933,45.954,-53.158,4
-6.755,8.305,-14.002,8.163,-0.089,13.164,-64.665,-31.738,7.604,11.591,4.489,-5.433,8.533,13.873,1.671,-34.53,11.211,14.431,1.853,3.137,66.725,1.436,2.509,29.558,-44.935,20.011,-0.272,34.637,-57.203,4
-0.601,3.685,-27.82,1.495,-6.237,10.077,-96.876,-26.584,3.498,1.845,-5.249,-10.038,-3.259,20.007,1.157,-41.668,8.126,14.929,-5.321,0.573,65.121,-7.787,-3.642,16.208,-12.102,11.282,-6.419,18.209,-57.146,4
-9.822,5.219,-22.669,5.592,-7.255,17.239,-129.054,2.645,9.13,6.967,5.002,-0.807,6.991,19.987,0.643,-34.454,12.216,13.889,3.906,7.744,70.691,-0.607,4.047,13.631,10.964,11.783,-3.339,22.802,-48.892,4
-10.837,3.677,-12.913,2.512,-9.297,19.271,-96.137,4.691,17.83,14.132,11.145,1.243,13.644,14.332,-2.944,-28.271,17.327,10.801,10.562,12.347,76.768,7.591,9.678,26.937,-21.323,19.456,2.3,30.976,-51.917,4
3.519,8.284,-14.949,-2.613,-4.677,14.129,-63.254,-13.244,19.349,11.044,2.937,-3.369,7.995,15.854,3.207,-34.903,14.236,10.791,6.965,10.798,76.692,8.095,9.668,34.082,-20.277,22.51,4.347,32.994,-60.574,4
0.954,14.423,-16.471,9.685,-4.16,12.578,-30.403,-22.965,6.01,7.447,4.983,-1.316,9.011,18.912,7.815,-36.405,11.148,18.464,5.422,9.25,72.517,8.599,10.683,29.95,12.531,23,4.854,38.596,-51.292,4
-16.978,4.163,-12.869,15.31,-17.476,10.516,2.415,-29.602,-3.73,6.415,6.003,-3.364,4.392,9.16,-2.439,-36.881,6.526,15.372,-1.244,3.093,68.346,1.931,2.476,20.698,9.957,14.78,0.239,33.435,-44.068,4
-12.35,0.572,-12.343,10.684,-13.873,11.018,-29.862,-17.789,7.544,5.896,-1.175,-8.484,-2.273,1.978,-0.9,-42.48,2.933,4.598,-3.804,-1.52,72.376,-4.219,-1.113,20.165,-7.984,7.593,-0.786,25.204,-48.123,4
8.667,12.867,-14.893,17.333,-0.539,19.716,-62.108,6.819,14.197,7.939,4.974,-3.864,5.414,10.173,13.446,-34.24,8.053,11.254,4.909,6.166,79.476,5.007,9.134,29.367,3.295,14.758,4.338,31.327,-45.513,4
9.683,13.879,-17.952,20.902,-4.124,23.794,-29.258,0.665,5.986,11.005,13.678,3.312,11.556,13.749,8.821,-23.96,14.705,22.001,6.953,13.332,78.371,9.1,9.637,29.337,2.78,17.817,7.407,29.759,-45.467,4
-0.573,16.426,-14.86,19.344,3.052,25.82,3.559,-10.607,13.152,19.703,15.713,8.944,15.131,15.272,5.226,-24.96,15.715,22.491,10.02,15.368,82.392,12.165,7.579,27.259,-16.179,18.311,9.961,30.241,-51.057,4
-0.06,29.73,-6.136,33.157,18.418,31.429,-3.105,0.675,26.459,26.856,19.284,9.447,22.288,24.991,19.053,-24.935,15.699,19.907,17.182,16.377,87.432,20.35,15.256,33.891,-18.724,28.027,10.976,47.629,-53.056,4
-0.572,18.429,-11.765,30.563,2.006,22.177,1.509,-7.523,14.137,12.997,9.531,-2.858,11.507,17.794,10.837,-33.62,6.974,7.592,2.821,4.577,76.074,5.473,4.994,25.148,-13.07,16.216,1.231,36.823,-55.564,4
-11.843,-6.692,-28.147,4.404,-16.951,9.859,-23.083,-23.909,-0.734,-1.873,-4.823,-9.515,-2.337,-0.155,-9.666,-45.882,-2.766,-3.174,-8.965,-5.673,68.313,-11.439,-10.892,6.168,-18.18,-8.391,-7.991,4.511,-49.873,4
-11.831,-3.099,-25.557,5.937,-3.102,20.608,-55.335,-5.955,11.562,10.424,4.915,0.229,9.961,7.53,0.078,-33.54,7.482,10.149,9.487,6.628,80.54,3.429,2.438,14.871,-22.772,4.937,-0.811,3.994,-48.286,4
3.038,10.224,-14.261,25.399,6.123,28.784,-50.157,5.835,20.772,20.148,15.156,4.839,17.636,22.379,14.422,-24.285,17.721,23.459,13.063,12.769,84.558,11.623,13.195,29.713,-12.503,23.888,6.362,34.216,-69.755,4
4.572,4.578,-21.931,21.275,-11.814,13.386,-17.319,-16.201,4.87,2.197,-0.74,-5.924,1.737,14.16,-1.986,-41.679,7.457,12.677,-6.417,-1.589,72.178,-3.758,-0.651,20.974,-1.732,5.933,-0.817,33.158,-71.734,4
-9.777,-4.135,-25.496,7.421,-28.196,0.565,15.486,-36.164,-4.869,-9.076,-8.936,-12.066,-2.364,1.85,-17.353,-47.273,0.79,5.492,-4.362,-6.71,70.057,-2.73,-1.675,16.342,-8.391,-3.807,-7.476,14.169,-38.875,4
-2.595,7.139,-8.564,15.099,-18.947,13.884,-16.805,-23.321,7.944,10.401,9.516,0.754,12.496,7.996,-3.503,-30.832,12.572,17.782,16.647,10.203,83.307,14.692,17.282,31.183,-5.309,18.226,4.315,23.889,-27.565,4
23.535,30.698,3.228,41.723,10.274,45.633,-49.064,9.491,25.867,34.981,27.949,18.684,27.34,29.505,18.529,-16.456,25.367,34.67,30.463,28.123,98.081,27.997,29.048,44.984,27.484,36.651,24.29,51.017,-39.321,4
24.024,35.791,-0.874,52.44,19.485,51.223,-16.227,18.19,27.89,33.921,26.897,18.153,28.85,43.308,19.535,-13.366,28.928,38.222,30.945,29.632,101.056,28.994,26.457,46.988,32.068,36.102,27.852,54.552,-34.671,4
6.069,16.8,-8.045,26.772,-1.027,18.897,16.577,-14.103,11.98,9.809,11.5,3.79,11.915,26.871,6.708,-25.648,20.702,24.351,18.106,15.258,89.685,13.595,16.185,39.257,-0.24,23.771,11.943,38.104,-37.71,4
10.674,10.123,-14.697,6.253,-5.124,4.021,-15.715,-31.508,-0.327,-0.447,4.317,1.225,1.144,7.376,5.164,-35.356,11.46,14.593,13.477,10.632,86.009,9.483,13.095,31.533,-7.924,14.525,6.296,33.455,-54.066,4
22.958,21.383,-18.269,25.715,13.836,33.218,-47.975,1.312,12.481,19.533,17.632,10.957,16.512,20.689,12.332,-20.976,18.108,21.751,27.808,21.892,96.681,27.917,22.815,34.575,24.872,22.196,19.097,40.594,-48.377,4
11.152,22.387,-15.177,41.058,13.31,48.042,-18.213,16.679,24.252,32.834,25.299,11.971,24.693,29.89,10.782,-16.345,23.213,25.827,28.805,21.358,96.072,29.426,25.866,37.102,26.896,30.37,21.639,40.553,-35.521,4
-2.179,14.68,-9.526,27.185,-4.634,30.063,-12.559,6.417,12.957,16.407,9.392,-0.336,8.787,10.392,2.062,-36.308,8.333,15.043,8.796,5.967,83.168,10.953,13.545,30.405,-5.406,20.606,9.322,36.926,-44.194,4
-0.127,10.054,-6.955,16.399,-13.851,14.664,-8.448,-3.324,3.722,1.022,-1.888,-8.533,0.069,2.697,-3.575,-42.42,1.665,8.368,-0.434,-0.186,81.036,2.233,3.798,23.715,-8.987,7.778,2.653,36.89,-51.835,4
5.508,7.483,-2.85,18.432,-8.714,13.112,24.348,-17.153,12.428,6.144,6.311,-2.889,9.802,14.99,-1.522,-31.107,13.959,17.581,5.202,2.888,84.029,1.719,6.356,23.178,20.223,8.282,6.749,38.902,-44.611,4
11.65,19.771,5.862,31.221,7.176,26.931,16.127,-6.377,23.174,20.482,19.112,7.36,20.039,23.684,7.188,-25.44,23.679,30.371,14.93,11.082,83.432,10.426,17.62,30.328,27.888,20.569,16.988,43.474,-34.832,4
15.225,33.583,8.93,46.559,14.854,44.323,-16.165,25.392,27.761,29.683,21.655,9.914,24.117,32.37,11.28,-22.853,23.655,30.341,22.088,19.78,82.837,21.687,21.189,34.396,14.028,28.233,22.094,42.918,-28.137,4
8.037,22.279,-3.374,38.316,1.519,36.594,-0.779,16.658,24.147,22.993,11.899,1.195,17.433,29.776,2.047,-26.929,17.484,21.089,13.869,10.026,75.069,11.419,6.823,18.48,-1.868,16.934,11.826,32.117,-36.306,4
0.857,8.936,-13.104,23.933,-6.167,22.213,15.103,-6.413,13.877,11.7,4.203,-5.466,9.219,11.815,-2.566,-38.173,6.708,12.359,2.072,-2.791,65.26,-1.4,-2.406,5.654,-15.186,3.085,1.568,29.011,-57.274,4
4.442,19.686,-4.382,34.155,8.184,31.412,-17.188,7.426,13.863,14.762,13.42,1.712,14.333,13.853,11.269,-35.06,7.725,10.81,8.73,10.019,70.318,10.384,9.892,21.017,-12.097,11.279,9.251,40.765,-58.242,4
9.561,26.326,-0.791,37.707,18.934,36.504,15.617,5.369,18.46,19.87,23.141,10.419,21.491,28.183,20.992,-23.755,18.476,17.971,21.016,22.817,78.957,19.083,19.616,29.705,14.043,24.588,18.976,41.749,-37.691,4
7.502,20.152,-15.648,24.349,14.304,24.684,48.389,-21.276,8.708,11.141,15.945,4.773,15.834,22.007,14.823,-25.78,18.458,23.588,20.483,15.109,77.853,14.453,16.523,17.38,27.349,24.563,17.932,32.485,-35.092,4
5.445,27.817,-14.607,33.547,10.191,26.196,16.066,-7.935,5.113,7.544,10.294,0.67,11.719,17.375,12.759,-28.828,14.341,23.053,18.413,13.557,74.702,19.049,17.018,22.486,11.952,26.588,16.89,39.625,-47.352,4
8.002,38.035,8.461,47.345,9.669,32.318,1.193,16.152,18.94,14.709,15.919,7.329,19.905,28.116,12.746,-24.701,19.45,26.616,21.981,17.642,72.578,23.129,19.051,35.784,4.768,30.66,18.41,52.393,-39.62,4
5.944,26.214,9.99,30.392,6.073,23.576,33.979,1.791,21.483,14.694,13.341,6.297,22.446,26.551,3.512,-27.75,20.967,28.638,17.861,9.428,68.407,10.298,12.884,24.989,11.423,20.383,13.78,46.193,-25.748,4
-0.722,13.38,-9.488,16.529,3.506,23.553,48.802,-8.457,13.777,13.142,5.644,-1.906,14.739,17.815,3.508,-31.821,13.261,19.388,7.084,4.295,64.752,-1.495,3.137,10.107,7.826,9.604,7.619,36.413,-39.555,4
1.328,17.977,-14.089,25.222,6.576,31.726,16.478,6.921,17.349,19.277,10.761,1.17,13.7,18.309,16.825,-29.74,12.224,15.783,6.053,9.414,64.688,-0.469,1.085,9.073,8.842,11.131,8.636,38.938,-61.545,4
4.401,21.546,-14.588,25.709,6.057,26.059,32.855,7.938,20.406,20.282,17.41,6.292,18.809,20.853,15.783,-29.71,17.334,24.988,13.219,11.454,67.697,6.191,9.793,9.576,19.08,15.731,13.75,35.825,-58.409,4
-0.727,13.327,-23.795,19.023,2.465,21.422,52.802,-3.34,11.676,16.163,12.782,1.675,17.253,21.856,3.472,-29.68,15.78,23.426,14.23,10.418,67.117,7.722,13.369,12.128,3.691,18.277,15.274,23.494,-47.592,4
-1.238,8.191,-19.16,21.566,3.999,26.012,20.474,4.86,9.615,12.561,6.622,-2.425,12.113,19.785,2.444,-30.163,8.08,10.083,7.556,5.284,54.242,2.079,3.622,17.239,-16.292,15.697,10.135,26.032,-51.643,4
-0.212,7.67,-7.358,21.032,1.434,21.375,-11.822,13.052,9.605,5.376,3.029,-6.009,5.441,11.056,0.392,-40.891,1.924,4.95,0.376,-3.943,42.917,-6.12,-4.066,9.025,3.704,7.484,2.44,34.715,-55.178,4
-11.483,2.54,-16.06,13.839,-11.375,9.57,20.978,-6.429,-1.163,-4.363,-4.147,-14.2,-6.86,7.459,-11.903,-48.535,-0.127,6.994,-3.723,-8.037,43.386,-10.213,-2.525,-4.817,23.168,1.842,-2.685,26.484,-47.438,4
-12.496,2.025,-25.777,13.825,-14.95,4.95,53.745,-27.939,-8.846,-8.457,-6.192,-15.723,-10.951,8.476,-11.891,-42.851,2.947,9.036,-1.67,-3.418,47.441,-6.104,-1.498,0.311,1.628,5.426,0.391,18.773,-48.415,4
6.472,11.244,-9.87,18.934,-4.177,9.044,21.416,-16.641,-1.153,-3.326,3.036,-3.924,-0.694,9.492,-0.097,-34.611,13.702,16.712,8.578,7.856,52.005,8.759,5.676,18.242,-4.009,16.179,9.613,31.049,-56.051,4
10.564,14.819,-0.639,21.989,0.95,15.695,-10.881,2.331,5.509,4.362,9.181,3.765,5.966,21.778,1.953,-30.478,23.422,25.404,18.816,18.094,57.076,18.484,15.916,19.248,27.246,24.36,15.238,38.703,-48.311,4
-4.304,3.021,-17.032,18.381,-4.174,13.117,21.917,-8.942,1.917,4.358,6.61,1.199,5.96,32.515,-3.172,-27.886,22.374,25.891,18.285,12.441,52.92,9.244,9.24,6.933,13.898,16.651,9.075,25.856,-38.528,4
-3.275,-2.617,-22.138,12.727,-3.657,11.055,0.891,-13.031,3.452,7.427,8.14,0.174,11.59,25.822,-0.608,-29.395,19.278,24.841,9.045,2.694,46.72,0.526,-1.527,11.025,-18.391,6.388,3.431,14.56,-43.613,4
11.073,11.218,-8.796,19.887,4.544,29.487,-31.386,14.646,15.744,21.765,16.329,7.346,20.8,23.235,5.028,-25.78,21.82,27.378,10.06,10.376,52.821,7.698,5.646,22.285,-1.979,13.554,11.112,23.255,-51.254,4
16.185,23.502,-6.738,32.674,11.199,41.753,1.434,20.78,20.339,28.915,20.411,12.461,23.853,29.872,4.511,-17.557,23.848,27.35,19.272,18.05,57.891,11.788,13.838,14.065,30.811,23.274,18.786,35.014,-54.277,4
14.632,19.38,-14.928,31.617,12.725,28.391,34.22,-4.857,14.683,21.714,19.879,9.887,22.804,24.719,6.044,-20.101,21.263,25.274,18.228,11.885,53.734,5.116,9.725,7.904,26.169,18.64,15.181,33.955,-54.222,4
15.642,13.725,-19.011,26.462,7.077,25.289,1.91,0.271,14.156,19.131,19.859,5.267,18.683,13.936,10.648,-28.278,16.63,18.076,9.501,9.311,51.631,3.062,5.105,17.63,-6.132,15.547,10.555,29.31,-51.607,4
16.139,18.835,-22.066,27.461,-0.615,40.121,-30.367,26.399,16.703,22.698,19.326,3.725,13.029,11.873,7.564,-26.713,11.491,11.398,8.979,10.839,52.092,5.108,5.1,17.612,4.632,20.143,15.155,35.428,-53.092,4
17.147,27.525,-15.897,26.408,-1.127,34.957,2.451,16.638,13.613,18.577,18.283,7.307,13.528,21.082,1.921,-21.563,17.115,19.583,14.605,10.828,54.602,9.202,10.218,12.984,16.411,22.172,20.263,46.664,-50.477,4
20.204,28.01,-4.61,24.333,1.436,20.065,35.236,-12.58,8.476,11.898,18.264,8.324,16.589,33.357,7.554,-22.053,26.831,29.81,19.714,15.94,59.158,15.34,14.306,20.143,-15.881,23.174,18.193,44.056,-43.767,4
17.622,16.199,-16.901,20.722,-2.152,17.996,2.926,-18.715,0.271,4.714,11.586,2.168,10.937,29.225,11.133,-25.105,20.145,21.071,19.182,15.924,54.488,11.226,6.607,13.975,-11.254,17.003,11.003,26.593,-55.506,4
6.334,7.985,-36.864,13.529,-2.662,17.978,-29.353,-3.839,-2.291,0.611,4.914,0.117,5.29,12.289,3.437,-27.129,9.366,11.828,15.576,9.248,51.359,6.092,3.014,0.641,16.422,8.277,9.967,18.369,-72.357,4
3.766,19.761,-29.655,17.614,10.148,22.571,-0.634,11.534,10.519,12.393,13.619,8.314,16.556,15.863,7.532,-22.492,17.041,22.575,21.196,17.948,62.579,16.844,16.331,16.01,6.671,20.052,18.154,31.159,-57.427,4
17.082,32.036,-14.768,27.33,19.36,32.795,32.154,10.498,19.73,25.701,22.827,13.941,28.835,30.192,20.845,-14.272,25.733,30.749,28.86,26.64,64.053,23.488,19.901,32.388,1.542,33.352,20.185,40.349,-39.952,4
22.188,21.246,-15.266,20.131,10.119,29.688,48.004,-0.271,16.124,21.577,18.193,9.828,24.707,24.526,14.676,-16.307,19.048,23.546,22.171,15.342,49.132,12.193,7.074,16.986,10.762,18.974,9.919,31.6,-55.281,4
7.821,9.954,-17.812,10.377,0.375,22.998,22.853,1.266,17.645,18.481,13.564,5.72,19.047,16.817,1.341,-22.438,14.93,19.424,11.902,7.13,43.448,3.984,4.505,3.137,5.628,7.684,4.786,26.957,-65.472,4
-0.384,17.628,-13.696,19.588,5.498,28.098,-2.273,10.999,19.164,20.512,13.551,4.177,19.541,24.485,1.34,-21.391,17.477,19.405,11.378,9.172,46.478,4.493,11.16,9.794,12.794,17.923,8.88,33.59,-47.475,4
7.814,22.734,-4.46,29.302,14.201,26.533,-6.37,11.5,12.997,12.294,7.389,0.587,14.91,25.485,2.363,-24.444,14.385,16.312,5.731,3.528,42.333,-0.123,6.026,13.882,16.368,16.368,7.334,33.044,-32.059,4
7.806,12.977,-0.87,24.662,12.65,16.261,26.424,0.218,9.398,6.134,2.771,-3.512,7.723,16.75,-2.25,-33.641,11.297,14.758,-7.594,-4.673,37.68,-9.344,-4.226,9.258,-6.19,3.031,1.691,23.79,-35.613,4
-4.497,3.23,-14.189,12.342,-1.195,11.634,37.669,-10.029,6.315,7.153,2.256,-4.533,6.691,12.123,-5.321,-33.095,10.261,13.207,-7.074,-3.644,38.155,-9.847,-4.222,6.687,-9.258,4.053,1.177,18.643,-48.385,4
-8.591,3.227,-24.421,6.694,-9.903,14.696,5.356,0.74,4.772,7.658,2.766,-0.942,10.27,17.746,-2.242,-24.353,10.251,15.243,9.326,4.045,43.752,2.97,3.467,12.315,-3.101,13.271,4.25,22.723,-56.533,4
-2.947,5.785,-17.224,14.885,5.476,21.341,12.523,18.157,16.038,14.31,11.985,6.231,17.432,28.999,9.543,-18.693,16.388,24.449,19.563,12.75,52.417,16.287,11.661,23.062,-15.393,20.43,10.393,29.36,-59.551,4
-1.407,2.706,-22.842,19.993,18.791,20.807,45.298,6.356,16.534,16.345,14.022,4.688,16.39,26.921,14.657,-19.187,17.909,22.375,15.958,13.762,50.828,11.148,8.575,16.891,0.504,19.897,10.895,24.72,-72.299,4
-1.918,-3.445,-37.676,7.677,3.915,10.028,12.977,-14.142,-2.95,1.984,0.176,-3.514,2.541,13.574,2.859,-25.315,12.256,10.57,10.819,6.576,42.068,-1.158,-2.704,-4.643,25.094,7.069,2.687,13.424,-75.813,4
1.67,2.707,-25.856,4.596,-1.724,11.555,-19.311,-5.931,-1.923,1.47,2.225,0.588,2.027,19.196,2.344,-22.728,16.854,20.805,15.931,10.668,49.198,3.966,0.372,-4.638,3.552,5.013,4.222,18.022,-43.974,4
6.791,17.561,-2.264,21.497,17.233,28.962,13.496,12.005,17.547,22.473,21.69,15.444,20.98,29.935,18.223,-5.799,29.645,36.666,25.136,21.415,63.494,16.77,17.278,16.371,-4.648,21.914,17.537,35.934,-23.438,4
7.809,21.642,-1.237,29.673,16.191,36.618,-9.572,20.703,19.066,29.623,23.718,17.478,27.619,24.782,20.254,-1.695,30.128,29.457,23.574,19.345,59.844,14.704,16.748,21.99,18.41,25.991,17.008,37.435,-50.054,4
5.24,12.399,-13.019,16.323,-3.805,27.872,-22.882,15.046,11.363,18.323,11.911,6.19,17.857,26.807,6.914,-15.013,21.901,20.206,10.743,8.055,47.489,-0.68,-0.687,10.697,0.973,10.083,6.232,24.59,-70.496,4
1.648,7.775,-21.202,3.499,-9.437,16.573,9.929,-9.047,10.839,12.157,7.801,0.036,12.204,30.366,-2.315,-20.121,16.243,21.723,-0.538,-0.15,44.88,-11.951,-5.297,4.027,-27.205,2.901,4.689,25.078,-57.106,4
4.721,16.989,-21.694,11.18,-0.718,17.581,12.48,-13.136,11.853,17.78,13.941,4.135,14.754,19.065,-0.263,-13.954,17.764,16.066,1.511,1.387,48.933,-4.766,2.393,8.633,-2.074,12.119,9.295,38.373,-44.753,4
13.937,26.194,-13.987,30.637,11.578,32.42,-19.808,15.566,19.526,26.471,22.124,10.79,22.423,24.169,12.032,-8.817,24.406,15.537,14.317,12.144,58.106,10.608,11.612,19.895,19.445,24.915,13.384,45.507,-41.123,4
13.923,23.094,-10.387,31.119,13.104,38.023,1.217,23.235,25.141,26.445,21.077,11.292,25.987,36.952,17.143,-7.783,24.382,20.133,17.377,14.181,66.757,13.159,16.211,24.486,-3.116,29.501,15.932,41.875,-36.471,4
2.126,13.849,-12.426,14.694,-0.742,24.153,34.003,0.158,13.333,14.635,10.297,3.596,15.715,22.058,6.368,-12.898,15.136,10.379,8.65,4.433,62.592,6.998,10.047,16.777,-9.261,21.787,11.818,33.636,-42.07,4
-2.999,9.224,-9.34,6.994,-6.889,14.907,25.26,-11.113,4.098,6.936,2.602,-2.043,8.527,10.766,-1.835,-19.546,12.047,5.245,7.105,3.404,56.382,5.966,2.865,11.125,22.511,15.105,5.658,26.943,-54.835,4
-0.434,13.314,-9.843,12.11,-2.783,21.553,-7.041,-2.905,9.217,9.491,0.551,-1.016,10.055,19.464,-0.297,-16.964,13.06,17.535,15.295,8.523,63.498,7.497,10.035,16.749,35.297,17.651,4.628,31.014,-57.342,4
3.152,22.522,-14.956,20.807,-1.244,31.777,-39.309,19.639,14.843,16.141,5.673,4.108,10.045,16.883,3.29,-10.8,12.022,20.079,19.378,7.49,70.094,11.588,15.148,23.905,14.769,23.781,11.284,46.865,-47.038,4
14.42,26.085,-8.793,28.984,6.954,36.868,-64.373,34.477,18.415,20.736,14.889,9.227,12.597,10.718,9.947,-7.715,14.059,15.449,21.92,11.581,70.536,19.261,14.108,25.93,3.996,29.905,19.981,55.527,-33.159,4
27.213,25.035,-1.1,32.541,14.632,31.196,-31.521,8.315,20.446,22.764,17.436,10.754,20.269,16.343,15.06,-4.634,17.631,21.581,25.484,19.254,76.101,20.267,18.192,20.269,19.361,32.949,18.937,46.762,-32.614,4
21.551,26.547,-2.636,33.02,6.933,27.579,1.299,-9.625,21.45,25.303,16.394,10.744,21.786,20.425,11.971,-2.067,19.663,25.145,21.873,15.649,81.148,14.611,16.637,14.613,31.637,27.793,13.795,43.13,-40.266,4
11.283,23.446,-2.121,32.475,2.827,35.236,-30.978,17.025,26.039,30.401,19.963,10.733,21.251,24.503,9.397,-3.09,22.205,19.485,12.629,9.998,78.505,8.961,6.374,17.672,22.896,20.081,15.318,50.259,-36.127,4
15.37,17.275,0.443,24.246,5.386,33.664,-63.223,23.668,21.402,26.784,15.845,6.624,21.742,23.966,6.314,-8.21,18.084,12.293,9.03,9.476,73.304,5.366,6.88,18.679,6.992,19.036,14.79,47.647,-25.845,4
20.99,21.356,1.979,21.148,0.77,26.97,-30.372,8.787,14.209,20.61,7.632,2.006,17.622,16.77,2.209,-10.763,11.918,7.67,12.095,8.954,73.743,9.971,15.583,20.71,5.448,25.165,11.702,41.452,-18.646,4
16.358,27.483,3.514,27.787,2.818,36.165,-58.518,22.099,22.391,24.175,11.211,4.566,18.629,22.389,5.281,-7.166,16.005,14.322,13.62,10.482,78.28,17.133,17.104,27.861,21.836,29.75,15.788,46.021,-18.115,4
6.608,15.672,-5.198,18.025,6.914,29.981,-62.558,17.978,19.807,19.028,9.662,3.024,15.537,28.002,6.3,-8.696,17.013,19.431,9.508,7.91,77.689,7.895,7.865,16.051,30.011,14.864,10.137,40.34,-44.225,4
1.991,-0.737,-23.636,-3.51,-6.413,1.774,-29.708,-14.315,-4.291,-2.508,-7.253,-6.2,-1.897,16.703,-2.415,-19.958,9.824,8.653,-0.235,-3.369,69.415,-7.995,-7,-8.044,3.341,-4.619,-5.242,17.758,-73.382,4
3.013,-0.224,-30.273,-1.457,-15.628,0.235,-61.954,-13.789,-6.848,-5.067,-12.881,-7.731,-7.018,14.125,-5.999,-20.451,14.937,10.694,-2.797,-4.903,68.833,-6.962,-8.529,-2.913,-20.228,-1.54,-3.188,13.641,-51.28,4
3.523,11.047,-17.435,16.475,-0.755,25.338,-94.167,19.013,16.212,17.992,5.062,2.011,12.969,27.431,2.716,-4.549,27.73,31.688,11.038,9.447,79.523,7.39,7.361,18.095,12.58,15.88,9.623,30.534,-18.441,4
11.204,22.306,-2.048,31.315,16.152,39.657,-61.285,31.289,29.004,31.806,21.451,12.767,27.3,32.526,17.058,7.239,30.776,38.316,26.397,20.196,87.64,19.678,19.649,22.175,45.355,27.647,16.274,43.823,-30.718,4
