Timestamp,Cz,Fz,Fp1,F3,C1,C3,T7,C5,CP5,CP3,CP1,P1,P3,O1,CPz,Pz,Oz,O2,P4,P2,CP2,CP4,CP6,C6,T8,C4,C2,F4,Fp2
0.0,-1.227,1.811,-266.05,100.102,4.452,37.897,397.407,107.918,31.065,49.299,23.165,1.998,71.398,115.61,35.083,18.725,3.771,111.799,18.535,-2.99,45.872,-3.476,5.423,4.073,90.106,16.448,-3.879,80.501,-228.185
6.669999993391684e-05,6.459,19.228,-249.39,129.203,16.743,69.109,364.734,140.598,48.452,73.329,39.024,14.804,89.257,135.475,46.831,31.002,14.526,128.593,31.324,8.284,56.072,7.286,15.151,14.316,93.089,24.629,6.883,93.228,-212.075
0.015003799999703915,5.428,11.012,-253.751,120.365,20.312,71.09,397.157,132.773,45.842,70.181,36.936,9.154,91.729,151.221,41.661,32.508,23.733,140.247,28.731,12.374,51.918,4.205,13.087,6.104,110.415,19.993,8.926,82.889,-207.765
0.019050899999911053,-5.336,-21.275,-285.773,87.969,-5.836,38.743,429.547,100.365,16.083,37.836,10.259,-10.323,61.924,124.942,22.664,9.422,7.315,124.738,4.624,-9.667,33.935,-17.316,-6.394,-21.566,135.407,-2.568,-9.014,50.531,-239.832
0.03172739999990881,-11.991,-26.377,-285.999,85.32,-17.101,34.094,396.842,125.367,14.53,35.749,1.539,-13.899,55.714,105.349,14.957,-1.346,-8.061,108.732,-4.09,-19.904,29.29,-26.52,-12.535,-24.619,127.075,-10.25,-18.739,43.82,-247.789
0.031791099999736616,-5.831,-4.833,-257.537,104.702,3.921,66.847,364.17,158.03,47.303,63.378,18.956,-0.565,77.175,124.712,27.749,14.024,4.754,118.869,15.894,-2.978,42.581,-9.588,4.896,4.095,94.672,7.178,-4.888,67.342,-225.0
0.04503889999978128,5.446,-0.73,-264.964,105.622,14.676,68.317,396.594,134.305,51.866,66.388,30.208,6.608,82.734,144.567,40.529,24.769,23.705,139.243,32.785,6.247,48.686,4.254,19.235,20.997,93.553,19.467,5.363,74.96,-229.386
0.04510309999977835,-3.269,-21.221,-296.462,86.049,-7.368,35.974,428.985,101.896,19.539,38.145,11.735,-7.231,64.208,128.029,25.632,9.887,15.997,132.443,15.846,-12.203,29.17,-14.193,0.261,-1.565,99.607,5.103,-10.011,57.979,-261.432
0.06003770000006625,-29.393,-46.816,-312.047,59.323,-36.563,4.687,396.281,74.129,-11.731,7.881,-20.552,-30.79,36.991,95.625,-5.132,-15.226,-13.221,100.036,-16.445,-38.318,5.575,-46.454,-32.015,-33.839,71.843,-24.616,-34.08,34.354,-275.515
0.060103199999957724,-36.024,-53.429,-307.636,49.017,-40.112,6.219,363.609,101.207,-7.621,4.799,-25.143,-34.346,26.708,93.993,-9.738,-21.358,-20.892,90.202,-21.04,-40.329,9.155,-51.019,-34.032,-39.441,72.284,-35.862,-36.607,20.488,-259.87
0.07504579999977068,-16.52,-32.371,-289.398,76.633,-14.457,31.316,342.241,133.894,17.49,32.459,4.084,-13.307,53.834,124.637,16.4,-1.869,6.793,120.85,7.158,-16.723,30.151,-23.303,-6.334,-15.323,104.999,-14.31,-16.078,39.423,-245.266
0.07978509999975358,-2.159,-6.211,-271.178,108.832,9.124,62.023,347.534,156.301,38.477,57.017,26.621,4.125,82.469,137.832,37.388,21.699,26.767,143.271,29.693,6.348,44.465,-1.763,11.091,2.111,109.505,11.832,1.356,72.171,-242.971
0.09238019999975222,0.405,2.505,-268.857,109.747,12.189,73.232,333.866,166.391,46.635,63.108,32.23,7.707,83.411,130.522,42.474,29.362,22.129,140.053,32.737,8.903,50.568,2.337,12.617,5.695,109.908,17.968,5.966,80.296,-232.482
0.09244859999989785,1.941,-3.645,-271.662,99.391,8.078,66.499,315.602,168.786,47.613,65.094,33.735,6.163,83.328,139.613,41.406,25.234,21.595,140.938,29.63,2.234,48.468,3.36,12.604,7.739,129.778,15.389,3.91,62.797,-216.368
0.10553749999962747,-2.159,-12.351,-269.854,99.804,7.558,63.871,284.035,169.13,45.004,64.004,27.041,2.57,84.782,153.818,36.754,21.622,24.647,142.846,25.502,-1.354,38.686,0.282,11.567,6.706,120.426,13.324,-0.192,56.586,-222.812
0.12013189999970564,-9.329,-11.314,-267.022,101.241,5.501,66.368,256.599,171.522,41.373,58.817,20.866,-1.531,77.012,143.931,32.107,20.064,18.474,132.97,22.403,-3.402,35.574,-5.866,11.043,7.212,91.104,10.749,-3.778,67.288,-240.007
0.12019959999997809,-10.857,-10.79,-275.465,92.943,0.372,59.13,289.13,158.543,36.208,52.61,17.772,-6.14,73.349,129.442,26.952,14.408,12.821,127.714,17.257,-10.059,34.001,-11.495,9.495,6.18,83.841,3.566,-7.873,71.319,-242.841
0.13513819999980115,-17.506,-27.686,-296.194,75.944,-8.85,36.017,321.629,126.109,22.852,38.213,5.971,-14.843,66.103,130.337,17.191,3.636,10.759,125.024,1.358,-21.319,23.209,-25.316,-3.322,-9.195,75.56,-11.807,-17.086,50.756,-242.598
0.13519829999995636,-23.124,-37.392,-294.873,71.77,-10.378,29.833,290.056,125.471,18.731,35.101,3.403,-13.291,59.377,138.916,17.686,4.144,13.309,120.801,-3.766,-22.323,23.698,-30.414,-7.417,-16.871,71.386,-15.893,-20.143,38.41,-236.208
0.15227679999998145,-8.244,-14.301,-262.815,98.85,8.588,62.591,257.491,158.133,46.377,65.804,28.503,6.19,83.909,148.511,37.136,24.12,28.153,139.635,20.316,-3.345,43.142,-7.329,8.472,1.589,104.102,4.615,-3.217,67.061,-220.603
0.15234419999978854,-0.551,0.058,-257.941,115.658,18.313,83.533,256.721,173.344,60.163,79.571,38.721,12.331,101.243,147.85,43.246,31.268,33.76,154.865,29.005,5.368,43.611,0.875,8.464,5.174,129.614,11.783,4.983,85.437,-231.14
0.16522009999971488,-20.531,-25.557,-289.959,84.804,-8.345,51.174,289.252,140.895,27.827,47.216,11.017,-8.686,68.867,132.845,21.686,7.159,13.234,129.095,0.287,-17.692,21.026,-27.815,-14.086,-17.885,97.209,-10.258,-15.002,55.637,-256.525
0.18027769999980592,-48.134,-64.928,-325.721,30.872,-50.311,-9.861,354.216,76.095,-23.939,-2.54,-26.375,-36.312,19.58,113.639,-7.537,-23.57,-16.486,85.316,-35.034,-49.909,-4.609,-60.519,-35.553,-37.807,42.23,-36.344,-41.592,9.96,-267.769
0.18034549999993033,-29.131,-40.273,-292.607,59.531,-26.182,22.937,321.587,108.807,8.872,30.25,-0.734,-17.32,51.835,123.26,11.426,-1.517,-1.612,105.723,-8.359,-24.243,12.814,-30.232,-15.025,-13.69,74.975,-14.278,-20.545,36.59,-241.374
0.1953110999997989,-18.855,-22.814,-284.63,85.087,-9.25,54.677,288.99,141.486,31.917,49.175,10.538,-8.594,64.079,122.112,20.636,4.12,0.439,113.302,-3.74,-14.485,17.924,-25.079,-11.424,-15.214,74.388,-7.604,-11.816,49.874,-248.817
0.1953932999999779,-18.837,-26.377,-294.079,77.829,-10.777,44.376,321.488,120.852,22.664,41.442,6.429,-13.708,54.281,124.039,18.054,-1.008,-3.148,109.09,-6.298,-23.18,17.906,-30.689,-11.412,-19.809,53.821,-8.108,-15.39,47.262,-248.568
0.21029989999988175,-16.768,-23.789,-280.465,72.116,-7.693,40.746,353.955,99.727,19.567,42.937,13.595,-10.108,62.424,137.747,21.11,10.264,10.175,125.887,10.615,-12.398,23.011,-17.851,-3.204,-9.031,85.531,3.17,-10.764,55.924,-225.778
0.2143935999997666,-26.998,-27.352,-281.209,62.31,-19.981,33.02,352.064,90.405,10.838,33.16,4.36,-15.221,56.726,125.314,12.892,3.082,5.554,123.2,-0.154,-13.923,12.23,-27.567,-13.959,-18.243,88.519,-6.567,-18.95,49.721,-239.385
0.2265002999997705,-38.754,-46.792,-311.154,47.903,-40.453,12.495,319.436,79.556,-9.152,12.635,-19.723,-33.649,29.005,94.963,-4.028,-22.537,-21.604,90.801,-32.43,-42.598,-6.738,-57.253,-36.487,-39.742,56.155,-33.2,-38.399,24.056,-271.421
0.22656599999982063,-31.543,-48.794,-315.454,63.224,-32.216,21.704,286.841,102.531,-0.434,23.381,-11.507,-30.542,34.099,106.138,3.661,-17.904,-17.996,91.223,-24.2,-41.531,-2.12,-51.048,-30.815,-34.067,55.074,-29.068,-32.213,23.519,-258.854
0.24036469999964538,-24.339,-33.376,-293.622,76.994,-19.888,38.076,319.342,113.187,15.448,39.239,6.948,-11.556,56.606,138.82,20.564,1.582,8.662,116.747,1.952,-15.362,12.227,-26.406,-11.316,-13.028,75.511,-5.473,-14.25,44.5,-225.807
0.24042949999966368,-26.876,-37.954,-293.84,51.301,-30.626,16.009,351.811,80.798,-0.961,23.83,-3.817,-16.667,45.791,134.583,11.834,-4.567,5.067,112.02,-4.198,-20.982,5.554,-29.966,-12.33,-9.941,74.924,-8.542,-19.358,44.456,-233.779
0.2553338999996413,-27.362,-53.285,-305.842,38.442,-36.231,-2.963,322.257,61.25,-17.866,9.462,-15.597,-30.995,30.888,106.271,-1.498,-17.37,-13.381,92.952,-15.977,-37.867,-7.771,-43.256,-21.539,-22.739,105.587,-23.902,-30.097,31.604,-254.549
0.2553909999996904,-24.26,-46.059,-294.265,63.507,-25.437,16.508,289.66,93.976,-5.553,23.285,-5.335,-24.817,44.177,106.677,6.188,-12.23,-8.244,98.495,-9.301,-29.632,-2.128,-36.04,-16.394,-22.716,114.703,-17.731,-23.92,38.232,-239.95
0.27033259999961956,-22.187,-28.083,-274.503,77.788,-16.702,35.959,297.567,114.374,11.358,40.168,5.941,-13.521,56.429,131.674,15.916,-3.509,5.596,114.79,-2.119,-16.282,10.682,-24.733,-8.693,-5.275,82.313,-5.418,-14.674,54.588,-222.292
0.28654599999981656,-22.677,-29.079,-275.766,69.001,-18.222,32.849,330.057,106.063,13.396,40.64,2.349,-18.118,51.249,131.542,12.826,-7.091,2.517,113.65,-5.703,-18.315,7.597,-30.856,-14.832,-2.708,85.305,-8.486,-17.733,52.996,-228.729
0.2866095999997924,-23.167,-37.247,-288.81,63.297,-22.815,26.157,297.452,113.129,9.797,34.451,-4.313,-24.76,47.099,103.746,11.789,-11.695,-8.244,101.754,-11.333,-24.445,2.467,-38.51,-22.502,-22.686,118.007,-16.674,-22.326,39.623,-231.062
0.3004657999999836,-15.459,-30.037,-285.447,67.844,-15.107,33.815,271.026,125.312,17.984,43.639,7.474,-17.051,54.737,103.13,21.511,-3.999,-1.576,107.287,-3.125,-16.736,14.247,-26.176,-13.258,-24.2,106.618,-11.022,-15.132,44.194,-222.122
0.3005392000000029,-10.32,-20.274,-270.305,80.584,-3.821,47.101,303.543,127.235,27.7,55.378,21.811,-6.275,63.904,135.814,28.661,7.789,17.893,126.135,13.272,-1.862,23.455,-12.83,-1.462,-5.733,90.63,1.796,-4.871,59.519,-223.949
0.31541139999990264,-20.044,-27.938,-269.522,86.651,-14.576,35.783,336.027,103.03,9.229,40.466,8.469,-12.417,54.618,147.974,22.997,3.17,18.388,126.009,10.697,-7.496,12.673,-20.502,-6.583,-9.825,95.662,-1.279,-12.038,55.874,-226.287
0.31549409999979616,-25.659,-38.668,-281.548,70.683,-28.394,14.231,368.479,70.651,-10.76,21.982,-6.396,-23.163,42.781,125.797,16.827,-8.616,4.025,111.026,-1.096,-21.833,1.901,-29.703,-14.261,-27.234,91.468,-13.061,-23.809,41.473,-224.011
0.33037449999983437,-21.535,-36.068,-288.951,57.292,-17.607,22.413,335.835,87.999,6.157,33.231,4.369,-17.504,54.521,115.937,19.371,-6.046,4.021,110.915,2.491,-17.2,5.486,-21.989,-7.587,-23.108,98.549,-9.974,-19.687,39.895,-230.959
0.3304301999996824,-22.026,-29.884,-288.15,65.432,-8.368,44.42,303.224,120.699,25.106,47.542,11.537,-10.314,63.688,124.018,22.426,0.108,9.652,119.001,8.124,-11.035,13.677,-18.381,-3.481,-12.327,100.5,-1.255,-11.47,47.54,-236.364
0.3457889999999679,-16.369,-25.244,-278.64,76.125,-9.384,48.474,335.708,126.726,25.081,48.007,12.55,-9.279,60.55,131.579,25.99,2.669,12.716,124.005,9.14,-10.0,19.811,-18.874,-3.99,-12.827,86.567,0.796,-9.409,57.226,-225.881
0.3458551999997326,-5.081,-21.12,-266.579,82.196,-3.739,45.864,368.16,104.058,26.593,50.008,18.685,-7.733,66.637,134.521,33.136,6.765,17.826,127.468,12.205,-4.866,20.816,-12.708,0.625,-14.863,104.411,6.43,-5.302,59.73,-219.508
0.3603966999999102,-17.884,-29.296,-275.533,80.577,-12.445,35.06,335.517,92.17,13.758,40.737,6.883,-15.922,60.423,119.529,22.857,-0.927,5.513,113.508,2.459,-18.182,11.061,-20.892,-4.499,-20.996,118.139,0.276,-12.981,39.69,-229.534
0.36046269999997094,-35.797,-43.611,-297.8,64.103,-31.388,20.168,302.906,80.807,-8.285,23.79,-9.005,-26.665,36.797,101.991,4.903,-15.27,-11.911,93.927,-10.351,-36.094,4.903,-36.24,-17.814,-29.684,85.746,-15.606,-26.8,24.794,-238.014
0.3753338999999869,-26.54,-38.957,-297.502,56.866,-21.622,25.783,335.391,78.677,-1.616,30.938,2.787,-18.441,45.981,120.845,15.144,-8.083,5.007,104.079,0.417,-20.689,12.07,-25.958,-13.698,-24.531,65.168,-6.881,-18.064,37.577,-239.825
0.3753948999997192,-16.779,-29.184,-283.372,62.957,-8.281,32.93,367.843,79.623,7.607,40.129,12.518,-10.738,66.428,144.29,29.986,4.221,25.495,123.955,10.663,-7.348,14.619,-13.124,-4.463,-14.261,82.009,6.446,-6.263,44.199,-231.389
0.3903479000000516,-20.349,-30.692,-282.064,58.283,-15.445,27.261,335.2,73.396,-1.11,36.503,6.87,-13.801,54.578,131.338,22.784,0.118,14.711,120.757,5.017,-17.587,15.117,-18.234,-8.557,-16.808,101.394,-0.221,-11.38,39.544,-215.276
0.40533860000005006,-10.082,-21.952,-279.733,65.397,-4.159,44.14,302.589,95.864,13.748,52.348,19.671,-4.566,58.622,128.645,30.446,4.217,16.745,122.173,17.82,-7.323,31.496,-11.044,-0.864,-13.205,118.711,7.977,-3.684,58.972,-211.987
0.40942879999965953,4.273,-0.925,-263.571,98.12,18.387,71.761,270.011,128.556,40.887,75.349,38.607,8.246,87.253,150.546,53.469,20.094,36.708,137.42,38.294,14.201,47.858,7.923,16.556,3.202,128.326,29.486,15.788,81.455,-218.435
0.4094777000000249,-4.441,5.223,-239.229,110.829,12.221,70.152,302.529,129.452,37.772,71.688,33.445,2.603,82.555,146.809,48.805,19.561,29.499,134.209,31.596,7.014,43.2,5.865,13.978,5.248,123.587,29.968,15.259,81.886,-201.822
0.4225730999996813,-13.658,-0.417,-209.276,99.96,-3.673,58.299,335.014,108.318,24.926,60.345,23.165,-6.109,64.541,126.682,31.337,8.271,15.125,118.193,16.708,-5.8,33.423,-6.436,2.693,-1.929,97.336,22.254,4.998,83.853,-168.833
0.42264129999966826,-2.886,2.145,-179.353,110.619,-1.108,54.654,367.467,94.377,24.901,57.723,22.63,-7.64,67.551,127.068,30.794,4.677,16.647,111.415,11.568,-9.381,34.414,-11.552,-0.384,-0.391,64.963,19.67,4.481,93.503,-147.659
0.43546699999978955,8.388,18.024,-146.386,137.66,9.652,58.186,370.173,98.894,27.438,62.276,27.218,-4.559,71.581,128.99,36.911,7.746,14.069,107.717,8.995,-7.322,40.527,-10.516,0.641,-0.903,97.686,18.626,10.624,106.73,-118.822
0.43553380000003017,11.453,46.183,-113.452,154.429,25.524,79.644,344.188,131.07,42.268,81.17,42.048,7.741,80.731,127.324,48.657,19.521,14.055,110.171,22.306,8.055,50.733,1.79,10.887,2.685,130.376,33.464,22.396,135.824,-85.916
0.4504207999998471,14.516,67.654,-80.551,171.18,34.72,101.082,311.568,159.628,63.742,98.507,55.326,16.443,94.995,132.832,61.416,29.748,25.312,120.82,38.165,18.805,58.367,16.645,23.171,19.076,114.364,49.312,32.108,152.595,-53.042
0.4504784999999174,16.038,65.537,-68.175,192.014,31.099,105.591,278.981,166.129,65.215,98.921,52.196,12.328,92.851,131.162,57.768,26.644,27.336,124.285,30.442,12.126,58.308,14.579,17.001,26.229,81.974,46.701,31.563,138.098,-28.911
0.46669559999963894,12.948,56.25,-87.062,194.383,25.945,97.289,311.49,151.618,51.318,91.649,43.947,8.217,86.098,126.933,51.563,22.519,25.771,123.648,23.239,10.065,56.713,6.88,8.787,24.666,68.06,42.044,28.458,129.763,-58.083
0.4667605999998159,5.763,47.997,-100.807,162.938,16.185,67.99,343.966,119.191,34.36,74.652,36.219,6.16,81.914,140.126,47.413,19.935,32.918,125.574,31.925,9.03,57.169,4.824,12.876,29.252,100.78,41.489,24.843,134.756,-90.301
0.4815635999998449,3.708,39.752,-119.15,135.111,5.923,51.016,376.41,93.457,26.129,62.794,31.06,2.567,73.635,154.33,39.169,14.28,34.422,126.473,29.844,1.849,57.111,5.843,13.376,26.661,117.073,35.3,20.208,125.912,-100.969
0.49555929999996806,11.389,40.224,-140.547,148.808,15.651,81.703,343.758,126.151,43.521,80.662,37.688,7.176,78.172,146.491,40.666,16.315,30.801,126.859,24.179,4.921,61.665,6.35,10.289,18.95,141.547,33.728,19.675,115.027,-102.405
0.49562409999998636,6.767,34.036,-163.461,156.344,16.66,91.868,311.139,154.202,49.113,85.192,32.015,2.558,78.094,124.316,39.089,11.175,25.647,121.097,20.056,1.33,57.505,-2.878,5.667,13.808,129.622,26.01,12.996,107.74,-125.869
0.5105794999999489,-15.782,7.875,-195.573,123.912,-11.534,59.501,343.615,121.772,18.326,52.831,5.856,-17.425,52.913,112.408,17.533,-7.791,16.912,109.705,1.593,-19.676,39.004,-19.269,-9.195,3.035,97.217,7.028,-2.899,87.652,-158.018
0.510642999999618,-19.864,-3.916,-220.992,104.833,-19.719,46.633,357.616,101.67,11.135,42.532,4.313,-17.408,49.786,125.616,11.88,-7.783,21.506,116.255,-2.507,-18.12,36.916,-17.713,-11.235,4.057,102.243,8.046,-5.97,76.806,-188.599
0.5256675000000541,-0.377,7.358,-223.333,118.56,0.28,72.714,324.983,134.356,35.715,68.105,23.776,-2.021,71.253,134.2,31.336,8.618,35.829,130.483,20.549,-0.683,53.273,-4.375,7.219,17.373,134.928,20.846,4.282,85.439,-198.656
0.5298192000000199,2.698,3.765,-237.967,108.708,1.817,69.568,357.446,122.439,30.044,67.525,19.654,-6.117,66.571,116.135,34.89,7.585,28.109,118.57,23.603,-4.268,53.732,-6.932,6.187,16.843,128.646,15.189,5.815,82.792,-193.847
0.5415419999999358,-9.601,-4.948,-260.27,94.254,-5.869,59.252,324.813,111.558,20.792,57.723,12.462,-11.234,57.795,113.457,28.196,3.991,18.347,107.693,11.284,-8.875,49.068,-8.975,-7.139,16.826,96.242,13.125,4.784,70.926,-185.968
0.541619499999797,-7.542,6.84,-260.01,113.116,1.821,77.124,292.213,144.234,42.288,75.084,25.77,-0.977,72.594,140.496,36.877,11.672,32.161,123.979,22.031,0.868,60.289,1.793,2.602,30.642,115.101,26.432,11.44,73.417,-190.905
0.5556816999996954,-1.899,7.858,-262.311,118.638,4.893,83.194,324.708,146.651,44.807,79.62,24.719,-2.513,74.571,143.941,38.377,7.562,35.203,127.953,23.546,-3.232,59.717,-1.283,10.284,25.488,147.773,23.331,8.354,75.392,-215.818
0.5557489999996506,-15.217,-14.18,-284.078,89.83,-12.53,57.496,357.171,114.229,18.635,53.925,2.665,-18.904,55.029,113.571,18.358,-7.303,12.626,101.698,-3.118,-21.671,36.603,-24.335,-11.243,5.995,115.35,1.791,-10.609,58.411,-242.242
0.5705982999998014,-29.034,-29.535,-298.139,64.637,-29.936,34.384,333.248,91.573,4.272,36.453,-7.071,-26.058,41.141,99.113,2.458,-13.443,2.879,86.739,-12.336,-30.871,24.271,-34.045,-24.552,1.378,82.959,-9.994,-22.894,39.909,-257.369
0.5706571999999142,-19.783,-24.894,-300.915,63.548,-23.246,43.059,300.639,108.388,9.391,46.15,1.133,-19.884,43.662,113.871,9.628,-9.844,14.66,99.972,2.021,-23.668,35.005,-24.277,-12.232,4.451,103.881,-5.885,-15.699,42.431,-264.284
0.5857381999999234,-4.394,-10.525,-300.101,85.001,2.905,71.193,279.846,141.067,29.361,68.133,17.013,-7.056,63.086,127.589,29.086,3.999,28.477,118.828,13.802,-7.251,50.852,-13.494,0.076,9.569,136.565,5.391,-1.339,57.758,-254.798
0.5898360999999568,-9.001,-5.391,-300.826,99.261,8.025,76.757,312.354,140.414,41.627,73.7,23.144,-3.975,74.293,121.314,34.693,12.191,27.937,115.123,15.837,-4.17,52.338,-10.919,-0.949,12.634,137.965,9.485,0.712,56.675,-237.125
0.6026775000000271,-24.873,-21.78,-319.48,78.157,-14.012,54.139,327.411,107.998,22.118,55.696,9.801,-14.73,55.776,109.41,20.826,1.933,15.101,98.101,7.112,-15.948,43.064,-17.056,-9.657,5.449,105.552,1.79,-9.023,38.176,-244.06
0.6027411999998549,-19.213,-24.832,-330.944,64.246,-13.998,52.548,294.808,115.575,11.85,55.128,8.254,-14.203,50.597,121.596,22.342,1.931,20.209,107.737,5.568,-9.785,46.095,-12.94,-5.549,11.079,106.983,6.399,-5.94,40.187,-263.796
0.6157467999996697,-0.238,0.809,-306.535,87.236,11.631,78.111,306.809,148.247,34.892,80.176,31.3,3.23,76.162,145.04,44.349,21.397,44.267,135.294,29.129,12.767,59.881,7.565,12.387,35.146,118.659,26.885,9.435,62.688,-255.847
0.6158118999996987,-5.361,1.832,-297.519,90.735,9.058,79.057,339.29,134.266,35.369,80.096,31.781,4.764,80.184,138.747,41.743,22.4,40.124,129.011,33.71,8.143,52.649,7.045,8.276,32.037,93.438,27.371,6.864,59.551,-249.444
0.6307333999998264,-23.799,-23.785,-329.497,59.906,-18.104,51.826,306.675,102.881,8.181,54.912,6.646,-8.561,57.05,120.678,19.159,2.91,18.055,102.242,6.524,-12.87,32.104,-19.09,-13.761,10.488,69.266,5.826,-11.073,33.877,-275.322
0.6307973999996648,-16.603,-22.736,-343.0,56.772,-17.573,46.651,307.393,106.365,12.784,53.321,6.639,-6.503,55.969,130.291,24.263,1.37,27.259,104.189,7.03,-9.783,36.683,-19.583,-8.112,13.039,101.984,1.722,-10.037,33.843,-279.657
0.6457047999997485,-2.754,-6.832,-322.164,78.232,2.424,66.584,339.873,125.726,34.8,69.661,24.051,2.212,72.819,144.505,41.145,12.64,44.137,123.04,29.052,3.034,49.966,-1.633,6.753,19.174,134.67,14.016,2.268,48.666,-252.225
0.6617570999997042,-11.46,-13.998,-323.891,69.445,-1.676,67.03,333.898,123.551,27.081,66.518,19.928,-4.45,69.672,134.115,32.907,10.578,36.409,126.503,22.876,-1.067,44.793,-7.266,-3.5,13.007,102.26,12.465,-0.296,46.568,-260.682
0.6618197999996482,-15.035,-20.131,-340.986,48.371,-13.97,49.545,366.352,101.398,13.734,54.668,12.224,-9.569,59.356,123.735,23.653,5.956,30.737,120.742,14.656,-4.652,41.674,-11.358,-4.521,18.629,69.882,9.379,-5.931,46.009,-288.599
0.6618617999997696,-4.774,-13.964,-340.133,58.056,-5.759,53.081,335.247,106.42,20.892,57.175,17.847,-2.899,63.395,131.295,33.875,9.537,36.854,121.133,26.937,0.988,48.292,-1.1,8.803,27.832,95.428,17.054,0.223,52.623,-276.527
0.6757838999997148,-7.843,-17.536,-337.231,76.441,1.419,62.25,302.637,132.441,20.359,59.679,17.317,-1.871,64.357,134.238,33.841,9.527,37.842,122.549,23.324,-0.55,44.658,-8.271,0.598,22.169,106.091,14.988,0.222,44.373,-261.906
0.6907641999996486,-18.081,-25.715,-339.455,60.483,-12.415,47.33,335.122,112.329,4.457,48.861,7.566,-11.091,52.509,121.296,18.438,1.833,33.193,114.229,6.906,-9.259,33.343,-21.071,-13.235,15.487,73.709,3.702,-12.073,29.984,-275.476
0.6908244999999624,-18.576,-31.837,-337.579,35.32,-23.161,37.037,367.574,84.039,4.965,42.152,0.898,-16.715,47.334,109.392,12.784,-5.854,21.377,100.283,0.752,-17.446,27.162,-23.611,-12.197,7.787,72.099,-1.937,-16.672,24.319,-278.275
0.7057918000000427,-17.02,-35.391,-342.364,45.018,-16.478,52.369,334.931,116.743,20.842,50.819,1.41,-16.186,50.872,110.307,16.358,-6.872,10.597,95.06,-2.835,-19.478,23.548,-29.735,-16.796,-0.93,102.765,-5.522,-14.606,20.196,-272.361
0.7058483000000706,-15.978,-29.208,-345.608,61.367,-12.363,57.44,302.321,136.606,25.944,58.453,7.043,-15.146,52.871,114.807,14.292,-1.742,15.197,100.6,1.266,-12.799,28.135,-28.681,-17.804,3.169,105.224,-5.004,-18.178,23.762,-285.409
0.7219098000000486,-15.962,-27.642,-341.676,47.986,-20.547,42.013,334.806,104.194,14.135,49.173,5.5,-18.204,52.306,112.643,9.155,-1.741,17.743,99.475,6.9,-12.786,33.23,-20.455,-9.589,9.314,90.262,-1.413,-23.282,28.349,-294.345
0.7219852999996874,-17.483,-37.348,-350.556,37.179,-25.138,37.873,316.028,96.406,7.461,40.927,0.371,-21.26,48.155,106.383,8.121,-6.35,10.041,90.154,-1.304,-20.458,28.586,-25.046,-12.653,9.304,69.167,-3.973,-29.407,16.538,-284.317
0.7359253999998145,-9.781,-31.676,-354.816,57.122,-13.842,51.155,283.437,125.511,17.187,51.645,7.031,-16.116,48.619,109.863,15.798,-3.269,13.617,90.063,1.259,-12.24,30.607,-20.41,-12.128,20.566,61.925,-0.383,-28.865,12.423,-272.249
0.7359910000000127,-0.55,-14.738,-329.871,72.434,-2.045,62.374,315.941,128.459,27.928,67.987,19.319,-5.341,61.378,121.024,27.052,5.443,21.8,100.732,20.213,0.58,43.384,-3.483,2.741,29.254,87.991,11.913,-15.004,29.317,-263.78
0.7499290000000656,-4.136,-10.112,-315.709,71.337,-3.58,67.947,300.768,138.577,30.974,71.505,22.886,-1.237,69.001,119.366,27.538,7.999,20.242,103.193,19.169,-2.495,44.878,-5.529,2.738,18.979,105.834,11.389,-9.866,37.996,-256.856
0.7499915999997029,-5.156,-10.615,-330.25,73.827,-3.576,69.416,268.192,156.369,33.505,67.335,22.351,-4.822,65.858,107.976,22.899,6.454,20.221,96.429,8.903,-4.029,38.685,-13.72,-8.535,12.3,104.191,3.693,-18.053,34.885,-256.087
0.7649105999998937,-4.126,-9.067,-336.067,78.364,1.551,65.249,300.712,127.523,30.91,63.169,20.279,-6.867,64.256,110.429,26.975,5.423,25.324,95.308,13.505,0.073,39.671,-10.633,-6.478,16.899,108.185,5.226,-13.936,37.924,-263.003
0.7649686999998266,-16.93,-13.156,-328.559,73.675,-4.599,59.036,333.199,102.293,20.633,57.983,13.599,-8.909,61.63,125.176,27.46,3.369,26.324,101.361,11.442,-8.636,42.193,-11.647,-1.348,15.857,95.782,3.684,-8.799,32.763,-268.376
0.7809810999997353,-22.036,-19.803,-325.669,63.355,-14.328,53.854,300.59,117.047,14.977,51.265,8.974,-11.974,52.859,124.026,17.699,-0.733,22.711,103.309,5.283,-14.263,40.101,-13.684,-3.908,12.255,85.44,-4.004,-16.988,14.799,-259.398
0.7810489999997117,-7.157,-18.759,-321.245,62.267,-10.727,49.701,268.014,122.566,17.523,50.189,9.99,-12.474,51.782,108.02,19.731,-1.245,17.053,97.058,10.401,-7.076,41.086,-11.109,-5.441,12.755,108.408,0.098,-15.946,13.76,-246.843
0.7950240000000122,-1.515,-6.957,-314.263,83.722,-0.983,58.873,274.406,131.665,25.19,57.823,15.615,-7.851,59.927,102.277,31.494,5.929,14.987,91.325,12.952,-3.995,46.168,-9.049,-0.825,20.939,105.226,11.881,-3.122,35.263,-247.109
0.7950894999999036,-10.222,1.247,-311.9,97.47,2.604,73.159,291.038,154.075,35.411,63.913,19.186,-5.282,62.428,110.372,30.438,10.534,18.046,91.746,10.378,-6.041,46.122,-7.503,1.225,28.603,72.845,12.382,-4.144,44.961,-249.935
0.8100157999997464,-9.7,-8.488,-315.687,73.807,-2.009,64.376,323.535,131.891,30.253,60.263,14.556,-10.399,55.706,111.798,21.186,1.301,13.417,90.118,5.757,-10.133,38.391,-15.18,-6.461,14.23,84.556,0.074,-13.873,25.961,-253.784
0.8100884000000406,-8.665,-22.312,-332.277,52.216,-7.642,47.918,335.506,100.509,17.415,54.568,8.394,-15.0,52.064,103.489,19.628,-5.36,9.817,84.392,-4.495,-17.295,35.791,-25.923,-16.188,-4.74,109.574,-10.685,-16.421,5.443,-263.264
0.8249919999998383,-17.366,-25.364,-346.802,58.312,-7.123,49.407,302.895,119.363,18.422,52.464,8.898,-14.472,53.037,99.287,21.657,-1.256,14.931,79.185,-5.516,-15.741,41.391,-22.311,-13.611,2.437,89.484,-11.186,-15.892,9.023,-263.001
0.8250499000000673,-19.91,-22.264,-332.623,59.278,-5.066,53.456,295.42,133.076,20.453,51.899,9.913,-12.921,51.447,101.237,23.173,1.307,15.94,77.568,5.761,-9.065,44.936,-14.604,-3.863,14.218,78.124,-4.515,-14.34,24.896,-252.492
0.8410733000000619,-6.57,-7.385,-309.236,66.391,-0.45,60.063,327.913,129.357,21.969,56.458,14.002,-6.76,55.494,106.771,30.834,5.404,20.023,83.639,16.513,-2.908,51.551,-6.393,3.825,20.351,94.952,9.834,-7.665,38.191,-244.555
0.8411389999996572,5.219,13.627,-302.267,99.112,14.407,79.47,295.309,154.843,40.391,68.185,28.845,6.054,71.32,118.96,43.099,18.719,36.909,97.9,27.768,10.927,65.331,11.544,12.018,41.335,94.345,27.243,3.101,49.424,-236.113
0.8555186999997204,4.19,15.15,-300.94,109.772,23.614,86.051,302.186,160.324,49.059,77.338,38.038,9.634,76.371,129.087,48.691,25.872,44.044,101.388,35.937,20.65,71.926,19.218,17.642,50.003,103.472,34.9,11.295,51.423,-233.828
0.8700598000000355,-2.475,3.352,-303.713,83.022,12.832,70.596,334.672,127.888,28.518,72.137,31.339,2.965,66.561,126.397,42.494,18.674,34.266,86.942,27.192,12.944,65.706,7.415,12.501,28.949,131.033,25.131,7.697,46.761,-239.229
0.8701206000000639,-4.521,-3.311,-312.118,73.205,2.573,62.84,356.879,115.465,17.731,58.745,22.087,-1.649,58.81,117.049,33.23,9.946,27.06,77.121,9.746,-0.389,54.882,-5.4,-2.881,15.6,113.484,7.175,-5.118,38.518,-229.256
0.8850896999997531,-8.615,-12.017,-312.831,72.107,-1.528,58.679,324.246,128.157,22.836,51.514,14.892,-6.771,52.091,107.71,24.488,2.251,20.373,71.921,-3.584,-11.147,46.63,-20.251,-18.247,13.535,81.095,-6.664,-13.31,20.548,-223.392
0.8851472999999714,-17.316,-19.178,-314.567,61.789,-5.113,52.473,291.647,127.517,18.203,51.463,11.291,-12.399,45.891,99.918,15.242,-3.898,14.717,63.14,-8.191,-17.283,45.047,-27.916,-16.692,5.325,85.112,-8.194,-14.834,6.695,-245.71
0.9001441000000341,-15.762,-9.937,-321.937,73.51,1.04,62.154,259.08,142.246,19.209,53.461,15.378,-9.313,53.018,100.843,17.788,-0.821,19.313,62.564,-0.498,-10.606,52.174,-13.031,-3.355,13.516,112.18,4.622,-10.208,21.033,-259.296
0.9042159999999058,-6.524,-1.218,-313.931,87.781,6.162,72.338,291.608,158.498,28.924,57.506,18.437,-5.205,59.113,103.816,30.578,4.303,21.343,68.649,4.113,-3.935,58.27,-3.796,-1.303,27.847,113.604,13.326,-4.562,39.455,-246.229
0.9165370999999141,-10.104,-12.487,-304.908,67.201,-4.602,58.946,324.104,131.187,21.21,54.886,13.295,-8.786,50.857,98.076,27.474,1.225,16.711,64.995,-3.063,-10.079,53.601,-16.088,-10.01,13.475,103.245,3.579,-8.144,31.731,-239.835
0.9166027999999642,-14.705,-20.672,-313.312,54.326,-7.672,52.739,310.973,116.711,15.554,49.709,15.844,-7.24,52.343,99.515,19.762,1.736,23.354,64.417,1.551,-9.044,53.547,-16.584,-6.927,6.289,92.383,0.502,-9.673,27.601,-235.497
0.9302333999999064,-0.345,-3.745,-313.511,75.789,7.705,70.617,278.386,149.382,29.883,60.417,29.66,6.599,67.659,115.809,35.623,15.054,37.163,76.648,20.504,5.822,67.838,2.388,7.937,31.898,89.217,23.043,4.169,50.627,-223.479
0.9302994999998191,10.926,7.017,-306.537,86.472,13.333,76.182,280.157,154.356,28.828,65.992,30.143,8.129,64.006,118.768,43.785,20.162,34.052,70.424,17.922,5.816,66.746,4.435,10.491,40.063,104.497,28.655,9.8,53.651,-231.452
0.9452522999999928,-1.381,-7.847,-319.039,72.553,3.586,63.298,312.665,129.61,9.332,47.483,18.329,-7.76,46.011,106.353,25.298,4.773,20.698,43.201,-1.563,-5.973,46.699,-11.451,0.747,17.482,112.077,5.572,-3.529,25.932,-248.127
0.945314099999905,-2.916,-6.302,-317.183,77.603,8.193,73.993,280.077,152.535,22.13,52.046,28.557,-1.093,56.723,108.296,27.322,4.768,27.337,47.256,8.172,3.767,54.849,-2.218,7.406,17.464,115.551,10.69,-1.477,34.103,-236.608
0.9602507999998124,15.018,19.832,-289.713,101.092,25.603,97.998,312.584,181.584,52.334,80.684,51.07,22.987,85.356,124.582,53.422,28.842,48.315,79.997,34.292,25.792,79.897,24.424,25.329,41.013,136.952,41.418,16.968,66.857,-212.805
0.9642221999997673,12.441,12.128,-298.645,82.548,15.844,75.87,345.059,149.127,32.302,61.135,34.625,10.669,73.487,120.359,45.172,24.202,40.582,75.306,19.401,12.959,63.936,11.079,10.447,34.312,124.52,28.569,12.34,52.445,-216.178
0.9764893999999913,-10.625,-20.16,-330.622,50.19,-14.91,43.519,377.502,116.702,-0.006,28.799,2.315,-18.031,41.139,95.135,12.851,-6.048,10.315,42.955,-12.894,-17.793,34.158,-21.207,-19.277,3.539,92.12,-3.735,-12.263,20.118,-245.164
0.976553899999999,-7.028,-11.43,-320.557,62.947,-6.699,59.87,344.849,149.373,15.876,46.188,14.096,-5.718,48.782,86.331,15.4,0.106,8.768,40.351,-0.074,-7.016,46.932,-8.89,-7.987,9.683,104.323,7.027,-9.689,30.856,-253.628
0.9904963999997562,12.959,21.369,-287.449,95.672,26.096,92.597,312.229,182.012,48.648,78.93,45.845,17.854,81.521,98.028,44.586,26.746,28.739,69.512,32.714,22.192,65.84,22.369,20.71,40.924,137.007,34.172,12.862,55.416,-226.222
0.9905595999998695,4.236,8.54,-302.018,84.306,20.434,85.332,344.704,159.288,39.377,67.068,36.578,7.078,74.779,95.88,43.517,17.497,25.124,69.443,20.386,10.387,49.893,8.515,14.029,35.248,118.939,25.941,9.263,38.454,-217.286
1.005372399999942,-11.137,-9.912,-321.184,66.803,-0.078,54.509,377.147,126.853,13.21,43.947,19.635,-4.712,52.163,91.686,24.518,2.111,16.39,62.201,1.923,-4.993,39.084,-4.814,1.72,15.745,97.815,16.181,-4.066,33.293,-235.512
1.0203453999997691,5.268,17.25,-288.075,93.888,14.779,67.262,409.558,136.46,26.005,58.248,38.058,9.637,67.48,117.21,35.764,19.527,33.279,83.656,27.024,18.066,58.513,20.294,16.063,36.221,130.505,36.657,13.356,63.998,-220.932
1.020403499999702,21.144,31.065,-269.856,97.381,25.522,82.052,376.873,155.792,35.713,66.899,47.754,17.824,80.22,131.437,53.659,30.778,41.955,93.306,39.804,28.294,66.139,26.934,20.145,50.018,142.67,46.867,22.565,65.471,-201.756
1.037395800000013,2.68,-0.217,-301.862,65.008,7.566,63.526,344.221,146.414,17.234,48.389,27.726,4.999,61.185,102.104,39.773,16.403,20.909,70.159,9.026,4.187,46.605,0.779,1.169,19.229,110.252,21.717,0.513,33.13,-233.829
1.0374609000000419,-13.204,-7.901,-311.806,68.017,6.021,61.414,311.601,156.514,18.753,49.877,25.649,0.383,58.562,90.731,27.95,10.239,12.691,62.916,0.82,-0.428,38.362,-2.808,-1.906,11.013,82.989,9.4,-3.586,27.974,-248.965
1.050472500000069,1.154,19.772,-288.441,100.736,23.946,86.455,338.442,185.047,40.252,73.393,42.53,12.678,81.045,115.744,42.779,22.012,31.121,80.784,23.361,15.454,52.668,11.54,10.392,40.716,78.808,29.883,12.299,58.172,-215.928
1.0505387999996856,9.862,18.215,-292.251,99.099,20.336,83.295,370.891,172.054,36.113,70.246,37.877,14.202,78.915,113.066,45.81,25.063,35.701,85.314,20.264,13.39,54.665,4.356,5.258,33.503,104.857,29.853,8.188,61.188,-212.126
1.0654598999999507,-3.981,-4.857,-305.278,70.823,4.947,56.059,403.308,139.606,19.683,48.147,24.519,3.429,61.417,91.949,32.445,15.817,24.907,76.519,7.436,5.179,43.339,-5.895,-3.968,2.218,137.54,5.745,-1.554,32.95,-238.042
1.065526399999726,-8.075,-1.778,-297.801,63.067,7.503,57.54,407.515,141.516,21.2,51.685,29.617,3.938,63.405,94.418,32.924,14.264,24.882,74.394,18.187,9.273,43.808,2.308,4.232,10.925,124.594,9.837,4.595,28.818,-237.804
1.0804224999997132,3.716,4.371,-296.991,73.763,16.717,75.413,374.832,161.867,26.814,64.953,34.711,9.058,68.977,94.836,41.088,19.885,26.394,75.856,22.779,10.8,50.424,8.966,10.376,31.407,92.194,27.246,7.152,46.208,-227.832
1.0804817999996885,7.811,-2.806,-297.206,77.275,17.725,73.289,358.576,158.631,25.251,60.277,29.553,7.512,65.322,96.791,40.535,19.865,25.855,78.342,15.584,8.74,50.886,6.395,6.779,27.789,104.398,23.12,6.121,46.162,-222.481
1.096474599999965,0.631,1.296,-287.175,73.099,14.121,65.531,391.005,141.566,23.176,53.045,31.06,9.041,63.207,118.723,41.007,20.87,36.076,83.899,22.741,13.342,52.372,11.0,9.846,30.835,130.421,22.072,9.701,37.918,-218.16
1.0965386999996554,-9.616,1.807,-298.671,64.829,3.861,62.392,404.446,131.691,17.005,48.381,28.468,4.421,55.972,117.067,34.818,18.288,34.503,77.155,19.132,8.718,46.172,6.89,6.25,34.903,104.675,25.124,5.08,35.319,-230.75
1.1105307999996512,-13.193,-13.052,-318.864,52.981,-5.877,56.181,371.767,135.145,10.328,40.136,14.607,-6.854,46.182,88.261,18.902,2.9,16.537,67.856,-6.502,-8.709,33.318,-14.634,-10.15,11.302,104.57,7.168,-6.708,26.062,-240.765
1.1105964999997013,-4.47,-12.527,-311.886,55.49,1.814,61.248,340.656,153.966,18.003,48.805,19.715,-0.7,55.87,90.222,21.444,2.385,20.107,79.059,-3.934,-6.651,36.871,-16.668,-8.603,-3.054,135.717,-2.573,-5.677,25.011,-238.475
1.1255115999997543,-3.441,-2.78,-305.938,72.341,13.083,74.507,327.508,172.255,29.768,63.101,35.577,11.597,66.572,104.989,34.743,17.752,35.968,91.276,17.074,10.774,43.494,1.279,2.164,10.269,114.576,11.774,2.014,36.257,-248.995
1.1255707999998776,-14.708,-11.487,-321.002,68.682,4.36,64.699,294.905,161.836,18.467,50.742,23.759,1.851,52.674,91.564,28.048,10.049,25.686,79.401,8.348,5.64,33.205,-3.333,-4.498,13.333,82.186,12.275,-2.087,31.098,-249.258
1.1405236999999033,-13.669,-21.722,-323.754,49.658,-9.476,39.531,327.398,129.399,-6.142,29.687,5.292,-9.421,37.764,75.591,15.725,-5.842,9.779,66.002,-6.517,-9.735,27.024,-18.699,-13.202,6.147,80.055,2.529,-9.257,18.771,-231.078
1.1405802999997832,-6.483,-17.601,-311.648,48.071,-11.004,31.807,359.858,101.605,-11.771,29.657,10.41,-5.314,42.337,80.638,19.295,2.361,18.991,72.084,5.272,-4.089,33.144,-9.459,-3.968,13.825,94.832,10.723,-6.686,28.487,-233.409
1.157658199999787,-6.989,-6.313,-305.701,58.782,-2.796,46.12,327.223,124.045,0.536,40.898,20.133,-0.698,51.516,94.902,27.473,12.092,32.804,87.893,18.587,8.722,39.771,5.408,7.307,25.595,106.52,21.983,1.517,42.803,-240.86
1.1577253999998902,1.215,7.013,-304.37,68.969,10.527,64.517,294.62,156.709,8.732,51.103,26.261,2.889,54.538,110.176,37.179,14.641,37.382,99.076,22.154,12.812,47.928,9.501,12.935,33.766,122.807,27.084,9.713,46.346,-224.225
1.170720799999799,16.071,12.642,-298.943,78.122,18.713,68.551,327.113,159.626,11.797,55.663,34.431,8.01,58.582,114.165,44.827,23.336,41.955,101.026,27.255,16.898,50.954,14.102,17.021,39.368,145.226,31.668,14.314,50.398,-210.681
1.17079990000002,16.055,6.994,-291.472,68.822,14.596,57.724,359.574,138.974,11.786,50.484,34.397,7.489,62.11,105.341,40.683,25.874,43.45,99.9,28.253,20.979,44.243,13.576,15.467,32.668,165.573,30.1,12.25,53.422,-209.446
1.1855617999999595,7.842,6.474,-288.106,49.798,13.045,57.666,336.161,135.249,10.749,51.458,34.875,9.531,63.585,101.138,38.593,25.336,41.87,103.899,28.737,21.983,45.736,13.562,14.427,32.123,150.551,31.606,13.775,55.93,-204.626
1.2007595999998557,12.445,15.177,-291.404,59.482,20.716,69.904,303.549,144.847,13.812,62.678,43.037,16.181,66.083,104.11,46.24,31.971,41.316,104.307,36.393,25.035,52.35,26.869,20.56,50.022,118.125,43.87,20.933,63.046,-208.007
1.200825899999927,16.018,15.162,-298.798,78.89,17.622,70.346,300.172,146.239,14.823,61.59,37.358,11.042,64.48,99.908,44.144,25.791,35.639,89.858,32.77,21.936,48.199,26.329,17.978,49.972,122.617,42.289,15.789,62.983,-219.07
1.2008740999999645,6.268,4.901,-305.159,71.127,8.382,61.566,281.428,149.167,9.685,53.332,25.538,2.322,57.243,91.099,34.366,13.47,28.431,78.498,17.88,11.155,43.54,7.86,7.201,28.917,148.11,27.39,2.966,53.186,-225.511
1.2168212999999923,1.139,5.408,-302.804,65.42,16.059,68.165,281.659,161.313,16.848,60.963,33.197,8.98,59.747,92.032,37.406,20.116,33.526,89.178,21.961,15.755,49.645,12.463,11.293,30.938,134.13,28.9,8.598,50.571,-222.724
1.231128699999772,11.384,14.112,-288.669,77.65,25.264,76.294,314.165,160.64,26.052,68.587,43.41,18.192,67.884,106.797,47.102,28.293,44.763,105.995,38.845,27.522,55.743,30.894,22.552,47.813,127.336,39.629,18.324,51.545,-209.693
1.2311937999998008,11.885,8.462,-284.794,72.962,13.456,64.434,346.639,142.548,10.657,53.661,30.559,9.465,57.57,112.326,43.469,20.58,43.694,102.303,34.708,20.835,50.564,21.641,16.382,41.617,150.262,34.979,10.108,44.834,-203.848
1.245752999999695,-6.058,-6.403,-301.928,52.396,-1.927,47.464,314.017,126.524,-9.846,35.677,11.573,-5.402,38.557,90.184,24.982,7.752,30.33,87.343,15.718,4.933,35.144,1.127,2.533,23.645,133.206,19.062,-1.173,40.178,-224.137
1.2458177999997133,-11.175,-5.884,-310.335,48.758,-1.925,42.805,327.023,116.152,-6.762,34.104,10.024,-7.958,36.982,75.237,15.223,0.572,24.152,84.182,10.579,3.391,31.523,-0.411,0.481,22.597,100.797,11.359,0.366,37.577,-236.208
1.2607476999996834,8.304,7.954,-291.582,61.517,10.885,53.009,359.483,120.134,8.614,48.415,27.433,4.858,53.851,97.191,34.676,11.33,36.423,93.32,26.45,17.732,48.91,14.959,14.313,38.968,123.75,24.155,9.074,38.564,-206.77
1.260807499999828,20.591,18.704,-272.847,73.238,26.755,74.473,326.849,151.777,26.024,69.371,45.848,21.759,73.777,114.0,58.72,33.348,50.219,106.034,41.28,32.059,61.668,30.313,28.131,51.224,155.389,42.574,17.775,47.234,-178.386
1.275760900000023,9.812,13.05,-278.21,71.116,26.216,80.034,294.246,171.605,32.145,72.888,40.167,21.225,73.191,99.541,50.464,28.704,45.046,103.366,28.944,24.854,53.41,23.11,16.832,37.853,131.668,34.334,13.658,48.724,-200.237
1.2798886999999013,-5.055,-5.918,-296.375,54.139,9.284,58.949,318.543,149.404,15.207,51.81,22.196,4.81,52.113,88.171,27.36,6.646,32.193,83.283,6.373,4.85,44.135,0.033,-5.726,14.761,103.359,12.271,0.325,36.38,-232.312
1.2928469999997105,0.074,-5.4,-304.788,53.06,9.275,52.742,351.012,134.91,6.483,45.611,25.248,2.756,49.5,94.23,32.968,10.225,36.259,84.737,14.564,12.017,49.214,3.62,0.94,18.333,122.211,18.406,4.423,35.831,-228.494
1.2929116999998769,15.955,18.684,-289.626,79.647,28.221,74.719,318.386,156.804,23.895,68.619,44.178,19.659,71.479,110.018,53.427,30.195,56.715,114.878,41.702,36.083,60.948,31.281,27.066,41.881,154.365,42.466,22.861,48.091,-198.552
1.3059315999998944,19.013,29.936,-265.77,93.399,34.34,86.427,325.239,167.918,34.117,82.383,50.794,27.324,82.166,131.425,54.398,33.751,69.466,130.132,49.857,39.634,65.498,39.958,33.187,53.622,157.796,49.596,25.912,50.604,-180.422
1.3059967999997752,9.772,20.172,-262.943,77.937,25.084,77.631,357.702,154.431,25.374,72.054,42.034,21.149,73.887,130.781,43.585,27.057,59.663,118.219,38.536,28.323,60.309,23.525,21.371,44.347,139.708,38.276,16.665,43.894,-184.853
1.3208018999998785,5.152,7.344,-284.709,63.514,14.301,63.722,347.61,141.468,16.639,59.174,28.16,10.37,61.006,98.887,36.882,14.735,38.086,96.584,18.005,13.438,47.953,5.058,3.931,20.736,124.199,20.307,5.378,33.604,-210.283
1.3208609999996952,0.536,-2.397,-299.281,60.889,6.09,52.387,361.095,131.593,10.987,51.943,20.447,2.675,52.235,81.37,29.673,3.962,30.876,81.63,5.18,0.617,40.221,-1.607,-6.319,5.859,121.001,7.991,-2.825,23.324,-229.028
1.3358392999998614,-0.489,7.339,-280.539,71.074,13.768,63.093,373.542,144.269,19.685,59.576,31.185,10.869,59.356,99.731,32.717,13.691,44.165,93.844,19.007,11.887,49.914,13.252,10.081,24.296,122.929,20.278,7.937,33.547,-210.356
1.3397979999999734,16.417,36.534,-249.52,93.545,34.759,94.793,340.893,176.913,43.232,85.644,51.134,27.252,79.276,116.538,50.615,29.559,55.392,115.267,37.943,33.392,67.283,33.218,28.002,47.325,123.318,43.312,26.884,59.641,-180.432
1.353117299999667,28.696,43.157,-247.221,103.185,39.335,102.895,308.276,191.08,45.238,92.218,51.082,24.151,80.734,108.224,55.175,26.456,50.726,106.443,31.757,30.285,64.142,27.55,17.728,41.13,119.097,45.83,25.32,55.995,-175.641
1.3531966999998986,8.688,20.06,-270.54,85.151,20.34,74.615,340.756,158.614,17.528,63.437,31.564,7.22,56.062,85.062,37.701,11.06,33.769,81.746,14.82,13.348,44.61,8.054,0.291,22.646,108.731,27.341,11.463,26.737,-189.81
1.365909499999816,-11.301,3.134,-284.614,58.938,3.414,47.388,373.203,126.18,-5.031,40.832,15.651,-0.984,35.514,64.485,22.807,-1.759,18.366,70.393,3.022,1.552,35.856,-2.2,-5.344,6.23,107.598,8.359,2.742,12.366,-210.112
1.3659739999998237,-1.556,3.131,-283.305,52.732,4.435,49.903,340.554,137.324,-2.465,46.426,16.147,2.603,41.114,66.47,24.833,-3.806,19.884,68.273,-0.055,-2.548,41.456,-5.784,-7.388,1.1,119.786,3.227,-1.359,22.088,-223.222
1.3799483999996482,9.204,8.251,-283.022,65.487,11.091,69.32,307.938,169.975,11.37,59.188,25.865,5.675,55.417,86.896,33.518,4.907,31.648,73.841,6.605,6.164,47.05,-2.192,-1.745,15.956,115.055,12.958,1.204,33.849,-213.265
1.380011299999751,-0.539,11.316,-283.763,70.032,9.542,72.325,309.68,174.416,16.994,60.665,25.839,3.108,53.825,92.444,31.435,5.927,31.104,79.914,8.647,11.793,47.515,4.47,3.892,19.526,102.132,18.58,5.301,31.253,-206.392
1.3949367000000166,-0.026,13.354,-273.746,67.4,9.021,65.593,342.158,163.995,19.539,60.605,24.789,6.691,52.234,86.716,27.817,5.921,30.048,83.933,11.713,10.244,51.053,10.101,5.425,11.31,124.572,19.586,8.882,27.123,-203.624
1.3990488999997979,23.028,26.149,-259.64,89.362,22.844,82.433,352.574,176.639,32.327,74.889,41.158,20.516,69.6,97.9,44.183,19.235,46.412,97.681,32.193,23.554,63.298,22.899,19.764,29.742,148.013,35.448,21.168,40.929,-174.219
1.4121569999997519,30.177,36.369,-259.38,101.568,33.067,97.72,350.172,192.856,38.442,87.621,51.875,25.106,79.265,104.975,55.41,23.314,50.976,99.121,39.333,34.801,67.845,28.511,25.38,43.544,127.373,46.171,27.807,49.085,-161.237
1.4122214999997595,15.29,29.672,-268.342,77.901,28.936,86.351,320.108,191.638,31.231,80.874,41.577,18.421,68.427,88.476,43.059,11.508,37.093,81.603,23.413,23.496,60.605,18.237,13.571,25.058,112.901,34.342,20.607,36.74,-193.351
1.424966300000051,18.349,28.106,-263.463,75.773,27.37,81.142,329.01,188.373,34.274,75.158,39.998,20.964,69.383,85.314,43.528,10.984,40.642,86.644,23.901,22.447,63.618,20.78,21.242,30.156,128.158,35.845,20.586,42.339,-211.088
1.4399270999997498,27.039,29.614,-257.564,86.968,23.756,76.962,361.468,168.717,31.678,69.959,40.471,19.919,68.289,92.401,49.632,10.461,46.749,94.242,26.951,24.474,67.141,24.345,24.807,44.47,127.517,42.981,18.004,53.567,-197.557
1.4399841999997989,4.983,5.506,-280.36,55.631,3.24,50.758,384.673,136.273,2.957,47.348,16.352,-0.081,42.093,70.279,23.967,-11.067,25.697,68.021,2.846,1.908,47.094,-3.344,-6.469,12.15,112.02,15.273,-3.018,21.238,-196.847
1.4549881999996614,-13.977,-7.307,-297.498,42.255,-4.448,45.584,352.013,147.92,-3.193,39.104,7.114,-6.229,32.83,54.839,9.599,-16.691,18.499,59.756,-5.354,-4.754,39.874,-16.148,-16.708,-7.33,97.051,-3.697,-8.138,-3.886,-193.577
1.455049499999859,8.066,22.414,-274.147,75.001,19.635,77.301,319.385,180.559,26.524,63.655,33.235,14.27,56.875,81.937,37.766,5.867,42.559,90.947,19.755,20.354,64.938,12.045,11.998,25.465,86.196,26.02,12.874,28.906,-181.088
1.4713204999998197,29.063,37.249,-256.455,86.196,29.35,85.933,351.854,177.305,34.694,74.35,44.984,22.453,64.503,100.81,53.61,13.546,48.152,95.979,28.956,26.994,72.557,23.816,21.207,39.272,118.385,43.413,19.521,53.98,-188.079
1.4713842999999542,15.714,18.768,-272.08,61.007,12.926,66.892,384.29,145.365,15.192,58.394,29.57,10.647,51.118,80.729,36.65,1.237,31.71,71.804,15.607,13.134,54.554,5.349,6.841,12.593,151.054,20.828,7.206,25.749,-189.428
1.4867833999996947,1.353,14.651,-276.418,63.508,11.889,64.264,351.63,145.732,11.078,54.237,23.393,7.563,47.993,67.841,28.929,-1.838,29.629,70.196,12.006,11.584,54.499,0.733,3.248,9.507,129.386,12.098,3.613,4.718,-168.746
1.4868913999998767,10.573,28.469,-262.31,73.178,24.685,74.958,336.934,164.541,21.313,63.917,33.616,13.19,54.093,80.069,39.146,4.824,36.772,83.958,20.191,18.233,66.74,15.077,12.979,29.477,96.982,30.016,10.782,16.497,-166.528
1.5000927999999476,19.272,33.564,-266.146,66.957,22.611,75.907,369.384,162.327,25.39,65.902,39.217,15.226,58.65,82.038,42.693,6.868,38.272,85.923,23.757,20.264,66.161,23.771,21.163,36.62,97.397,37.159,15.382,27.239,-183.78
1.500158399999691,8.494,28.919,-275.613,72.525,16.953,72.758,363.38,155.505,25.365,62.25,32.006,15.211,59.104,66.586,34.966,4.812,38.746,84.3,16.56,18.194,64.046,17.6,13.457,28.386,127.526,26.363,10.756,23.113,-187.182
1.5150532999996358,3.875,31.964,-263.042,84.748,27.694,82.419,330.741,177.891,34.049,69.36,34.023,18.782,63.143,72.668,39.542,8.393,44.855,91.388,18.593,20.738,72.179,16.045,8.833,23.747,149.427,23.775,10.233,24.115,-175.724
1.515114999999696,22.827,46.277,-246.898,89.787,43.036,102.316,298.135,204.353,46.822,86.709,54.994,30.034,77.424,104.358,62.556,21.193,54.544,100.006,37.53,33.525,80.303,33.96,28.292,41.142,141.593,41.682,26.104,37.923,-162.741
1.5321340999998938,25.878,45.718,-258.946,89.185,38.894,96.066,330.624,181.607,38.066,80.475,53.402,28.467,76.322,106.303,60.444,18.61,49.879,91.709,31.857,30.417,73.051,33.926,27.751,50.322,109.176,44.714,26.078,32.762,-159.504
1.5322002999996585,0.749,16.983,-283.79,67.578,13.752,63.695,363.081,149.15,10.364,48.119,21.073,5.897,47.557,73.921,28.108,-7.024,26.263,63.953,-0.45,3.234,50.436,1.617,-4.552,21.583,81.403,13.931,-1.613,0.454,-174.714
1.5451298999996652,-3.351,6.72,-282.994,48.043,5.542,55.947,355.546,145.415,9.329,44.485,16.441,3.33,39.825,65.138,23.982,-12.14,23.675,58.766,0.575,0.67,44.75,-4.533,-4.547,4.143,114.109,0.597,-4.685,-11.33,-184.786
1.5451955999997153,17.145,30.28,-262.731,68.487,27.053,85.605,322.915,178.057,33.398,71.08,41.528,24.331,63.863,92.738,49.061,12.463,46.705,83.298,29.264,25.26,66.223,25.186,22.097,20.532,146.782,23.138,19.398,12.76,-178.453
1.5601317999999083,13.542,32.298,-264.006,85.325,30.612,89.617,290.317,187.101,32.34,67.935,39.949,20.208,61.238,88.034,45.426,12.963,41.023,84.751,23.087,21.648,69.742,22.599,15.927,22.561,116.409,25.677,15.28,20.432,-184.935
1.5601966999997785,-1.841,12.798,-284.234,64.747,11.114,66.986,294.125,170.008,15.401,46.35,21.466,2.257,41.709,57.208,26.937,-6.518,17.928,62.637,3.596,2.159,52.254,3.621,3.104,15.879,84.018,7.72,-0.104,6.579,-195.508
1.5751109999996515,9.944,14.835,-284.974,57.51,15.201,71.018,305.614,177.01,27.681,59.624,29.129,11.476,53.963,62.786,35.619,0.661,30.206,66.673,14.863,12.403,56.813,14.376,13.347,32.769,82.397,15.397,10.142,0.425,-174.308
1.5901346999999078,20.692,21.48,-272.394,70.773,28.506,88.365,302.747,197.325,43.023,77.495,40.883,21.199,67.741,86.801,44.805,13.468,48.106,81.463,23.557,24.174,64.953,20.509,14.87,38.371,94.097,24.091,15.255,-0.6,-160.814
1.5944086999998035,4.278,7.626,-276.22,56.358,13.62,78.031,317.813,177.66,21.975,58.975,28.035,9.395,49.742,84.665,31.441,0.134,33.713,72.673,8.677,8.268,48.494,4.607,4.097,21.427,87.856,8.185,0.383,-4.698,-187.293
1.6073473999999806,-3.411,2.496,-286.702,36.833,4.898,61.046,350.283,145.207,4.535,45.083,19.81,4.774,39.447,75.871,24.237,-6.526,25.995,62.866,5.594,2.112,43.835,5.627,7.167,17.819,104.162,7.152,1.919,-5.206,-204.524
1.6074122999998508,14.523,15.301,-283.854,54.215,23.848,75.842,317.657,168.116,23.998,64.506,36.696,16.04,54.776,79.382,37.533,11.412,41.338,72.025,20.958,19.528,62.234,20.478,15.357,25.486,135.308,24.564,17.287,1.459,-189.975
1.620264899999711,23.73,20.921,-279.984,71.067,30.997,97.283,285.064,200.735,38.831,78.786,50.492,24.734,63.431,82.888,48.253,21.646,46.932,81.687,26.06,27.193,67.807,24.556,17.903,30.584,127.488,26.588,19.318,5.556,-176.977
1.620326699999623,12.948,11.678,-281.753,56.651,20.207,88.477,317.567,176.968,25.984,68.461,43.269,22.66,56.707,82.806,44.619,15.477,42.275,80.068,22.448,21.019,62.616,20.433,17.885,36.188,100.209,20.926,15.201,-4.695,-172.19
1.6352182999999059,6.787,2.958,-283.521,41.225,14.039,65.335,350.037,144.516,11.101,54.048,30.418,14.44,48.966,71.964,31.767,8.801,37.622,69.742,17.815,14.338,57.943,13.241,12.232,32.566,90.887,16.807,11.599,-16.474,-178.677
1.6352827000000616,8.318,-0.632,-295.533,42.721,7.365,57.585,317.412,146.933,5.455,46.309,19.629,4.179,40.208,54.986,20.464,0.083,24.776,56.352,3.452,3.565,45.077,0.42,-0.588,20.238,86.185,1.421,0.829,-15.945,-203.602
1.6502216999997472,3.186,-2.168,-304.971,43.191,2.235,61.625,284.819,173.938,5.449,43.189,13.462,-0.948,30.434,53.907,16.345,-8.114,15.53,44.513,-7.822,-5.66,36.323,-9.315,-9.297,14.07,94.296,-9.339,-5.319,-17.466,-206.984
1.6540138999998817,3.695,8.08,-282.124,47.758,15.04,74.884,317.322,186.572,17.227,55.954,24.719,7.762,36.551,69.734,26.063,2.653,30.371,44.98,7.555,6.128,47.557,1.966,3.008,22.765,125.452,8.089,8.006,-9.251,-176.551
1.665661,25.208,35.225,-252.641,72.301,38.079,94.789,349.792,196.632,37.702,77.415,48.773,29.272,61.105,80.935,47.041,25.192,52.883,59.792,37.261,32.25,64.928,34.751,32.206,46.309,139.159,38.819,30.027,23.546,-145.124
1.6657459999996718,42.602,50.559,-252.9,94.258,45.213,96.743,382.23,189.775,39.714,80.924,55.896,35.902,72.827,81.879,57.753,31.314,57.441,62.294,46.446,40.927,68.962,48.549,43.445,62.656,120.065,49.027,36.657,37.354,-129.097
1.680250800000067,25.653,31.553,-268.529,76.746,29.286,75.13,366.991,160.384,15.083,59.326,35.348,16.399,49.701,73.6,42.838,14.889,39.965,36.104,26.931,21.931,54.548,21.348,20.86,45.175,105.088,32.071,20.227,9.652,-151.51
1.6803161999996519,0.524,15.127,-281.068,50.029,12.863,66.858,334.349,162.273,3.285,44.922,19.944,3.575,28.646,63.28,27.426,1.554,26.092,21.723,9.486,7.052,42.198,6.47,2.908,21.052,105.495,13.596,5.862,-3.677,-183.634
1.695174699999825,12.819,30.481,-280.275,62.786,23.609,83.697,301.739,194.898,26.848,63.32,36.318,17.403,48.598,67.316,38.157,13.336,40.411,46.292,23.821,21.902,53.427,27.468,18.787,32.301,112.049,22.804,18.664,11.183,-163.982
1.6952347999999802,36.372,46.332,-262.576,81.167,44.078,92.323,334.225,192.142,41.166,82.724,53.187,30.194,71.091,77.494,54.513,31.253,55.74,63.152,41.728,39.298,65.669,40.76,34.65,53.274,120.134,40.712,31.965,18.344,-131.031
1.7101855999999316,26.602,38.602,-261.289,61.106,38.398,83.521,312.886,169.92,25.243,71.371,41.863,21.966,55.65,69.732,47.286,23.025,43.389,43.109,26.83,28.5,53.308,27.912,21.807,45.023,116.94,33.499,22.199,15.764,-158.052
1.7140073999999004,10.694,30.366,-281.008,48.237,27.601,80.876,280.298,184.607,19.582,60.541,33.112,12.723,39.201,59.929,33.406,9.682,33.611,31.795,12.458,14.64,41.471,19.175,11.027,30.121,102.479,23.219,16.029,16.773,-190.169
1.7256121999998868,24.516,36.996,-278.165,69.193,37.308,86.43,312.805,191.083,30.321,72.263,45.375,21.419,54.018,73.701,42.082,19.406,49.459,51.744,28.839,28.457,50.139,29.914,29.459,40.85,106.987,38.566,27.796,20.343,-157.191
1.7256698999999571,33.713,42.082,-260.981,77.321,40.344,80.196,345.28,158.616,30.291,73.728,48.403,29.595,62.674,86.435,55.872,27.584,59.656,63.475,42.131,40.212,53.163,40.13,42.237,55.154,134.545,50.822,33.404,23.909,-131.931
1.740226200000052,14.211,34.867,-265.843,60.85,27.496,73.456,312.659,157.433,26.162,62.384,39.133,19.832,50.316,74.566,46.595,16.798,47.813,56.239,32.355,26.339,43.376,32.406,29.9,45.877,136.972,38.988,25.174,21.835,-160.488
1.7402882999999747,0.365,23.562,-277.36,51.567,21.321,74.407,280.071,188.526,23.574,61.809,31.922,8.029,40.019,59.634,31.179,8.584,35.47,44.912,16.441,12.993,38.209,14.955,17.062,29.949,104.559,25.117,15.415,12.592,-166.988
1.7551840999999513,5.487,13.292,-287.329,46.393,15.152,66.136,312.579,169.382,12.28,54.063,20.619,4.947,29.733,52.402,26.537,2.94,29.287,26.936,3.617,7.345,33.048,3.157,8.848,22.747,77.302,12.797,6.178,-1.253,-162.21
1.7552480999997897,7.019,8.668,-293.189,41.223,10.014,56.848,345.054,141.036,6.632,41.713,15.475,4.942,26.117,45.177,25.998,-1.674,28.233,19.737,0.539,2.727,29.941,1.617,5.765,17.089,107.451,4.587,2.585,-10.985,-174.856
1.770166899999822,7.012,16.856,-277.014,47.842,23.324,73.185,312.433,173.17,17.897,55.504,30.317,10.572,39.923,50.255,30.583,8.574,35.377,36.111,10.272,11.433,41.182,13.398,17.543,17.072,135.008,13.804,11.804,-4.827,-164.435
1.787066699999741,10.079,24.012,-261.368,54.966,31.497,89.506,279.846,200.15,25.051,69.28,37.459,17.222,46.031,58.914,38.749,16.25,39.952,38.124,14.361,20.131,45.752,22.094,23.161,23.203,117.455,24.549,19.477,-0.211,-148.901
1.7871327999996538,8.532,19.377,-270.328,54.912,21.22,80.707,312.354,180.482,19.903,57.94,29.224,13.106,36.251,53.22,35.125,8.037,33.765,23.742,10.76,12.938,32.386,16.436,14.94,22.667,106.067,20.938,14.335,-8.92,-157.974
1.8001953999996658,9.548,18.845,-270.058,62.029,22.223,74.479,344.829,171.08,22.444,57.882,31.757,14.63,41.338,52.142,30.991,8.029,35.268,30.89,14.336,14.462,31.841,18.982,20.049,24.181,116.207,23.991,13.808,-7.887,-154.742
1.8002581000000646,17.223,27.536,-260.054,64.528,32.447,82.601,374.71,173.47,29.082,70.632,40.947,25.374,53.08,64.898,37.62,20.316,47.528,43.667,23.03,23.67,43.08,31.258,32.836,34.403,110.455,33.701,21.479,4.929,-147.927
1.815200300000015,21.816,32.631,-265.429,61.39,37.025,89.691,361.015,178.932,31.614,72.099,44.492,26.885,53.539,69.444,42.705,22.858,51.067,45.16,25.569,22.621,44.062,33.276,33.828,37.443,120.079,34.691,24.531,7.998,-162.636
1.8152651999998852,26.918,33.623,-263.115,77.722,43.136,98.823,328.379,208.979,41.317,80.736,50.083,26.346,58.608,67.325,48.298,22.322,51.016,52.287,21.957,25.16,47.092,31.706,32.257,31.258,152.746,36.706,22.457,7.478,-160.424
1.8302827999996225,19.206,24.368,-262.339,78.669,31.31,91.552,344.445,202.11,38.202,77.069,43.373,21.709,53.427,60.598,43.127,15.64,49.94,42.501,10.664,20.012,40.897,23.477,21.467,17.906,132.613,26.423,15.263,-2.264,-152.579
1.8303587999998854,-5.916,3.851,-284.106,46.315,2.589,59.185,376.888,169.633,5.888,44.716,17.201,1.195,27.246,46.192,16.444,-5.38,34.008,13.257,-5.74,-4.599,17.29,0.4,-0.072,-1.067,100.205,0.781,0.39,-24.803,-172.919
1.8472022999999353,-4.373,5.384,-277.674,38.072,4.123,57.589,344.236,174.586,-0.778,43.135,14.11,-1.368,27.731,45.634,13.866,-7.424,26.802,20.929,-8.296,-2.545,18.297,-1.138,2.49,3.033,96.007,5.391,1.415,-20.68,-170.184
1.8472680999998374,23.808,32.531,-244.609,70.822,30.247,90.319,311.616,207.199,32.011,75.879,37.662,19.126,52.294,54.298,42.029,14.613,43.169,42.937,7.594,23.073,39.796,24.991,23.492,30.694,128.699,33.563,20.369,5.981,-137.739
1.8606260999999904,23.272,38.646,-248.975,78.436,27.655,89.204,344.092,197.258,35.565,67.606,39.162,18.594,45.069,51.682,40.962,16.647,48.761,32.135,14.759,18.439,34.633,27.016,23.468,30.664,145.988,34.042,23.934,6.487,-140.675
1.8607030999996823,7.879,23.751,-271.268,49.668,12.771,56.839,376.536,164.786,8.889,43.46,22.729,6.28,27.093,50.093,21.453,0.237,38.467,25.956,5.01,5.613,21.79,10.595,14.223,8.091,140.207,19.151,13.152,-1.716,-162.051
1.8751366999999846,9.921,13.481,-272.021,35.274,11.733,49.61,343.884,156.424,-3.415,44.954,15.021,4.737,26.554,44.92,19.383,-6.936,32.793,26.442,-4.216,4.583,23.306,4.436,8.061,-0.114,126.234,11.447,6.479,-5.301,-164.451
1.890099299999747,4.788,2.197,-279.434,27.041,4.037,48.536,311.264,152.681,-8.535,33.638,7.834,-2.952,16.794,30.018,11.166,-13.077,26.612,3.874,-12.921,-9.766,15.085,-3.765,-3.73,-4.212,102.542,-0.86,-2.237,-24.763,-166.848
1.8901527999996688,0.684,8.342,-275.568,37.26,5.57,59.246,278.678,178.656,6.843,40.265,16.023,2.174,21.9,45.87,12.692,-7.428,36.832,17.702,-9.835,-5.658,18.656,0.337,3.959,1.94,118.321,5.801,1.864,-21.664,-153.361
1.890191699999832,16.565,30.363,-251.214,66.425,24.52,83.777,290.694,211.265,35.525,72.5,37.012,20.615,49.543,71.439,36.246,11.535,59.336,50.472,11.18,19.963,38.618,21.854,25.472,22.943,145.355,29.361,17.744,2.436,-131.691
1.9052808999999797,10.913,7.791,-274.529,41.768,12.2,53.98,323.191,178.779,7.313,43.738,15.97,4.713,31.05,41.141,22.377,-3.846,37.76,21.733,3.484,2.524,18.599,6.463,6.491,4.477,112.934,11.401,1.844,-24.207,-162.81
1.90535299999965,-10.614,-24.492,-306.53,9.45,-13.94,21.65,308.524,146.325,-24.97,11.419,-12.223,-16.809,-1.257,12.923,-4.798,-28.945,10.57,-10.564,-24.696,-19.507,-8.059,-20.696,-18.619,-27.803,82.595,-19.861,-18.65,-53.384,-194.922
1.920255499999712,6.815,8.32,-273.436,42.229,13.226,54.416,275.94,178.966,7.843,44.195,20.577,13.434,31.532,45.698,27.483,0.798,43.347,22.234,1.968,13.3,22.175,10.063,14.187,2.451,115.3,10.385,9.033,-20.543,-161.94
1.920323499999995,33.448,41.1,-240.375,74.974,46.001,87.15,305.89,211.575,40.623,76.939,53.344,40.061,64.289,75.879,60.243,33.584,74.555,54.999,34.754,39.926,49.817,42.841,45.936,35.236,147.973,43.162,37.714,12.265,-130.527
1.9352109999999811,23.681,18.005,-262.163,51.333,25.462,58.373,338.372,179.088,8.307,44.586,26.139,17.991,37.072,50.7,40.203,11.522,46.303,25.231,12.69,18.882,26.714,24.355,25.91,15.733,115.549,25.701,20.257,-18.486,-151.401
1.9352744999996503,6.751,-2.506,-283.418,19.006,1.871,33.212,305.758,169.175,-13.219,23.025,1.009,-2.519,9.883,32.718,20.695,-11.031,28.838,9.836,-16.524,3.494,9.781,0.764,6.929,-7.849,86.232,0.572,-0.255,-41.009,-155.86
1.950262699999712,5.719,9.28,-274.426,26.16,9.041,37.789,338.24,160.296,-5.521,26.588,8.693,3.119,18.582,40.882,22.211,-3.848,39.568,21.609,-5.749,5.54,16.943,4.862,13.07,2.405,90.757,6.719,3.844,-27.135,-139.311
1.965248900000006,10.837,13.881,-269.54,32.281,17.741,32.116,370.689,127.861,-10.126,22.975,15.344,10.8,26.76,44.94,25.262,1.279,39.528,21.075,2.966,8.608,20.512,14.591,19.205,6.501,121.404,16.446,11.012,-14.3,-145.831
1.969390299999759,16.974,15.404,-273.882,30.712,21.822,40.281,338.043,150.274,-2.431,33.711,19.94,12.326,30.32,38.235,33.434,0.765,37.44,20.03,0.914,15.772,22.541,16.626,23.796,-1.702,152.534,15.917,15.099,-10.7,-160.03
1.982555499999762,12.346,17.438,-281.292,36.317,23.849,58.171,305.43,182.912,12.94,46.485,22.994,11.802,32.339,28.975,35.45,2.814,34.841,17.448,2.45,13.707,20.982,13.023,22.748,-4.262,129.84,12.315,16.109,-12.738,-164.481
1.9826211999998122,4.137,16.908,-276.4,47.039,21.776,56.576,337.912,179.143,10.366,42.852,21.946,14.864,31.282,35.094,32.341,7.934,34.294,13.845,3.472,12.668,17.887,17.621,19.651,1.377,101.021,18.451,17.117,-15.287,-149.459
1.995364299999892,15.915,29.187,-255.119,58.775,29.439,58.057,357.042,178.964,10.868,47.42,29.609,21.509,34.836,52.99,42.042,15.098,46.555,23.565,10.641,25.463,27.09,30.411,28.341,15.208,116.289,32.777,24.785,-13.223,-116.522
1.9954296999999315,23.072,31.207,-257.426,50.007,32.484,57.486,362.833,177.248,9.832,47.372,30.604,19.438,34.289,46.277,41.488,13.034,47.533,26.615,14.216,22.364,29.625,25.769,30.362,17.755,98.242,31.207,26.809,-18.333,-116.918
2.0104135999999926,10.241,14.27,-280.734,29.464,20.156,41.035,395.257,144.795,-0.936,36.054,19.302,13.271,28.107,29.837,26.589,2.262,37.239,16.854,2.931,10.046,20.374,13.448,20.597,3.392,65.868,15.294,18.073,-21.388,-149.077
2.010478599999715,6.132,12.206,-282.503,29.435,14.5,39.457,362.587,147.212,4.188,37.555,18.771,15.307,28.592,35.954,28.612,2.26,40.788,15.301,-2.707,16.184,19.841,13.947,19.552,-4.808,94.492,10.156,11.908,-19.83,-160.198
2.025362999999743,13.811,17.317,-277.097,30.942,17.559,48.127,329.949,173.705,7.77,39.055,21.826,15.292,25.489,45.14,36.268,5.844,41.259,14.261,0.882,19.754,19.821,14.446,20.557,-4.291,127.185,12.195,13.433,-29.032,-142.62
2.0295028999998976,18.408,18.324,-274.771,28.862,24.202,52.177,353.185,171.482,4.176,39.015,24.365,17.838,27.001,44.583,36.744,7.888,40.706,17.32,7.541,18.709,20.314,22.628,25.66,4.423,141.914,21.404,24.178,-20.806,-131.719
2.0426807999997436,19.414,26.503,-266.812,42.153,29.813,58.273,385.62,164.65,14.418,49.735,32.026,23.456,38.757,45.05,39.269,9.417,49.887,30.623,9.07,23.302,22.343,29.778,31.782,13.128,126.916,28.555,27.74,0.732,-131.074
2.042747699999836,1.976,6.496,-287.549,25.717,4.68,32.087,418.022,134.772,-2.502,26.631,8.428,3.452,16.689,22.464,18.225,-11.597,27.808,7.538,-23.214,-2.849,-1.758,-2.527,1.524,-11.989,94.513,-2.212,-1.49,-31.544,-156.559
2.0554957999997896,-17.493,-25.785,-307.242,-6.584,-24.014,-0.221,428.874,102.362,-34.775,-5.671,-23.856,-20.63,-15.603,-3.174,-6.384,-37.201,-4.496,-24.744,-51.368,-31.536,-20.712,-32.239,-27.167,-41.178,62.143,-32.436,-22.493,-63.788,-173.821
2.055566699999872,5.578,3.442,-274.147,21.6,6.236,32.567,396.17,135.047,-7.588,23.024,4.857,4.494,10.54,19.371,23.336,-15.135,24.71,3.969,-18.529,1.283,11.584,0.581,5.648,-8.349,94.869,0.385,10.317,-30.936,-140.859
2.070548599999711,30.675,36.226,-241.085,54.366,39.018,65.322,363.499,167.7,25.207,55.789,37.64,35.228,43.317,50.602,56.101,17.668,57.473,36.753,14.277,34.07,37.188,33.368,38.43,24.447,127.562,33.172,40.021,1.882,-107.931
2.0706146999996236,17.325,16.722,-235.721,46.115,18.487,40.666,395.923,135.256,-0.946,34.216,17.11,17.774,24.318,35.694,38.114,5.867,37.436,17.249,-9.303,13.031,16.659,8.744,13.288,2.393,95.159,10.597,22.05,-26.809,-99.113
2.0855020999997578,13.209,0.312,-208.845,30.699,3.099,21.158,418.581,103.87,-21.949,12.665,-1.35,4.436,8.925,18.24,26.293,-11.045,21.517,-2.236,-22.102,1.747,7.42,0.026,1.492,-5.294,62.788,-4.27,13.831,-41.639,-76.473
2.0896514999999454,29.59,33.099,-175.849,63.456,27.174,53.924,385.887,136.554,10.86,41.854,24.779,22.875,30.945,32.054,43.685,6.385,42.5,19.795,3.024,25.824,20.221,24.105,24.032,20.327,90.39,22.886,31.236,-8.81,-43.609
2.1027268999996522,22.9,43.312,-161.328,78.25,28.172,60.53,403.432,148.713,14.435,47.96,25.778,22.34,30.914,40.219,38.518,8.428,42.458,19.263,-6.201,18.114,13.028,10.76,12.737,2.376,123.087,15.691,27.618,-5.215,-35.88
2.102796899999703,6.483,10.993,-193.442,45.896,-0.546,28.195,435.816,116.289,-17.854,15.636,-6.523,0.288,2.194,24.81,14.401,-19.758,19.361,-9.445,-38.47,-14.18,-6.453,-21.526,-19.038,-29.902,95.3,-16.6,6.586,-37.485,-61.972
2.115556999999626,7.501,-4.899,-215.79,28.432,-8.742,14.846,413.351,97.73,-27.57,3.838,-14.201,-5.347,-5.493,9.928,7.727,-27.423,14.219,-14.047,-42.018,-14.678,-7.471,-22.529,-17.995,-23.212,62.929,-21.194,0.432,-55.89,-79.329
2.1156278999997085,12.617,10.475,-214.038,39.162,9.197,37.373,380.662,130.42,-1.415,30.474,8.867,11.564,14.493,16.578,24.625,-3.829,31.111,8.509,-15.848,10.952,9.955,3.109,6.614,-0.135,85.92,7.516,15.288,-34.83,-80.274
2.1305153999996946,21.314,30.444,-206.651,53.467,26.094,58.853,400.261,157.442,14.468,51.448,27.814,28.459,33.946,38.078,45.093,12.056,47.986,23.357,4.148,26.31,24.29,23.086,22.489,14.21,118.622,28.513,34.228,-2.52,-70.46
2.14547709999988,30.001,30.414,-215.154,47.778,21.458,45.474,432.649,125.009,-1.94,37.052,18.564,22.283,26.227,35.479,38.9,2.31,41.79,13.6,-5.59,16.038,13.507,14.866,15.806,12.658,86.74,23.362,30.096,-3.029,-78.586
2.145555300000069,14.09,1.182,-247.214,19.041,0.944,16.739,446.561,92.608,-26.529,10.887,-6.557,2.28,0.586,5.73,14.783,-16.135,20.744,-3.32,-30.688,-4.983,-9.56,-10.764,-6.239,-14.507,59.501,-2.789,6.5,-35.302,-110.783
2.1613948999997774,-5.392,-17.775,-279.242,3.141,-3.668,17.747,413.839,117.106,-20.867,11.389,-10.649,-1.308,-6.587,3.162,9.645,-20.73,22.772,-0.755,-35.78,-9.076,-14.161,-17.926,-13.405,-28.324,89.155,-16.619,-0.679,-58.32,-142.435
2.1614591999996264,5.372,-5.974,-290.234,11.847,7.606,32.074,391.396,138.506,-5.99,26.746,3.194,6.89,4.178,29.287,20.393,-11.487,39.143,8.468,-26.011,1.179,-2.877,-5.612,-3.657,-9.853,89.579,-1.745,12.641,-43.917,-143.83
2.1755300999998326,27.396,4.278,-285.333,11.323,12.722,33.066,423.792,121.974,-7.008,31.33,9.338,10.982,10.834,33.356,27.033,-2.767,37.055,7.947,-16.251,7.838,6.86,6.176,7.105,3.989,73.607,14.138,21.85,-32.603,-142.662
2.1755926999999247,28.905,9.91,-282.998,7.725,19.882,44.304,391.093,136.197,2.733,37.959,15.989,18.655,19.532,23.076,36.228,4.921,38.042,13.574,-0.865,18.076,10.44,19.49,19.393,11.67,101.198,20.784,27.976,-24.373,-150.203
2.1904537999998865,17.093,15.023,-292.961,18.476,23.96,48.358,381.48,148.356,5.804,39.97,17.51,18.637,20.025,26.64,34.654,3.379,44.152,16.122,0.673,19.083,5.306,18.958,20.398,14.732,105.196,19.738,26.411,-18.201,-158.762
2.19051300000001,9.392,2.2,-314.698,13.334,8.567,23.719,413.886,115.932,-20.842,18.926,-0.951,3.249,4.636,21.49,16.689,-11.994,28.226,-1.312,-24.431,-1.429,-6.995,-5.651,-0.115,-8.337,88.697,-0.774,9.991,-40.212,-167.313
2.2054769999999735,11.944,-8.048,-323.605,-4.61,7.021,23.183,381.197,113.767,-21.846,16.345,-5.561,2.221,5.143,9.173,19.234,-17.105,18.464,-9.508,-32.604,-7.063,-10.062,-13.843,-7.799,-23.697,109.613,-15.117,4.346,-55.541,-171.244
2.2055390999998963,13.469,2.206,-319.182,-7.167,23.408,49.288,348.541,146.441,6.865,39.383,10.839,15.026,19.483,16.848,34.584,-7.354,31.766,-1.302,-18.739,8.314,-6.465,-0.509,1.43,-7.28,86.961,-2.807,14.075,-40.116,-166.974
2.2217952999999397,2.185,-4.456,-327.572,-9.209,11.089,35.918,380.98,129.9,0.198,31.147,3.656,10.401,12.803,22.979,24.303,-10.42,30.71,-5.911,-23.331,4.207,-11.07,-1.533,-1.133,-5.223,54.599,1.807,12.012,-43.15,-171.93
2.2218588999999156,-3.453,-20.333,-338.003,-13.81,-9.414,8.218,413.386,97.495,-19.269,7.037,-10.693,1.681,-1.554,15.272,10.959,-19.631,22.994,-10.004,-30.48,-8.093,-16.694,-6.655,-2.668,-14.44,87.332,-6.904,4.827,-62.062,-190.202
2.2359075999997913,5.26,-12.116,-335.616,-8.673,-0.183,17.943,380.698,109.693,-14.127,13.178,-4.534,6.802,-0.528,12.183,18.12,-15.001,33.217,1.789,-21.74,-2.449,-15.653,-1.012,4.507,-1.618,120.033,-3.824,8.409,-53.803,-197.184
2.2359698000000208,0.644,-10.567,-343.477,-13.275,1.354,25.61,348.042,126.49,-19.236,16.238,-7.603,4.746,-2.064,7.56,14.004,-13.961,30.11,-0.262,-28.378,-3.471,-19.735,-7.671,-3.183,4.532,87.637,-5.357,5.839,-47.09,-192.888
2.250573499999973,-9.091,-23.364,-356.454,-20.947,-9.918,15.851,339.497,118.678,-25.877,7.513,-13.231,-0.382,-5.648,2.429,6.817,-18.558,22.396,-8.458,-36.547,-9.616,-23.814,-12.787,-9.327,-9.305,55.274,-13.036,2.247,-57.289,-196.281
2.250638699999854,9.874,-11.558,-346.364,-1.97,5.973,28.642,329.936,143.151,-1.773,24.924,7.274,13.451,10.751,24.456,27.303,-6.244,45.939,10.506,-10.895,8.325,-12.007,7.206,8.613,-2.124,88.006,2.346,16.589,-48.01,-189.937
2.2655267999998614,23.184,0.237,-334.747,11.352,22.361,46.032,336.778,166.061,8.988,38.731,17.513,22.659,20.986,46.973,39.059,5.545,61.775,28.938,5.51,20.612,-7.385,18.982,19.875,18.371,95.091,15.664,27.843,-41.302,-164.644
2.2655863999998473,0.107,-19.231,-348.756,-13.251,3.896,26.006,369.229,134.132,-16.637,15.126,-4.534,5.218,-1.064,28.483,14.941,-10.854,38.659,13.028,-22.673,0.099,-26.845,-3.066,-0.125,7.082,65.282,-3.819,12.959,-69.95,-171.652
2.281856699999935,-14.238,-37.143,-366.851,-36.291,-17.113,-3.221,401.647,101.723,-36.6,-7.43,-22.46,-11.693,-20.018,1.814,-2.492,-29.287,17.616,-5.428,-45.191,-16.807,-38.601,-24.068,-23.691,-22.127,78.537,-24.82,-5.497,-92.421,-203.756
2.281922299999678,-1.416,-35.569,-366.996,-30.107,-11.46,2.417,409.443,105.207,-28.879,-0.763,-16.802,-5.022,-11.801,5.911,7.244,-23.11,23.746,-2.349,-34.388,-11.668,-31.39,-15.335,-18.032,-21.08,82.044,-21.722,-3.443,-81.058,-218.409
2.2956657999998242,5.245,-31.435,-360.994,-17.782,1.871,27.006,376.758,137.889,-10.407,14.607,-5.514,8.303,-0.006,21.787,16.458,-11.303,32.944,4.313,-20.521,-3.971,-26.748,0.562,3.503,6.606,59.933,-10.429,8.344,-71.756,-205.895
2.29573339999979,0.629,-30.378,-363.194,-20.325,2.382,29.028,344.106,152.609,-7.835,19.203,-2.947,7.271,1.018,23.814,15.929,-9.243,33.936,4.821,-21.525,-0.381,-29.283,-5.074,2.987,13.259,69.095,-9.906,9.872,-85.516,-203.64
2.3106142999999975,0.116,-40.082,-376.151,-35.674,-7.867,4.408,376.549,120.181,-27.807,3.302,-11.654,-1.958,-5.643,12.007,11.303,-15.381,28.266,1.23,-32.774,-4.992,-37.963,-18.389,-15.459,-5.71,58.267,-23.216,1.153,-107.972,-197.289
2.3256045999996786,2.678,-51.825,-387.558,-41.786,-13.494,-6.867,408.96,91.883,-34.952,-7.972,-17.79,-6.567,-14.346,3.286,5.144,-22.026,20.041,-4.919,-40.426,-13.696,-46.634,-17.346,-18.005,-11.339,25.933,-31.39,-2.434,-112.475,-189.407
2.325661200000013,5.749,-39.99,-378.974,-24.326,-4.772,17.218,376.276,124.579,-13.912,12.529,-7.013,-1.95,-8.184,11.992,6.676,-18.93,20.021,-5.938,-33.214,-8.047,-42.489,-11.693,-7.228,-2.106,58.695,-22.65,4.228,-92.895,-203.05
2.3406835999999203,7.792,-26.118,-363.225,-12.519,3.43,36.156,343.624,157.242,0.447,28.91,4.777,5.225,6.169,20.689,13.841,-10.202,25.124,-5.932,-27.545,2.207,-32.713,-12.706,-9.27,-5.178,91.424,-19.041,9.86,-78.97,-215.654
2.344622999999956,5.735,-34.801,-366.448,-25.826,0.865,24.849,376.068,126.859,-6.214,18.123,0.673,5.732,4.113,15.033,13.827,-13.266,22.537,-5.926,-35.202,-3.43,-36.778,-14.742,-17.458,-12.858,59.057,-26.194,6.776,-87.088,-211.34
2.358072600000014,6.242,-36.303,-371.205,-26.313,1.377,19.189,363.909,120.072,-7.745,15.031,-1.889,7.775,1.548,19.116,13.814,-14.789,27.126,7.912,-31.581,-3.427,-40.84,-11.654,-10.268,-3.111,28.26,-24.119,5.745,-92.124,-199.858
2.358152099999643,8.285,-23.971,-361.1,-4.769,5.474,29.928,331.27,138.395,-7.225,22.188,3.236,12.89,7.181,29.343,18.41,-6.578,37.857,15.588,-20.791,6.823,-37.725,-4.982,-0.012,8.675,59.995,-16.922,10.35,-86.908,-181.727
2.370844600000055,4.691,-28.558,-366.887,-5.789,-0.679,21.702,363.726,111.104,-20.537,10.895,-3.939,5.193,-3.072,14.457,11.732,-12.719,26.548,-4.919,-29.479,0.156,-45.885,-6.514,-7.184,7.13,47.639,-19.467,8.29,-86.309,-180.009
2.3709208999998737,8.784,-29.554,-380.864,-22.177,-3.753,9.384,396.15,90.501,-26.664,4.224,-11.108,-0.96,-11.778,-0.927,7.11,-20.391,15.251,-13.111,-30.986,-3.943,-50.449,-4.971,-8.714,12.758,20.952,-13.812,7.257,-75.464,-199.809
2.385788699999921,20.559,-3.909,-356.405,-6.786,14.694,31.404,363.479,123.198,-5.633,25.737,8.883,16.972,10.263,18.542,27.595,-0.39,37.777,12.005,-3.803,19.115,-28.37,17.576,16.398,32.725,53.718,9.768,24.668,-48.749,-184.24
2.3858550999998442,21.563,9.927,-323.261,13.201,28.512,52.89,348.771,146.129,9.742,42.617,28.342,28.738,25.11,33.38,42.424,13.955,48.498,19.677,5.934,31.392,-15.534,29.341,25.091,37.303,82.354,17.955,35.914,-43.065,-151.268
2.4008179999996173,13.856,-9.038,-339.844,-0.132,16.188,38.492,347.91,124.466,-7.174,27.205,9.871,11.803,3.055,14.904,24.963,-6.039,23.859,-8.007,-20.199,9.843,-33.449,5.234,-0.55,17.286,57.681,-4.092,22.558,-60.952,-162.9
2.4050571999996464,11.793,-21.837,-371.779,-12.94,4.901,21.035,339.877,110.509,-23.049,9.247,-10.631,0.52,-13.342,2.081,10.594,-21.915,12.564,-20.807,-35.036,-6.048,-44.174,-11.166,-12.844,3.949,33.032,-17.408,13.827,-64.478,-194.5
2.4178948999997374,14.855,-13.618,-366.797,-3.705,14.118,25.113,372.325,110.398,-10.218,17.947,4.236,10.766,1.016,15.399,19.805,-11.134,28.945,-0.806,-24.242,4.716,-36.445,1.141,-0.024,14.191,29.413,-6.12,19.448,-56.729,-185.596
2.417960199999925,15.865,-5.92,-340.302,3.983,21.276,33.797,404.74,113.362,1.575,32.786,19.089,18.952,16.384,26.655,27.982,-1.389,37.113,12.003,-17.558,14.958,-35.896,8.312,5.612,26.472,53.462,1.059,23.527,-61.795,-164.406
2.4308992999999646,18.923,-1.816,-333.814,9.614,20.742,40.423,372.06,127.593,-3.037,32.754,13.947,19.958,15.343,24.067,31.54,-2.925,34.002,7.38,-14.979,14.943,-35.348,9.328,8.167,29.007,76.462,1.058,26.065,-58.659,-161.68
2.4309755999997833,24.027,4.334,-337.067,17.289,27.894,50.117,339.413,146.933,2.089,34.258,17.519,20.963,13.279,20.969,41.242,1.177,36.018,11.983,-4.206,17.489,-26.604,19.053,16.869,32.052,57.943,10.278,31.162,-37.596,-171.764
2.445880699999634,20.929,5.354,-334.68,16.76,33.501,55.19,321.143,155.496,12.846,41.908,25.186,20.429,17.364,16.849,42.226,4.249,34.957,17.607,-1.64,20.033,-27.089,20.571,14.29,32.532,43.54,11.805,29.594,-35.509,-179.79
2.4459452999999485,11.687,-2.848,-335.882,10.595,25.271,50.011,353.609,143.045,5.66,35.718,14.915,16.31,14.785,8.123,30.913,-4.976,25.188,5.294,-14.446,11.304,-36.796,9.28,3.005,21.741,54.255,-2.039,23.417,-60.064,-168.851
2.459925199999816,13.212,-10.018,-342.719,8.535,17.049,38.69,386.043,121.897,-6.128,23.9,6.703,11.683,5.037,5.553,26.271,-11.119,20.04,-2.908,-20.067,3.608,-40.345,5.172,-0.072,13.01,47.541,-5.623,21.344,-70.763,-159.461
2.464004599999953,19.347,-6.934,-340.327,6.99,18.569,33.529,353.382,118.701,-5.098,24.9,10.282,10.647,2.982,18.356,29.831,-7.522,27.192,6.316,-15.436,9.752,-41.33,10.29,4.539,19.657,48.518,2.067,20.811,-56.347,-174.671
2.4771778999997878,14.717,1.27,-330.765,7.495,19.575,36.569,340.733,126.267,-2.531,29.486,12.834,15.247,12.201,32.682,30.313,-4.441,35.362,11.945,-9.273,19.989,-37.702,17.452,11.707,29.371,66.913,7.7,23.864,-43.996,-176.033
2.477240299999721,14.702,8.441,-330.434,15.685,22.629,43.192,373.18,129.215,4.644,35.604,20.505,21.892,22.947,31.112,33.869,1.199,37.376,12.445,0.983,26.116,-27.418,24.607,18.867,30.367,63.772,14.352,32.037,-40.878,-157.926
2.489967799999704,24.421,8.945,-339.325,18.743,27.729,51.858,340.531,140.356,13.348,43.253,28.682,24.431,23.436,24.421,40.495,7.346,36.826,12.945,-0.043,25.066,-25.342,22.533,16.287,26.75,57.56,14.338,33.029,-40.837,-171.601
2.504948499999955,22.347,2.276,-339.498,7.453,23.603,49.245,307.916,144.827,2.064,34.501,18.407,16.722,10.093,24.397,34.819,-0.346,31.154,6.785,-16.437,13.77,-33.001,10.215,4.488,21.088,49.818,4.078,25.312,-46.432,-191.409
2.5050077999999303,15.665,0.737,-324.302,3.347,20.506,37.925,340.395,129.825,-9.208,24.22,11.216,10.558,1.374,25.909,27.1,-4.957,28.049,7.29,-14.371,12.219,-30.406,13.278,4.483,24.653,23.128,6.635,25.799,-43.824,-166.114
2.505048600000009,23.334,12.007,-311.17,16.152,30.219,46.084,369.256,132.769,6.682,35.467,20.939,18.744,11.106,27.933,36.807,5.807,38.267,20.091,5.111,26.039,-23.204,30.684,20.36,38.461,43.598,21.998,36.019,-28.923,-144.431
2.519963999999618,26.384,12.507,-320.593,17.673,30.189,52.698,336.612,140.833,11.799,38.505,20.918,21.287,16.218,25.855,41.381,5.801,39.253,19.558,0.495,23.964,-32.914,27.579,19.828,36.885,76.342,19.926,35.471,-33.505,-159.656
2.536766700000044,15.6,-2.874,-338.715,2.286,15.814,35.227,369.063,120.2,-9.73,24.634,10.651,10.507,7.493,13.022,28.019,-4.963,25.382,8.268,-15.387,8.571,-43.64,9.621,3.414,18.405,62.433,5.562,25.189,-53.451,-172.304
2.536840399999619,13.023,-3.384,-339.913,-4.377,14.774,34.679,397.895,116.494,-9.72,28.708,13.202,12.546,8.51,7.373,24.917,-1.884,25.869,7.235,-9.224,10.612,-37.961,12.173,3.41,16.338,30.095,4.532,25.164,-52.885,-172.132
2.5500303999997413,22.231,4.816,-334.45,-0.786,25.517,51.038,365.222,143.53,7.196,38.413,19.336,19.194,14.649,18.125,34.114,4.265,35.064,7.228,-3.067,17.773,-32.288,19.845,11.092,27.592,24.43,9.138,29.749,-44.636,-174.009
2.550093399999696,27.332,-3.898,-336.677,1.264,22.418,39.204,375.103,132.115,-2.545,27.617,15.218,13.027,8.999,26.303,32.543,-1.375,29.906,5.171,-8.699,13.657,-32.768,15.727,5.957,29.101,26.455,8.616,25.621,-51.251,-167.175
2.565063199999713,25.768,-7.48,-333.779,2.8,13.686,23.284,407.516,99.708,-18.937,19.904,12.642,11.477,7.453,27.814,27.387,-1.885,30.389,11.826,-6.129,14.156,-29.661,19.297,10.05,28.048,44.359,11.169,25.596,-50.175,-160.86
2.5651264999996783,20.619,-0.3,-330.884,-0.277,13.673,32.482,405.571,100.633,-13.795,26.544,16.215,19.15,13.081,29.323,29.921,3.239,36.506,14.376,-0.488,19.777,-29.119,24.401,20.286,25.458,77.102,11.671,30.181,-43.977,-168.384
2.5801338999999643,18.037,-3.886,-341.312,-9.498,17.757,37.06,372.89,121.024,-7.633,27.03,16.711,15.545,11.531,22.121,29.892,0.675,29.297,10.263,-6.123,17.196,-34.725,17.717,13.606,16.723,64.217,4.487,25.54,-51.106,-173.339
2.58020069999975,20.58,-6.956,-346.093,-8.464,15.69,32.412,358.173,120.391,-8.65,21.368,12.084,9.894,7.421,9.804,24.739,-3.424,23.12,11.79,-11.239,11.031,-37.764,12.064,4.883,15.682,39.05,2.945,20.904,-55.665,-178.801
2.5971003999998175,20.047,-0.801,-341.649,2.815,12.601,34.941,390.602,118.221,-11.203,19.809,11.047,11.933,4.34,5.696,23.689,-2.909,26.683,11.778,-11.228,9.483,-38.751,12.051,6.415,17.203,44.134,4.991,24.981,-50.999,-192.966
2.6105298999996194,20.027,-1.313,-343.356,6.911,18.224,37.98,357.936,130.911,-10.68,22.863,13.598,12.433,0.237,13.375,27.764,-0.857,27.681,7.668,-9.168,13.059,-36.663,13.064,8.458,12.063,14.376,5.499,27.518,-52.485,-186.114
2.610595099999955,27.179,-2.336,-340.964,5.367,25.378,43.578,325.303,141.026,-2.984,30.013,17.17,14.983,5.36,20.533,32.347,3.755,31.752,13.808,-5.06,19.194,-28.942,16.637,9.474,15.637,-9.717,10.616,29.027,-51.92,-162.874
2.610637599999791,22.542,-1.309,-332.426,2.288,23.303,48.145,357.765,134.225,3.166,33.569,18.69,17.529,13.551,12.828,32.827,2.727,32.232,12.769,-7.617,14.564,-28.401,13.034,4.854,15.109,23.081,9.069,26.949,-47.257,-169.883
2.6251115999998547,6.125,-11.042,-340.29,-8.985,14.058,34.777,390.195,114.623,-8.108,23.289,11.499,9.827,4.316,0.008,23.06,-5.985,18.368,-5.174,-18.367,2.766,-38.618,1.238,-4.373,-1.3,55.333,-7.846,16.163,-53.87,-197.378
2.6251704999999674,7.144,-17.178,-349.684,-17.686,6.872,20.397,422.593,100.164,-21.42,11.483,-2.857,2.132,-9.52,4.619,13.303,-10.078,10.665,-10.805,-22.96,-0.823,-42.678,-0.812,-2.831,-0.786,23.002,-13.474,12.561,-63.038,-197.693
2.640120499999739,19.432,-13.575,-341.65,-9.983,8.402,26.012,389.895,106.211,-19.861,12.496,-4.391,4.692,-8.486,12.811,17.901,-8.018,14.753,0.989,-20.375,4.814,-39.562,2.775,1.27,9.461,-9.296,-3.727,17.672,-63.487,-178.027
2.6401772999997775,15.826,-17.148,-342.845,0.785,14.541,34.696,357.229,124.036,-12.669,21.705,4.835,6.224,-1.818,4.089,22.494,-10.06,13.713,-0.036,-21.892,5.833,-40.547,-0.814,-5.904,-2.844,13.255,-7.821,16.117,-65.985,-177.849
2.656524999999874,7.614,-18.667,-355.31,-3.827,15.551,34.149,386.586,127.498,-10.607,24.757,4.317,5.193,-1.816,1.011,15.299,-12.099,12.163,-5.672,-23.919,1.729,-38.969,-6.449,-10.509,-10.526,33.734,-18.572,13.027,-64.382,-191.504
2.6565914999996494,11.192,-12.501,-350.856,-18.68,11.437,26.942,418.987,113.026,-14.183,18.073,-2.347,7.237,-3.351,11.256,13.234,-9.013,15.224,1.506,-19.285,1.727,-34.832,-5.93,-4.35,2.805,37.286,-11.381,15.576,-57.145,-194.386
2.670270099999925,12.718,-16.075,-345.382,-27.882,9.377,19.231,388.342,109.327,-17.242,13.956,-0.808,7.23,0.238,10.22,20.393,-8.492,17.771,5.603,-12.605,6.849,-35.822,1.761,1.802,8.437,30.589,-1.124,16.072,-61.187,-192.655
2.670337699999891,9.119,-20.157,-350.16,-21.195,10.392,27.921,355.678,131.247,-11.077,22.651,3.292,5.686,3.824,5.087,21.91,-7.971,22.876,2.012,-9.519,9.403,-36.298,9.443,3.849,8.941,14.165,-1.635,15.032,-65.736,-192.462
2.6852618999996594,8.598,-14.501,-345.199,-7.853,13.455,42.75,338.417,145.972,-3.382,28.776,5.85,6.193,2.284,8.668,22.4,-4.889,22.853,8.157,-14.632,6.32,-36.262,5.335,-1.79,9.957,2.367,-4.707,16.553,-57.986,-186.122
2.700223299999834,11.15,-14.487,-340.755,-7.333,12.93,35.022,370.866,121.748,-11.575,20.551,3.795,5.674,-2.842,12.245,23.915,-7.446,16.683,15.321,-26.913,1.191,-43.398,-6.965,-12.034,-4.398,14.148,-10.85,13.975,-58.953,-187.473
2.700283799999852,10.627,-18.571,-350.661,-16.035,6.257,18.593,403.283,92.937,-26.933,11.821,-3.381,4.131,-3.864,14.282,19.28,-12.049,18.715,7.621,-30.472,-1.372,-46.428,-11.569,-13.047,-14.639,43.335,-16.987,10.888,-67.603,-200.605
2.7152644999996483,7.03,-13.429,-353.384,-12.433,5.738,25.235,370.604,109.238,-26.394,15.395,-1.841,5.664,-2.835,13.244,16.699,-8.451,19.209,-0.071,-22.757,2.728,-38.697,-4.385,-4.325,1.257,50.464,-8.773,13.951,-59.338,-202.454
2.7192479999998795,2.925,-9.83,-347.395,-4.736,10.855,38.53,337.958,137.306,-17.146,21.527,6.87,7.708,0.242,8.62,19.757,-3.319,15.603,3.515,-16.075,7.848,-35.072,2.279,4.901,15.6,25.823,1.482,17.01,-51.082,-194.054
2.73148029999993,4.459,-17.505,-342.949,-19.076,6.746,30.294,370.408,123.336,-18.665,17.92,1.74,7.7,4.34,13.222,18.712,-4.34,21.735,7.61,-17.595,6.304,-38.624,-0.285,3.359,7.388,12.99,-5.692,12.895,-65.376,-189.762
2.7315512000000126,4.967,-24.659,-337.483,-41.086,-0.945,13.87,402.825,95.548,-28.381,7.143,-8.508,4.106,-0.788,16.795,9.984,-9.972,22.226,2.48,-24.238,-1.9,-41.146,-7.457,-6.89,-1.329,8.878,-15.42,6.222,-75.044,-184.449
2.7454093999999714,0.863,-21.048,-342.781,-35.922,-2.994,9.758,370.147,94.94,-37.574,-1.061,-9.012,-1.533,-15.131,3.458,3.314,-16.109,9.908,-6.232,-28.824,-5.996,-45.204,-10.011,-7.396,2.771,-12.648,-12.843,6.728,-61.649,-188.363
2.7454777999996622,5.473,-11.294,-354.734,-13.857,-0.941,16.92,343.649,104.067,-38.049,-0.035,-7.466,-1.532,-16.141,0.893,8.434,-11.482,13.997,-3.664,-21.623,0.157,-43.109,-3.341,1.833,9.428,6.32,-4.633,15.943,-44.681,-198.933
2.760389900000064,19.812,-6.159,-344.645,-2.572,10.33,28.174,376.093,115.233,-21.617,12.773,1.251,10.253,1.294,17.798,24.819,4.411,29.865,12.733,-8.282,10.916,-29.746,6.396,4.905,8.906,39.102,2.031,24.124,-40.026,-189.513
2.760449200000039,19.28,-5.641,-328.931,2.554,20.054,39.417,343.441,136.635,-8.275,25.568,13.545,17.927,10.002,18.293,28.893,8.505,30.859,21.43,-7.761,12.442,-22.544,6.902,6.437,8.385,43.673,3.566,23.075,-41.523,-176.003
2.775396499999715,7.99,-3.586,-328.09,4.6,11.837,39.89,310.823,139.572,-18.513,21.956,8.921,10.225,0.77,9.053,17.081,1.324,25.705,15.261,-13.389,6.794,-26.62,1.26,8.48,13.5,11.354,2.538,19.466,-44.043,-182.487
2.7795619999997143,12.08,-1.533,-321.102,-6.163,4.14,26.53,343.3,108.182,-28.228,12.712,-0.31,4.067,-2.305,21.339,15.527,1.323,28.241,10.122,-11.326,5.763,-29.155,0.234,3.861,19.122,6.732,2.536,19.446,-45.023,-182.817
2.7915499999999156,21.29,-9.216,-322.318,-17.94,9.259,18.306,375.744,90.143,-23.077,14.237,0.203,7.649,1.284,24.904,19.098,1.834,24.627,6.526,-17.462,4.22,-33.224,-6.426,-2.291,13.979,19.533,-3.102,14.816,-47.54,-176.999
2.79161780000004,11.535,-21.502,-349.148,-18.434,3.615,20.849,343.093,110.545,-25.615,11.149,-4.92,3.03,-8.451,1.313,7.296,-6.878,13.844,-4.239,-31.79,-5.518,-41.9,-19.74,-8.436,-0.379,-5.077,-13.858,6.092,-59.275,-189.63
2.8055264999998144,4.351,-19.944,-349.311,-13.293,-2.537,24.415,310.474,127.341,-31.737,6.014,-8.501,-3.12,-15.615,-2.787,3.19,-5.334,14.342,-7.309,-25.098,-6.025,-39.297,-11.011,-6.378,-0.379,-3.023,-9.745,10.697,-62.802,-186.878
2.8055898999996316,18.179,-3.53,-316.174,-2.521,11.298,30.538,342.952,121.066,-20.435,16.254,5.852,7.129,-3.816,20.782,21.117,10.553,26.111,5.506,-4.58,10.887,-24.913,14.616,14.12,23.7,29.768,11.269,26.055,-37.636,-159.027
2.8205064999997376,21.747,-3.527,-317.907,0.043,13.848,32.557,374.884,116.334,-15.291,19.312,7.383,9.171,0.286,20.761,23.145,13.104,26.085,11.136,-10.723,11.389,-26.937,8.966,14.618,32.898,28.201,12.282,21.419,-27.352,-168.089
2.8205730999998195,-0.816,-33.749,-349.864,-25.06,-11.268,16.13,342.234,111.095,-34.232,-1.2,-17.728,-11.843,-19.694,-3.85,-6.592,-6.889,7.616,-3.219,-40.939,-16.287,-51.501,-23.319,-17.672,0.59,-4.102,-20.005,-4.218,-59.601,-200.197
2.8355022999999164,-14.648,-53.183,-357.711,-48.089,-24.065,1.77,318.325,102.274,-44.956,-11.445,-30.518,-22.589,-32.482,-14.093,-21.954,-19.177,-2.638,-15.512,-51.656,-27.542,-62.208,-38.664,-33.535,-30.149,-10.246,-44.576,-13.948,-91.816,-211.267
2.8525307999998404,0.736,-35.712,-341.472,-32.671,-6.11,15.6,350.795,106.783,-29.542,4.448,-11.532,-6.173,-15.544,-0.246,-0.415,-2.764,11.197,-7.812,-30.088,-5.997,-44.727,-15.06,-6.862,-16.287,22.04,-20.453,5.022,-67.646,-189.539
2.852592899999763,15.592,-17.745,-337.544,-14.708,9.778,29.417,383.232,105.139,-19.266,16.739,3.849,7.153,2.915,18.197,16.491,16.706,29.629,10.127,-14.688,7.329,-34.437,1.862,8.002,9.857,22.53,5.183,19.361,-36.328,-179.616
2.852636199999779,0.207,-31.047,-353.601,-29.038,-3.552,13.506,395.656,83.005,-32.054,6.477,-10.499,-3.612,-6.31,19.716,2.13,9.005,29.087,10.629,-26.969,-8.56,-46.697,-16.071,-8.912,0.626,-9.768,-15.827,3.973,-53.71,-184.559
2.8655853999998726,-15.674,-45.873,-365.03,-39.255,-20.455,4.783,362.985,87.532,-39.195,-4.801,-25.346,-16.929,-20.136,7.401,-12.729,-4.837,15.225,-6.288,-39.238,-20.335,-49.725,-31.937,-23.76,-21.404,-26.664,-37.84,-11.913,-78.759,-192.059
2.8805889999998726,6.883,-24.31,-345.71,-16.162,-1.991,33.468,330.347,120.233,-17.638,14.159,-5.853,-2.055,-4.746,10.467,7.264,10.025,16.747,-2.183,-23.317,-2.384,-30.72,-8.338,-4.781,-1.403,-9.732,-9.113,7.567,-55.626,-191.867
2.880652999999711,31.467,8.502,-317.187,8.957,30.286,61.099,362.804,139.068,2.359,44.884,22.842,19.976,19.849,28.387,37.995,38.192,32.612,20.873,3.859,22.722,-12.758,24.458,28.011,31.386,20.504,23.683,36.761,-22.783,-174.769
2.895605700000033,18.628,7.469,-325.579,6.387,24.62,49.255,395.229,123.559,-9.939,34.08,16.159,10.223,11.633,25.285,32.322,36.617,31.555,14.192,-0.244,14.502,-16.331,18.798,22.348,23.67,44.562,16.487,30.064,-23.273,-165.885
2.895681699999841,-3.42,-24.814,-351.894,-17.698,-5.63,16.93,427.621,91.16,-38.106,1.771,-16.132,-17.452,-19.118,1.694,0.526,7.379,7.445,-14.511,-32.519,-16.251,-40.906,-13.496,-9.95,-8.629,39.395,-15.804,-2.242,-55.525,-185.699
2.912818199999947,-5.978,-42.72,-350.517,-37.148,-16.383,-1.018,459.981,64.942,-49.338,-10.526,-30.461,-24.607,-33.443,-11.116,-10.745,-5.949,-4.858,-18.083,-54.003,-28.018,-55.21,-31.926,-24.797,-25.526,7.08,-37.818,-12.998,-80.06,-199.858
2.912885499999902,0.175,-20.136,-330.187,-25.328,-2.022,18.963,427.246,92.541,-34.944,9.464,-11.987,-9.726,-21.114,-5.469,6.684,10.964,8.467,-3.208,-33.457,-9.547,-36.711,-9.865,-4.792,-2.447,-17.006,-15.239,6.995,-52.828,-186.338
2.9256643999997323,10.421,5.5,-318.586,4.412,15.398,50.707,394.543,125.236,-12.368,29.435,9.029,6.678,1.448,11.443,23.584,30.933,22.29,4.992,-8.32,10.443,-15.67,16.785,15.193,23.683,-15.964,16.54,25.944,-19.987,-174.881
2.9257315999998355,20.145,9.08,-318.267,12.092,19.481,52.706,426.937,118.451,-3.646,38.627,10.557,10.258,13.23,24.751,26.634,34.488,22.268,7.549,-6.263,12.994,-16.679,17.281,20.301,27.246,3.007,19.597,26.43,-11.77,-176.243
2.940650900000037,17.051,3.436,-323.584,0.297,15.876,41.895,459.297,101.939,-3.13,39.101,5.936,5.636,8.606,17.554,25.07,29.33,19.684,7.029,-11.379,4.784,-19.736,5.992,14.133,11.337,33.743,5.233,19.231,-27.64,-172.481
2.940713699999833,5.251,-7.326,-330.433,-4.314,11.249,43.902,426.563,113.108,-3.127,30.865,3.369,3.069,0.913,-0.394,19.41,24.69,16.079,-0.15,-15.979,-1.881,-22.278,-1.698,6.434,-1.995,45.492,-5.531,11.527,-47.08,-177.944
2.9556109999998625,-0.39,-17.565,-336.25,-10.458,4.578,34.637,449.19,97.625,-15.419,19.563,-5.344,-2.057,-6.773,-2.443,10.169,20.055,7.866,-5.785,-26.209,-8.026,-33.014,-9.381,3.866,-1.48,20.856,-9.624,6.393,-51.131,-186.987
2.9556663999997,7.807,-7.814,-326.692,-16.083,1.499,23.331,481.528,73.962,-25.138,18.006,-6.876,-4.616,-9.84,16.515,11.183,22.084,11.956,4.979,-25.671,-7.506,-28.883,-6.81,6.936,8.767,8.027,0.12,14.583,-35.711,-171.431
2.972929000000022,21.119,9.1,-306.898,1.864,11.744,41.239,448.771,95.917,-8.206,34.895,7.476,8.196,4.002,34.429,24.492,33.845,31.924,25.978,-8.226,7.871,-11.948,9.591,16.151,22.591,23.389,15.489,26.864,-21.843,-152.817
2.972992399999839,17.0,6.017,-313.251,13.133,15.831,55.542,434.49,115.289,6.659,45.618,12.079,14.335,15.781,31.833,26.005,38.422,36.503,23.903,0.491,11.449,-12.448,12.655,21.77,25.642,22.853,10.35,22.226,-27.457,-165.472
2.986739899999975,5.2,-5.772,-334.967,-1.225,7.618,43.191,401.781,110.05,-0.52,34.302,0.284,0.489,5.007,16.944,16.757,30.699,22.634,5.436,-12.317,-3.932,-22.682,-1.19,8.94,10.247,17.195,-2.468,10.933,-37.163,-179.138
2.986805699999877,12.367,-2.18,-328.997,-5.322,7.098,41.611,369.103,119.162,-5.131,28.632,-2.278,-2.585,-3.707,11.804,18.79,27.082,17.489,6.968,-19.477,-4.44,-19.073,-3.751,0.735,0.503,31.522,3.17,14.509,-30.466,-169.738
3.000710799999979,16.453,-0.641,-316.372,-2.755,9.653,41.569,401.522,108.796,-8.712,27.579,0.798,4.077,-2.679,11.792,22.357,28.592,16.959,10.547,-14.847,3.249,-14.955,1.889,9.443,10.749,26.367,9.827,20.642,-23.263,-164.445
3.0007754999996905,1.067,-14.472,-324.765,-20.683,-0.603,19.499,433.908,76.412,-25.097,11.67,-9.449,-3.099,-13.947,3.584,10.552,25.489,10.794,-1.759,-16.369,-6.488,-22.113,-0.675,9.434,14.324,10.972,0.596,13.449,-32.974,-172.477
3.015814599999885,1.579,-16.507,-323.416,-25.273,-8.287,16.405,401.199,79.922,-25.584,6.535,-15.075,-5.145,-17.007,6.654,7.467,24.439,17.443,5.415,-14.303,-7.506,-24.14,-0.674,7.375,7.138,31.965,-4.016,8.312,-38.064,-175.891
3.015878899999734,15.922,-4.708,-313.871,-6.805,-2.644,33.807,368.522,112.63,-12.238,18.824,-7.887,1.007,-4.694,18.43,15.657,25.952,27.672,19.754,-6.092,4.797,-17.456,2.913,15.052,9.18,34.495,3.673,13.939,-26.755,-179.301
3.0332180000000335,4.123,-14.437,-333.537,-14.483,-10.838,17.38,400.941,93.562,-24.009,5.997,-20.175,-11.289,-20.059,3.555,1.809,13.63,10.738,-0.245,-21.455,-11.09,-24.61,-10.41,2.742,0.974,2.185,-0.942,8.29,-32.364,-184.757
3.0332838999997875,-13.812,-34.402,-352.159,-36.497,-31.319,-11.839,433.328,61.193,-46.527,-19.624,-42.184,-28.184,-45.142,-15.916,-20.735,-0.216,-4.642,-13.565,-41.414,-33.108,-36.369,-26.281,-15.192,-20.544,-1.916,-21.433,-8.112,-55.897,-178.937
3.045891699999629,0.034,-17.974,-329.265,-18.018,-21.554,6.616,400.619,83.161,-30.599,-5.772,-25.235,-14.323,-24.092,8.178,-6.369,11.568,20.466,14.113,-22.929,-14.632,-23.525,-13.96,2.242,-6.179,30.874,-17.313,1.63,-49.181,-163.901
3.045959699999912,21.551,10.221,-302.808,14.788,11.255,39.397,367.943,115.865,2.22,27.021,6.041,9.257,8.207,37.372,22.839,34.61,44.012,33.054,2.709,9.974,-4.034,6.034,23.244,26.615,38.016,11.906,25.194,-20.955,-159.639
3.0608047999999144,15.381,0.989,-310.702,11.187,10.732,40.894,378.334,118.823,1.705,29.044,-2.162,5.662,1.027,24.014,18.205,32.014,28.598,17.652,-9.077,-0.795,-12.739,-1.656,7.852,14.805,5.702,10.357,17.485,-28.107,-164.602
3.0608649000000696,-2.052,-19.504,-323.712,-18.026,-11.821,14.213,410.743,86.429,-17.764,6.985,-23.677,-10.738,-11.782,9.646,-1.281,14.563,13.201,4.314,-24.437,-14.626,-26.558,-17.024,-7.525,-14.411,7.746,-13.732,-0.976,-54.719,-164.95
3.0757751999999527,-1.026,-13.337,-319.802,-25.692,-11.809,4.978,443.12,68.924,-19.796,1.855,-19.043,-11.239,-7.672,19.882,2.819,12.5,19.847,8.921,-18.777,-8.976,-18.847,-10.859,0.167,-5.175,17.984,-12.181,3.123,-50.565,-167.859
3.089862499999981,4.611,-6.151,-322.043,-11.322,-6.162,14.194,410.402,91.397,-19.264,6.464,-15.95,-7.13,-12.275,18.325,11.013,16.073,19.315,12.498,-16.197,-7.943,-11.144,-4.701,5.802,10.711,-4.575,-3.46,7.219,-37.707,-173.327
3.0938140999996904,1.532,-9.219,-329.918,2.521,-8.717,19.815,377.716,105.65,-20.269,3.896,-20.545,-7.635,-17.386,9.085,5.366,14.008,15.71,10.949,-13.619,-9.984,-10.108,-5.208,7.333,9.164,4.651,-4.993,5.162,-42.28,-165.981
3.1069943999996212,5.629,1.549,-318.83,13.79,1.025,24.919,410.126,114.254,-5.392,12.601,-8.229,2.107,-3.023,22.396,12.021,22.703,30.039,19.647,1.251,3.858,0.148,6.58,17.572,12.228,37.434,6.282,14.379,-36.09,-156.081
3.107060399999682,12.796,6.158,-307.753,13.776,6.148,31.041,402.544,118.75,0.249,21.81,-0.536,6.203,2.103,33.132,24.304,30.877,34.107,25.263,1.25,7.441,0.66,8.623,17.042,11.192,26.638,7.301,15.901,-30.931,-162.073
3.1199532999999064,1.512,-16.39,-318.716,-7.242,-10.765,20.764,406.752,93.528,-21.781,7.956,-16.417,-10.709,-13.781,14.656,9.423,15.99,13.068,8.331,-19.756,-12.035,-17.271,-11.878,-0.393,-5.726,-5.664,-16.273,0.516,-53.954,-168.058
3.120019499999671,-7.199,-24.57,-323.52,-19.018,-13.316,12.034,439.133,80.627,-25.857,3.338,-18.962,-14.797,-15.304,4.908,-0.832,9.826,12.031,4.737,-22.297,-14.072,-18.791,-11.866,0.119,-3.158,2.026,-16.769,1.54,-61.072,-161.23
3.1349882999998044,5.616,-4.566,-308.852,-2.605,4.629,23.805,446.89,105.137,-2.265,21.265,-3.061,1.099,0.08,26.932,19.148,28.259,34.56,25.224,-5.369,1.824,-2.378,5.052,16.513,15.8,34.812,4.253,16.396,-32.322,-160.557
3.1350518999997803,8.685,-3.537,-308.543,2.52,3.087,23.781,461.813,102.983,-4.824,16.633,-8.181,-3.0,-3.506,32.028,21.691,26.182,29.915,20.076,-6.901,-5.35,-2.376,-2.638,10.349,10.149,13.772,-1.387,11.768,-26.142,-169.105
3.150011899999754,-3.619,-17.365,-323.604,-7.216,-9.211,10.438,434.711,83.925,-21.213,0.223,-22.518,-15.293,-16.822,6.893,3.226,8.225,6.831,-4.023,-21.238,-19.69,-9.033,-14.931,-3.494,-5.23,-4.685,-17.779,-0.026,-49.17,-169.961
3.1541025999999874,-3.104,-11.713,-327.379,4.574,1.556,23.747,402.001,111.505,-6.335,15.079,-11.225,-7.08,-9.121,4.837,9.883,16.926,10.923,2.129,-17.119,-8.399,-0.827,-6.207,4.194,-2.664,3.517,-12.126,7.146,-52.194,-165.18
3.1671097999997073,3.56,-5.553,-321.416,11.742,10.264,36.019,434.387,121.128,5.454,26.335,1.082,-0.413,1.647,21.738,22.168,30.229,21.67,12.885,-6.855,0.831,3.784,-0.565,11.875,0.925,-17.491,-3.917,14.823,-41.896,-162.966
3.1671760999997787,-2.079,-15.281,-318.021,-13.373,-6.14,12.929,466.74,88.731,-15.556,5.816,-13.776,-10.147,-8.089,12.495,9.339,17.903,13.964,1.602,-12.484,-8.904,-4.929,-5.688,4.69,-0.613,-11.838,-8.012,7.124,-45.953,-164.34
3.18007869999974,-8.737,-23.463,-320.264,-22.581,-15.356,0.621,433.998,86.593,-23.225,-4.436,-28.107,-14.747,-18.839,-0.325,-0.405,8.151,12.925,2.625,-19.644,-14.53,-10.559,-12.342,0.075,-2.149,20.961,-16.201,1.994,-51.542,-172.372
3.1801590000000033,-8.216,-25.489,-330.702,-12.825,-8.68,14.452,401.288,115.196,-11.419,4.278,-22.956,-12.683,-17.796,8.384,2.157,11.729,20.597,11.844,-20.649,-14.003,-5.938,-17.453,-1.462,-13.418,28.113,-23.357,3.016,-50.466,-181.421
3.1950403999999253,1.014,-21.365,-334.47,-17.423,-8.159,11.876,433.675,99.711,-16.53,3.249,-17.81,-12.159,-16.241,13.499,2.667,13.255,18.015,5.172,-20.116,-13.989,1.24,-12.312,-1.461,-15.453,-4.191,-18.21,4.55,-45.805,-180.215
3.1951004999996258,11.771,-8.536,-319.279,-6.647,-2.516,8.791,466.029,91.415,-17.539,6.832,-12.156,-7.536,-10.589,19.633,9.837,19.901,20.046,7.728,-8.825,-6.291,5.338,2.045,7.25,4.03,-25.704,-3.847,12.23,-36.025,-167.228
3.2100855999997293,5.611,-5.966,-309.738,13.34,6.196,21.589,433.287,112.328,-6.25,16.047,-7.534,-4.454,-2.382,31.397,11.364,25.004,25.661,18.991,-1.644,-3.723,2.258,2.043,9.292,7.099,7.11,-3.844,12.218,-42.649,-153.74
3.214034499999798,-12.325,-19.792,-321.724,-8.19,-9.692,10.809,459.494,93.26,-17.515,3.735,-20.334,-11.11,-12.113,17.533,-1.455,13.709,14.877,9.238,-16.499,-15.502,-6.965,-12.304,-3.013,-13.4,20.423,-18.184,-1.114,-66.685,-158.71
3.2269352999996954,-8.726,-24.383,-328.574,-27.65,-22.49,-4.571,491.822,74.212,-30.305,-5.49,-25.949,-14.172,-21.835,-1.44,-1.966,7.547,7.178,-0.505,-21.093,-17.024,-7.471,-13.316,-3.522,-17.997,21.939,-20.728,-0.601,-62.52,-176.482
3.227002199999788,7.164,-8.989,-320.049,-4.056,-3.512,13.365,461.104,104.363,-10.295,10.397,-6.967,-7.498,-6.956,10.857,11.356,18.811,17.929,7.693,-4.678,-6.248,5.857,-0.495,7.24,-5.684,27.553,-8.924,12.208,-33.256,-181.428
3.240180899999814,3.058,-2.321,-317.167,2.608,2.639,24.622,480.111,118.604,0.474,18.071,-4.399,-4.929,0.735,15.969,10.833,21.866,16.887,5.636,-6.723,-7.267,11.486,-1.007,3.134,-4.141,-4.75,-5.329,8.609,-34.247,-180.222
3.2551363999996283,-11.289,-21.786,-328.633,-22.498,-17.856,6.154,450.429,96.968,-17.457,2.684,-25.399,-15.17,-17.196,-6.588,-1.474,8.011,-0.549,-8.714,-27.208,-22.116,-0.308,-19.961,-13.775,-19.506,-37.021,-21.717,-7.281,-61.365,-185.677
3.255193699999836,-13.327,-44.306,-345.723,-36.82,-29.621,-11.27,431.023,74.33,-36.395,-16.786,-38.694,-30.525,-33.573,-16.828,-15.304,-5.317,-8.233,-14.853,-37.94,-33.365,-11.066,-31.212,-22.47,-42.028,-13.418,-39.626,-17.007,-75.136,-188.566
3.270171599999685,-15.363,-46.311,-357.16,-42.418,-34.202,-26.116,463.38,45.566,-47.117,-30.09,-45.315,-36.129,-39.687,-10.151,-27.072,-9.922,-7.2,-15.863,-39.951,-36.405,-11.055,-30.156,-19.886,-50.183,19.383,-39.587,-20.064,-74.036,-195.549
3.270231899999999,-15.86,-32.432,-347.069,-33.154,-32.631,-24.041,477.774,51.156,-38.873,-18.277,-39.634,-24.823,-32.475,-4.506,-19.873,-3.252,-1.045,-12.773,-29.152,-26.635,-3.872,-20.392,-8.596,-32.202,13.729,-25.203,-10.823,-62.691,-200.477
3.2873600999996597,1.574,-13.956,-321.107,-2.895,-5.958,8.771,445.021,83.892,-6.046,14.529,-11.418,-5.842,-6.315,10.356,5.25,13.657,14.837,2.609,-5.557,-8.165,14.063,-2.441,6.27,-10.141,22.936,-10.32,7.119,-43.673,-175.173
3.287425600000006,12.331,-8.307,-315.662,0.182,7.368,26.693,413.325,105.326,3.181,19.126,-3.209,-3.787,1.376,18.03,13.954,18.254,20.97,13.877,-6.064,-4.059,20.196,0.635,6.264,-11.155,42.894,-6.212,8.136,-38.507,-155.018
3.300279899999623,-4.075,-24.693,-335.327,-26.971,-16.206,-5.609,445.699,72.945,-25.511,-9.07,-28.822,-18.64,-23.728,3.667,-5.015,-0.207,7.629,3.617,-28.599,-20.449,3.782,-19.858,-8.6,-26.001,18.26,-20.038,-8.266,-54.35,-179.454
3.3003485999997793,-15.854,-36.963,-341.651,-30.018,-27.973,-20.972,441.667,56.478,-35.22,-16.234,-36.99,-24.769,-33.951,-6.07,-16.281,-9.941,-1.6,-10.219,-29.595,-27.088,-0.832,-23.936,-11.665,-28.024,-5.837,-28.727,-14.405,-63.004,-195.156
3.3152760999996644,-5.08,-26.68,-328.502,-18.717,-13.088,1.078,408.95,87.672,-21.352,-2.897,-22.608,-17.572,-20.597,-0.941,-3.457,2.365,0.451,-7.135,-15.221,-15.278,12.489,-7.519,0.13,-19.287,11.075,-13.329,-4.657,-51.671,-178.567
3.315352299999631,2.61,-16.92,-324.075,-20.747,-10.513,4.663,441.329,86.048,-19.794,0.179,-20.024,-16.018,-18.015,-0.428,5.256,6.461,1.988,2.606,-16.231,-12.189,10.939,-5.974,2.179,-18.243,14.138,-3.582,3.545,-39.324,-170.704
3.330256599999757,-0.979,-17.927,-318.628,-17.14,-13.576,-3.026,473.675,71.105,-21.823,0.692,-22.053,-16.002,-20.046,0.085,-0.385,1.844,4.035,6.189,-17.751,-17.3,6.83,-11.091,-0.897,-19.762,13.099,-12.288,1.492,-40.309,-165.41
3.3303154000000177,-4.052,-21.496,-310.625,-13.025,-10.489,0.05,464.492,78.206,-18.728,1.203,-20.494,-14.961,-19.001,-0.94,-4.483,3.379,0.957,-3.038,-15.684,-19.844,9.384,-12.105,-1.921,-23.328,42.8,-17.911,-4.657,-48.978,-165.757
3.347515499999645,-10.195,-35.819,-331.831,-28.381,-20.725,-11.22,444.048,67.369,-28.955,-15.192,-34.306,-26.729,-34.352,-13.234,-12.676,-8.408,-15.438,-24.04,-33.087,-33.657,-3.433,-31.56,-14.726,-41.236,36.609,-29.163,-12.849,-61.224,-194.28
3.3475831999999173,-16.333,-42.443,-352.504,-35.013,-27.876,-21.968,433.87,56.543,-35.586,-21.837,-43.493,-32.85,-43.539,-9.122,-20.86,-21.719,-15.423,-22.479,-41.763,-41.307,-10.602,-39.726,-19.835,-45.293,4.297,-39.38,-17.96,-68.335,-196.648
3.3607576999997946,-10.681,-24.47,-330.634,-19.096,-11.967,0.084,401.161,89.275,-16.595,-0.298,-23.982,-16.936,-21.466,17.014,-8.544,-3.767,7.647,7.77,-19.692,-22.311,9.901,-14.583,-3.421,-24.243,18.638,-22.947,-8.72,-54.435,-163.663
3.360822999999982,-13.232,-23.933,-323.644,-18.565,-12.98,8.793,368.484,108.653,-13.505,2.264,-19.347,-14.87,-16.321,17.51,-2.387,2.897,6.615,5.713,-17.623,-19.215,9.379,-14.056,-7.516,-28.83,40.136,-18.314,-5.125,-46.696,-177.332
3.375400500000069,-29.613,-51.061,-355.596,-39.039,-37.045,-23.491,400.903,76.269,-42.693,-27.452,-46.48,-35.859,-46.019,-9.66,-22.877,-24.258,-17.471,-26.568,-44.246,-42.249,-16.758,-41.707,-31.075,-55.441,7.82,-44.935,-24.075,-68.166,-209.43
3.375485799999751,-24.46,-46.912,-349.605,-35.926,-32.91,-28.079,433.29,54.676,-39.576,-23.326,-42.335,-29.164,-41.362,-4.015,-20.805,-20.136,-6.182,-15.783,-32.931,-31.961,-8.544,-28.857,-16.187,-43.09,3.202,-39.767,-22.002,-66.561,-189.753
3.390461899999991,-1.382,-14.077,-316.467,-3.614,-4.187,4.737,425.685,87.409,-6.749,9.485,-9.505,0.067,-8.533,28.777,9.954,12.672,26.612,17.02,-0.11,0.347,19.129,3.959,14.568,-11.796,35.986,-6.94,7.221,-33.707,-156.775
3.390535,-3.43,-15.088,-319.225,0.488,-3.159,10.368,392.984,103.715,-6.742,9.475,-12.57,-4.544,-10.061,27.211,7.383,8.049,16.851,9.318,-8.819,-7.851,10.401,-8.852,-0.816,-25.617,35.438,-14.617,3.116,-40.333,-165.84
3.40732109999999,-21.357,-44.786,-348.619,-31.788,-25.185,-21.918,416.157,71.336,-39.011,-22.81,-44.32,-29.13,-42.327,-4.067,-20.289,-20.649,-10.318,-22.454,-40.061,-35.508,-10.614,-36.508,-28.48,-56.842,3.127,-44.829,-23.015,-72.568,-192.314
3.407387199999903,-22.36,-44.742,-344.172,-38.929,-30.283,-29.581,448.528,54.359,-40.509,-24.836,-42.739,-25.002,-40.235,-3.551,-19.244,-18.579,-0.574,-18.333,-32.849,-29.837,-4.456,-28.275,-18.205,-47.051,6.71,-39.661,-16.332,-62.761,-191.097
3.420437299999776,-14.653,-24.717,-326.41,-13.787,-20.006,-8.547,415.804,78.895,-21.513,-5.344,-23.228,-11.145,-20.727,24.117,-3.856,-4.728,18.382,0.128,-9.762,-12.388,7.844,-8.779,1.281,-17.802,39.491,-19.641,-1.459,-34.522,-172.976
3.420501399999921,-9.515,-26.741,-327.62,-15.822,-17.937,-9.05,383.113,89.062,-23.541,-7.387,-26.279,-17.282,-29.416,24.606,-4.877,-9.846,10.167,1.153,-17.437,-17.499,3.737,-13.893,-2.307,-20.859,42.013,-20.134,-8.117,-36.537,-166.143
3.4354118999999628,-9.506,-41.059,-336.514,-42.959,-26.628,-23.898,415.518,73.092,-35.3,-22.237,-39.573,-22.9,-42.194,4.089,-13.581,-20.082,-1.114,-6.533,-34.326,-29.265,-8.049,-28.224,-13.063,-41.33,9.696,-31.385,-16.819,-48.283,-183.395
3.4504696999997577,-18.718,-41.531,-343.35,-42.403,-31.212,-28.997,447.89,60.723,-37.826,-24.776,-42.607,-18.778,-37.541,4.597,-17.154,-19.55,4.522,-11.649,-30.193,-28.211,-11.628,-26.146,-13.05,-39.239,0.977,-33.915,-17.826,-52.846,-193.97
3.4505357999996704,-20.748,-34.317,-334.809,-17.77,-22.984,-18.722,415.167,72.446,-29.592,-13.993,-33.855,-16.71,-30.844,20.986,-12.013,-12.87,13.739,-5.49,-20.941,-22.547,-3.931,-15.874,-5.864,-24.856,18.907,-25.684,-13.198,-50.743,-175.333
3.4654720999997153,-9.969,-28.647,-321.155,-11.092,-15.277,-3.847,382.476,92.865,-21.877,-3.733,-26.137,-15.669,-26.202,24.039,-3.292,-12.858,13.213,3.225,-24.506,-23.549,-1.366,-19.444,-6.371,-31.491,32.72,-22.072,-7.037,-43.52,-169.01
3.4694226999999955,-15.595,-35.791,-338.252,-33.11,-27.044,-14.089,412.32,82.014,-33.126,-16.025,-37.381,-23.338,-34.373,8.133,-12.51,-26.165,1.417,-9.586,-36.777,-34.284,-14.172,-32.745,-18.66,-51.439,33.712,-34.858,-15.739,-52.186,-192.407
3.481598800000029,-31.973,-52.661,-360.455,-49.984,-45.973,-38.666,444.695,54.78,-47.438,-35.989,-53.738,-39.196,-54.318,-5.195,-31.453,-40.483,-11.392,-27.507,-45.962,-45.521,-22.867,-40.909,-24.277,-58.56,16.772,-49.68,-28.531,-71.602,-201.948
3.4816643999997723,-23.744,-50.047,-346.263,-40.712,-40.804,-31.967,411.975,63.947,-37.656,-28.268,-49.073,-34.034,-50.678,-1.603,-28.86,-36.857,-7.282,-19.283,-40.281,-36.766,-15.672,-35.745,-17.08,-49.28,-1.175,-43.482,-22.355,-67.944,-194.574
3.4954987999999503,-2.716,-29.504,-326.449,-21.716,-19.246,-8.369,396.706,88.986,-21.737,-5.698,-28.02,-10.434,-26.036,8.132,-7.827,-18.889,7.07,-2.358,-18.211,-15.212,-2.336,-15.729,-2.718,-33.349,6.51,-21.922,-5.426,-41.236,-189.769
3.495565599999736,2.922,-17.18,-325.61,-11.448,-6.419,2.398,391.186,98.631,-13.006,4.554,-11.598,-0.689,-14.227,17.346,6.526,-4.525,14.747,4.817,-0.262,-2.389,8.424,3.754,11.117,-16.41,20.849,-4.482,6.875,-24.801,-178.308
3.5106478999996398,-6.814,-22.798,-329.895,-13.486,-10.511,4.445,358.52,102.63,-10.432,3.525,-14.148,-8.886,-19.336,25.013,2.421,-9.132,13.196,5.837,-8.459,-8.022,5.342,-4.447,3.933,-23.566,20.828,-10.625,3.282,-37.071,-173.519
3.510709499999848,-21.152,-44.804,-347.496,-38.575,-33.042,-18.101,390.949,70.765,-31.426,-19.533,-40.261,-25.783,-35.711,12.692,-20.123,-31.152,0.375,-11.075,-35.603,-30.043,-14.643,-34.156,-23.735,-55.817,23.368,-39.303,-19.776,-66.236,-197.937
3.5255778000000646,-19.594,-57.567,-358.931,-56.468,-44.792,-46.26,423.346,38.419,-50.35,-37.956,-52.516,-30.88,-45.409,-2.177,-28.812,-37.781,-7.823,-23.872,-39.153,-35.649,-19.752,-37.196,-21.662,-56.786,31.542,-47.973,-26.416,-71.805,-208.497
3.5293956999998954,1.43,-31.382,-330.396,-26.185,-14.009,-14.451,390.647,71.168,-19.561,-5.131,-20.188,-7.796,-20.26,16.268,-0.094,-12.127,12.165,2.792,-6.326,-4.875,5.884,-4.371,11.147,-23.942,42.269,-15.138,2.3,-38.946,-181.136
3.542173699999694,8.089,-11.883,-314.184,-3.617,6.497,18.352,357.981,103.884,6.074,20.49,-1.725,2.971,-1.285,30.596,17.324,0.18,27.01,18.671,2.902,6.401,13.05,2.294,12.673,-14.184,47.35,-0.778,9.982,-22.513,-166.61
3.54224159999967,-14.461,-40.56,-345.12,-33.84,-25.272,-13.942,390.411,71.505,-26.208,-11.806,-33.999,-23.16,-32.022,8.537,-12.919,-31.583,0.855,-13.111,-29.377,-25.881,-17.702,-29.984,-19.615,-46.445,15.027,-33.053,-20.254,-52.204,-182.838
3.555587099999684,-21.106,-54.864,-353.997,-42.003,-40.104,-37.494,412.049,39.158,-44.112,-26.139,-47.285,-31.846,-47.871,4.43,-27.763,-45.384,-10.416,-24.881,-40.618,-36.101,-28.442,-37.126,-23.182,-51.522,-15.214,-45.315,-24.844,-62.91,-186.241
3.555652000000009,-3.155,-26.12,-324.441,-10.198,-10.35,-4.669,379.362,71.907,-11.28,6.675,-18.036,-8.248,-20.159,25.43,-1.096,-17.674,15.722,1.784,-7.79,-3.79,-3.823,-4.814,0.408,-24.318,17.589,-16.58,-1.253,-32.621,-173.759
3.5706058000000667,-4.176,-23.02,-321.555,-16.848,-9.827,-3.64,411.77,77.982,-5.121,1.545,-16.481,-11.826,-19.626,13.109,-1.094,-16.632,12.632,0.245,-6.757,-6.86,-2.795,-7.883,0.407,-28.392,46.773,-15.539,-5.863,-30.539,-184.344
3.5706700999999157,-19.541,-45.026,-342.238,-40.397,-34.92,-35.912,444.146,45.629,-34.83,-29.707,-41.568,-31.282,-44.71,-9.446,-25.172,-40.693,-12.484,-20.247,-34.928,-32.981,-21.747,-32.466,-18.036,-46.294,26.234,-39.09,-23.788,-60.223,-204.652
3.5855702999997447,-9.275,-33.711,-333.187,-16.79,-21.053,-21.019,411.427,61.977,-28.135,-13.284,-28.718,-17.418,-33.907,7.47,-9.777,-29.894,3.923,-6.395,-23.622,-17.066,-11.479,-18.601,-11.871,-34.465,26.207,-26.755,-11.469,-50.429,-189.078
3.589423899999929,7.64,-7.549,-308.775,8.842,4.583,8.716,408.966,94.703,-5.566,9.271,-2.562,2.579,-11.331,30.516,14.311,-6.298,27.997,11.03,4.066,9.079,5.951,6.008,8.634,-10.864,24.644,1.448,7.498,-17.591,-159.688
3.6009955999998056,-0.052,-9.079,-305.392,-3.975,-1.569,0.51,412.656,83.85,-7.609,3.627,-7.17,-2.034,-12.857,27.412,5.587,-10.903,17.723,1.798,0.476,2.41,-3.277,4.465,11.699,-2.657,-2.02,1.447,4.929,-18.598,-162.602
3.6010621000000356,-8.249,-17.779,-314.309,-14.729,-11.814,-4.101,379.968,94.525,-11.188,5.672,-16.385,-8.18,-17.967,19.7,0.459,-20.626,7.459,-3.84,-10.283,-6.814,-15.057,-3.736,1.953,-10.851,30.769,-11.875,-4.297,-35.997,-176.271
3.6156569999998283,-7.216,-18.786,-313.482,-12.665,-11.802,-2.048,404.178,99.553,-13.738,4.642,-16.368,-10.221,-18.461,17.631,5.069,-21.63,8.476,-3.323,-12.322,-5.271,-14.529,-7.318,-1.123,-20.574,63.526,-14.937,-6.855,-33.4,-168.923
3.630605999999716,-7.721,-20.304,-309.07,-16.239,-11.79,-16.39,436.562,67.178,-26.02,-9.707,-19.426,-11.748,-19.98,21.199,-1.084,-21.096,6.931,-4.857,-12.822,-6.29,-9.392,-4.75,4.514,-13.381,31.187,-8.262,-2.749,-21.071,-161.069
3.6306682999997975,2.533,-14.648,-309.786,-10.587,-2.557,-11.763,468.913,58.914,-19.846,-0.476,-10.185,-2.002,-11.251,31.424,6.09,-12.365,17.17,6.419,-2.563,0.376,-0.161,7.551,12.706,3.538,6.565,2.505,3.913,-9.267,-165.007
3.645626799999718,10.215,-9.51,-311.013,2.231,4.618,7.204,436.169,91.643,-6.506,13.869,-1.978,1.586,-6.116,29.344,18.379,-10.304,23.813,13.072,0.514,3.962,0.864,8.055,10.132,-2.1,39.346,-0.571,2.885,-11.819,-168.94
3.645684699999947,-9.776,-23.333,-313.263,-6.48,-11.78,-3.562,403.457,90.527,-19.307,-2.539,-20.931,-13.785,-23.529,11.896,0.942,-26.687,6.883,-3.335,-17.418,-11.411,-12.969,-8.859,-4.735,-20.541,16.253,-17.989,-7.876,-36.398,-171.845
3.6617510999999467,-20.524,-32.019,-320.122,-23.38,-23.552,-17.903,435.841,61.234,-29.534,-12.782,-29.619,-17.357,-34.264,10.859,-10.33,-29.222,4.827,-2.307,-18.425,-14.986,-17.055,-11.412,-4.218,-11.812,-16.038,-16.947,-10.43,-46.096,-168.599
3.6618187999997645,2.038,-16.105,-316.216,-15.672,-7.134,-0.466,443.09,80.641,-12.086,5.161,-7.56,-3.507,-17.323,28.267,7.611,-13.311,26.851,20.237,2.598,1.935,-6.279,5.506,12.693,9.717,13.692,3.563,2.9,-22.996,-159.209
3.675752299999658,12.282,-5.843,-302.58,4.836,4.144,13.367,431.376,101.565,-2.853,14.89,-1.405,0.082,-6.035,30.288,12.215,-12.786,25.8,17.655,5.157,3.983,-2.687,10.111,14.729,6.634,46.466,5.096,8.021,-10.677,-159.05
3.675818299999719,-7.198,-19.157,-309.45,-1.829,-8.668,-4.065,459.122,79.946,-17.194,2.067,-19.847,-8.627,-19.349,16.938,-4.192,-25.581,5.282,-7.978,-11.242,-12.927,-12.418,-7.317,-0.143,-8.742,20.291,-11.303,-6.332,-29.622,-170.162
3.6906927999998516,-22.048,-36.044,-331.682,-28.467,-25.053,-25.066,432.023,59.886,-32.546,-16.378,-33.147,-19.889,-35.724,9.748,-12.384,-36.314,-1.896,-19.753,-29.161,-27.771,-24.189,-26.265,-13.975,-19.492,-7.394,-25.124,-20.158,-48.548,-182.287
3.6907474999998158,-21.001,-45.742,-336.473,-37.66,-33.737,-30.164,399.315,59.827,-41.223,-27.632,-39.774,-28.066,-41.323,3.591,-17.495,-47.036,-1.894,-17.172,-39.891,-35.941,-31.337,-33.411,-23.695,-31.256,-0.726,-36.882,-23.724,-55.159,-192.351
3.705766600000061,-16.369,-42.11,-327.94,-27.376,-33.191,-26.035,431.704,63.865,-35.547,-20.945,-37.173,-24.964,-37.696,-5.122,-19.014,-46.476,-2.917,-14.593,-30.629,-30.782,-27.207,-27.23,-18.036,-27.638,4.398,-35.82,-21.651,-49.981,-187.548
3.7058278999998038,-12.767,-28.236,-327.612,-20.689,-27.523,-20.374,464.06,65.851,-21.679,-8.628,-26.377,-17.255,-30.486,-1.018,-10.798,-34.135,0.672,-15.091,-19.328,-21.529,-20.52,-16.957,-1.624,-5.581,-1.242,-17.341,-12.92,-33.025,-169.429
3.722802099999626,-11.729,-27.695,-323.698,-24.254,-28.008,-21.89,439.517,59.637,-28.829,-15.28,-28.912,-20.311,-33.017,9.741,-11.3,-34.613,3.233,-14.563,-26.993,-26.631,-26.647,-15.915,-5.721,-6.088,3.37,-14.763,-9.834,-30.943,-166.698
3.7228704999997717,-10.181,-38.426,-308.517,-30.378,-30.029,-26.479,406.802,61.627,-43.145,-22.949,-35.543,-23.877,-40.156,14.855,-19.486,-40.726,3.742,-8.401,-29.528,-30.19,-31.743,-21.022,-15.961,-23.5,20.785,-30.117,-18.021,-49.867,-176.266
3.7362026999999216,-7.097,-37.363,-301.036,-26.249,-23.851,-18.768,374.12,85.131,-28.757,-11.143,-25.774,-16.169,-31.919,16.377,-10.757,-33.513,7.837,-3.782,-17.715,-18.889,-21.465,-17.415,-5.699,-18.866,19.74,-27.525,-15.441,-51.354,-181.725
3.7362668999999187,-10.164,-34.252,-312.006,-18.026,-21.778,-13.626,406.534,85.046,-14.896,-4.472,-22.674,-12.566,-25.739,11.75,-4.086,-30.405,8.342,-6.852,-18.21,-15.284,-16.321,-12.275,0.455,-9.113,-1.797,-17.764,-9.278,-37.47,-188.203
3.7508214999998017,-16.301,-42.927,-325.526,-25.18,-30.465,-28.982,438.915,52.686,-32.3,-17.787,-35.459,-20.238,-35.96,5.59,-15.353,-40.621,1.673,-8.894,-30.999,-25.003,-26.038,-19.947,-11.329,-18.326,2.815,-27.992,-17.978,-46.142,-185.966
3.7658292999999503,-19.871,-51.593,-330.324,-41.036,-36.583,-38.687,406.201,43.411,-48.149,-28.016,-41.059,-27.39,-46.17,7.634,-24.047,-49.29,-1.402,-7.861,-40.702,-33.687,-32.672,-32.735,-21.564,-27.017,8.96,-40.26,-26.669,-67.101,-177.07
3.7658863999999994,-22.925,-53.591,-335.629,-44.069,-39.108,-32.5,373.519,56.688,-48.101,-27.988,-43.067,-30.437,-50.222,3.528,-26.072,-52.314,-3.45,-16.05,-46.297,-36.727,-36.738,-35.776,-24.616,-26.477,-22.812,-39.707,-26.642,-68.058,-187.139
3.765927499999634,-18.291,-43.803,-334.269,-31.73,-33.945,-28.369,405.933,54.582,-42.417,-20.275,-40.975,-26.308,-46.586,-4.673,-22.972,-48.676,-3.959,-21.669,-40.615,-28.494,-34.14,-24.982,-16.395,-22.353,-18.69,-30.958,-23.03,-48.01,-194.637
3.781957799999873,-1.367,-22.755,-309.344,-12.743,-13.419,-13.996,438.315,72.458,-23.932,-2.836,-18.392,-9.888,-28.096,11.726,0.617,-32.233,8.34,-8.327,-19.57,-11.047,-15.15,-4.464,3.09,-5.424,14.116,-12.997,-8.662,-25.421,-169.851
3.782028999999966,3.758,-16.584,-294.69,-4.533,-1.623,4.461,405.601,102.1,-11.1,6.9,-4.029,-0.656,-15.773,29.132,17.01,-21.955,20.115,3.464,-7.255,-4.888,-6.426,5.786,10.771,9.951,13.59,-1.2,3.642,-22.834,-154.825
3.7949635999998463,-8.541,-34.499,-316.424,-20.922,-18.527,-9.376,411.856,79.456,-24.922,-3.865,-19.907,-11.926,-26.003,16.296,-0.937,-30.13,13.435,-3.199,-16.981,-13.08,-19.74,-7.027,1.026,4.818,-18.699,-10.933,-5.583,-40.742,-176.187
3.8099011999997856,-11.094,-41.124,-328.403,-35.758,-27.218,-26.273,444.231,49.663,-30.532,-10.521,-26.547,-14.988,-30.588,9.619,-10.67,-33.686,9.323,-5.246,-22.6,-16.141,-21.257,-14.705,-2.561,-1.335,-5.873,-19.119,-13.774,-48.385,-190.868
3.8099608999996235,-1.35,-26.738,-312.193,-25.989,-13.358,-9.853,411.512,73.179,-20.255,-3.338,-14.225,-6.264,-23.385,26.516,4.197,-27.505,15.461,2.444,-10.282,-9.465,-13.039,-4.444,1.54,-1.846,14.113,-13.465,-6.588,-39.116,-175.307
3.82499370000005,-3.397,-22.613,-307.783,-10.593,-9.247,-3.695,378.825,84.377,-24.846,-3.335,-14.723,-8.307,-25.411,24.44,5.218,-27.989,12.884,0.393,-7.198,-7.918,-16.612,-1.366,2.563,-2.356,-7.418,-10.89,-4.02,-37.027,-162.837
3.8250570000000153,-9.029,-28.226,-312.598,-12.12,-16.922,-19.061,411.234,58.677,-28.919,-7.942,-19.319,-9.836,-26.922,8.534,-2.472,-26.937,10.31,-0.12,-16.412,-8.935,-17.62,-5.975,2.561,5.331,-25.342,-9.854,-6.065,-41.601,-167.285
3.8399991999999656,-6.971,-28.71,-309.724,-25.428,-14.344,-14.431,379.572,64.254,-21.206,-3.836,-14.177,-4.191,-20.748,9.55,1.629,-23.324,15.423,7.052,-15.883,-7.389,-16.065,-6.481,1.021,6.862,-13.533,-11.893,-6.059,-50.269,-173.777
3.8441407999998773,-11.063,-35.341,-321.197,-32.575,-15.866,-7.756,346.917,86.731,-29.382,-8.955,-21.335,-13.408,-28.924,9.541,-3.496,-32.522,7.723,-2.688,-18.941,-13.529,-27.832,-16.209,-9.226,-15.174,1.85,-27.251,-17.324,-65.587,-177.19
3.856021199999759,-22.322,-42.478,-331.635,-22.808,-28.146,-22.606,379.358,69.226,-41.648,-22.266,-32.584,-26.714,-41.703,4.92,-15.275,-40.174,-4.068,-16.006,-31.218,-22.225,-34.977,-25.414,-15.877,-26.942,-3.788,-34.908,-23.967,-65.522,-181.623
3.8560857999996188,-19.226,-34.751,-318.495,-14.588,-27.605,-28.218,411.766,42.517,-31.36,-17.121,-24.355,-18.491,-31.415,13.625,-8.088,-30.4,2.596,-7.793,-27.088,-17.08,-25.72,-12.069,-8.688,-8.984,-27.35,-20.016,-11.647,-47.526,-186.053
3.870089300000018,-10.498,-29.081,-314.591,-22.258,-17.844,-18.969,379.079,47.597,-21.082,-7.37,-17.671,-11.812,-22.162,14.636,0.629,-26.271,5.667,-9.322,-23.987,-13.989,-25.694,-8.471,-8.167,-1.803,-37.056,-15.386,-8.05,-49.015,-182.28
3.870154100000036,-14.073,-39.298,-328.108,-25.31,-21.412,-19.462,346.424,61.894,-28.234,-14.535,-28.411,-19.997,-34.947,-0.748,-7.568,-34.954,-7.146,-25.707,-41.382,-28.319,-35.402,-27.417,-21.479,-19.219,-18.576,-31.764,-22.386,-68.434,-171.852
3.8850881999997,-20.719,-40.283,-324.194,-17.6,-26.001,-22.004,378.866,66.443,-31.279,-17.082,-29.408,-20.49,-37.474,-3.821,-11.147,-33.382,-5.602,-20.558,-40.316,-28.803,-31.781,-26.365,-21.97,-27.397,-1.652,-36.343,-22.364,-69.39,-169.118
3.885152399999697,-15.063,-26.411,-314.136,-12.459,-18.803,-13.785,411.274,69.963,-24.588,-7.843,-17.083,-11.76,-23.604,10.527,-2.939,-23.615,5.162,-7.217,-18.758,-12.893,-23.552,-8.921,-7.604,-14.562,-9.847,-25.036,-10.046,-54.464,-178.683
3.900119899999936,-4.29,-21.261,-317.408,-9.885,-13.661,-11.722,378.588,68.356,-25.588,-7.835,-15.529,-8.162,-23.581,20.25,2.7,-22.054,4.645,-11.821,-23.35,-11.856,-25.066,-10.449,-7.596,-5.838,-30.842,-22.449,-10.036,-47.749,-180.041
3.9040540999999394,-2.748,-24.314,-315.041,-12.437,-17.234,-15.297,366.938,62.652,-30.173,-12.951,-20.636,-9.179,-30.729,13.058,1.672,-21.52,0.029,-14.883,-36.135,-19.528,-26.577,-15.049,-18.859,-10.443,-34.909,-27.038,-13.612,-48.214,-167.566
3.916323899999952,-6.844,-21.728,-308.066,-17.548,-14.655,-10.158,362.985,70.274,-26.557,-6.278,-12.931,-9.682,-27.112,-1.812,2.695,-19.962,-3.557,-13.331,-30.463,-16.435,-23.989,-10.423,-16.791,-11.457,-18.481,-23.937,-7.451,-49.19,-161.251
3.9163903999997274,-7.35,-18.12,-312.369,-8.821,-6.443,-1.951,330.347,83.012,-20.895,-2.173,-7.283,-10.697,-25.548,-4.372,7.303,-20.454,-7.14,-19.465,-28.384,-13.345,-22.428,-9.388,-7.553,-4.786,-10.265,-18.79,-4.882,-51.19,-163.651
3.930211999999756,-1.707,-17.59,-309.495,-2.152,-5.925,-5.535,362.804,72.682,-20.874,-5.757,-13.423,-8.124,-26.547,11.002,9.345,-18.384,3.114,-13.81,-29.38,-11.794,-20.357,-7.842,-5.496,-2.732,-10.255,-17.746,-7.439,-50.114,-158.364
3.9302827999999863,0.344,-19.109,-294.329,-15.982,-11.042,-14.239,395.229,54.679,-22.902,-5.751,-12.897,-3.505,-21.398,20.212,5.75,-16.317,13.357,1.06,-22.69,-8.709,-19.824,-6.297,-8.052,-8.877,7.686,-21.315,-5.894,-48.015,-154.62
3.9451577999998335,-6.316,-27.287,-296.084,-21.089,-16.666,-16.274,362.559,61.284,-25.953,-7.795,-10.835,-7.088,-26.5,7.384,-0.404,-21.423,1.048,-6.625,-29.84,-15.36,-26.464,-14.488,-13.679,-19.626,17.412,-25.392,-8.962,-51.553,-166.761
3.945228699999916,-8.359,-26.235,-312.181,-5.187,-20.236,-12.159,329.921,74.543,-26.44,-11.373,-16.46,-12.716,-34.158,-3.381,-3.477,-21.914,-6.125,-18.402,-37.495,-17.906,-30.024,-15.498,-12.129,-21.144,-12.319,-23.317,-12.027,-52.526,-174.278
3.9601568999996744,0.871,-16.475,-309.308,0.454,-15.092,-6.512,362.378,67.808,-21.802,-6.239,-12.345,-9.118,-21.316,7.893,1.137,-14.208,7.713,-9.162,-25.674,-4.568,-24.871,-4.724,-2.383,-7.29,-39.971,-15.097,-3.306,-44.789,-160.784
3.9640984999996363,-1.179,-25.68,-307.974,-17.477,-15.589,-12.653,394.804,50.834,-26.391,-8.794,-10.283,-7.572,-19.758,14.545,-0.913,-15.218,7.193,-8.64,-28.21,-6.101,-29.969,-10.354,-5.966,-8.82,-36.345,-21.742,-3.815,-50.38,-159.599
3.97734169999967,-14.498,-43.585,-330.207,-30.78,-32.48,-29.546,362.133,43.099,-40.71,-25.179,-26.155,-17.81,-42.792,-2.376,-13.72,-25.449,-10.745,-29.636,-48.674,-23.001,-41.722,-26.226,-11.596,-31.353,-26.575,-35.04,-17.643,-64.674,-185.567
3.990297699999701,-9.873,-31.246,-325.779,-20.503,-28.861,-22.857,329.496,58.937,-36.058,-18.494,-23.055,-14.206,-37.626,-7.497,-7.559,-21.325,-7.66,-28.07,-42.99,-16.318,-31.947,-15.441,9.933,-27.735,-15.79,-24.759,-10.966,-50.777,-187.431
3.9903686999996353,7.043,-10.21,-292.665,-5.626,-1.68,2.269,354.782,86.543,-12.968,6.115,1.047,3.227,-10.948,12.491,12.941,-5.422,10.278,-0.889,-21.43,3.679,-15.521,5.067,30.415,-3.629,-7.065,-8.34,6.976,-33.308,-154.455
4.005252199999632,0.888,-20.446,-295.959,-13.817,-5.777,-2.344,387.215,83.383,-15.517,-0.551,-6.126,-3.949,-19.646,15.552,4.731,-10.54,8.219,-0.376,-28.581,-4.522,-28.313,-6.721,13.991,-10.285,-27.038,-20.115,-3.277,-50.693,-147.129
4.005314799999724,-20.629,-43.992,-327.938,-30.709,-34.973,-30.006,419.615,51.024,-40.604,-27.702,-32.76,-27.511,-45.755,-5.98,-19.352,-33.583,-7.159,-23.942,-50.582,-27.571,-49.802,-31.818,-4.979,-34.866,-46.991,-42.124,-23.766,-73.184,-176.695
4.020300799999859,-25.22,-50.096,-325.561,-31.703,-38.012,-36.636,409.462,38.165,-44.662,-30.236,-33.24,-26.459,-45.196,-12.122,-19.845,-36.624,-10.226,-25.455,-55.142,-30.105,-46.678,-32.811,-1.9,-39.954,-24.915,-44.644,-23.23,-69.524,-189.326
4.020365899999888,-11.874,-40.824,-303.718,-22.45,-18.506,-17.644,388.048,64.255,-24.125,-11.763,-16.3,-9.014,-27.733,4.796,-4.968,-19.681,1.568,-8.011,-41.254,-14.194,-31.774,-17.921,8.861,-28.131,-1.323,-31.791,-11.936,-60.233,-170.182
4.036332899999707,1.457,-23.877,-299.316,-5.521,-6.192,3.378,396.369,86.22,-9.756,4.13,-2.964,0.729,-12.848,19.136,6.308,-7.366,16.423,1.731,-24.307,-0.347,-23.033,-3.558,21.147,-15.295,-10.544,-16.903,-1.166,-50.439,-151.568
4.036399999999958,2.481,-17.705,-293.894,5.755,-5.161,5.424,416.977,77.937,-12.821,4.639,-1.424,-0.297,-12.835,17.068,7.838,-5.821,17.431,0.192,-23.77,-1.371,-25.572,-0.481,22.663,-13.231,-20.267,-14.324,-1.677,-41.167,-155.003
4.0503507999997055,-5.719,-30.495,-295.649,-11.669,-13.865,-10.463,384.285,67.612,-22.542,-9.198,-13.718,-9.518,-27.167,3.731,-1.903,-14.525,4.094,-8.005,-39.628,-12.129,-37.329,-12.776,11.369,-20.902,-11.025,-25.068,-12.433,-47.786,-167.656
4.050416799999766,-3.664,-29.953,-306.112,-22.928,-12.315,-4.817,351.625,88.037,-15.859,-5.603,-9.606,-7.971,-22.529,6.801,1.685,-14.51,5.114,-11.071,-34.978,-8.018,-34.218,-7.128,21.092,-10.635,6.404,-16.334,-4.736,-47.226,-160.316
4.0653230999996595,8.123,-6.869,-295.047,1.173,8.702,20.803,373.815,111.003,4.137,18.481,12.433,12.529,0.547,25.237,23.2,3.435,19.966,-1.326,-13.426,10.945,-15.741,20.032,44.125,10.893,9.984,9.298,15.761,-22.588,-146.323
4.0654013999997005,4.016,-4.813,-289.629,9.369,7.157,11.561,406.229,83.74,-2.015,10.778,4.736,10.467,-5.601,18.04,18.566,0.87,13.799,-0.3,-21.609,4.275,-21.873,13.352,33.322,3.197,-17.691,3.141,6.523,-22.053,-157.96
4.080344999999852,-9.82,-27.862,-311.369,-11.133,-18.978,-20.214,425.29,51.381,-26.091,-17.41,-21.397,-14.646,-30.186,-1.446,-3.994,-24.234,-2.097,-12.083,-45.666,-17.759,-43.368,-14.326,11.772,-20.372,-17.161,-25.552,-13.975,-48.159,-171.634
4.080416099999638,-6.736,-25.272,-306.447,-11.122,-15.885,-10.46,392.59,74.895,-20.43,-9.708,-12.154,-10.021,-25.033,10.851,4.207,-20.111,7.127,-10.021,-39.473,-12.106,-39.226,-9.189,20.469,-20.864,15.644,-20.403,-6.277,-39.914,-160.192
4.096406599999682,-1.606,-8.341,-283.599,-2.914,-0.5,10.555,364.532,97.362,-6.065,6.184,2.715,5.358,-13.225,19.037,14.449,-6.259,11.731,-7.962,-30.724,-0.823,-30.478,0.042,25.06,-12.134,6.407,-3.989,-0.123,-20.406,-146.199
4.09648500000003,-13.9,-23.189,-297.66,-16.743,-18.43,-9.435,396.956,64.989,-18.867,-9.704,-18.804,-11.553,-28.581,-4.548,-7.083,-23.671,-8.774,-24.348,-51.698,-21.314,-44.792,-20.45,3.518,-23.393,-25.875,-23.452,-18.566,-47.026,-148.102
4.110793999999714,-20.034,-42.634,-319.904,-22.874,-33.269,-24.795,417.051,52.117,-25.508,-19.428,-32.618,-21.276,-36.749,-10.692,-17.322,-34.406,-12.351,-26.373,-60.868,-32.052,-53.456,-31.701,-4.683,-38.226,-28.923,-41.872,-27.257,-69.52,-165.885
4.110860799999955,-13.866,-29.784,-313.436,-7.482,-18.891,-6.84,384.359,83.827,-13.187,-6.089,-15.679,-6.397,-24.417,8.275,-2.96,-21.564,1.494,-12.002,-44.926,-15.626,-41.62,-20.398,8.642,-36.139,3.894,-27.486,-17.495,-48.446,-186.724
