Timestamp,Cz,Fz,Fp1,F3,C1,C3,T7,C5,CP5,CP3,CP1,P1,P3,O1,CPz,Pz,Oz,O2,P4,P2,CP2,CP4,CP6,C6,T8,C4,C2,F4,Fp2
0,-4.777,-4.441,-160.975,28.846,14.378,27.647,-156.638,126.054,52.068,38.232,20.733,28.089,67.173,36.618,51.218,-3.849,-72.67,33.964,78.629,19.656,102.685,3.84,8.166,41.865,34.539,71.855,11.848,104.733,-180.71
6.38999999864609E-05,-6.309,-4.949,-154.154,27.793,8.728,26.082,-155.457,130.539,56.626,39.731,20.2,32.671,70.692,41.192,48.605,0.766,-72.597,38.028,79.062,14.514,105.144,2.3,9.182,34.139,37.578,62.561,7.225,104.116,-188.214
0.0150423999998566,-1.179,-9.042,-160.66,9.834,8.207,20.933,-157.863,122.212,44.274,32.007,11.471,26.491,57.814,35.003,42.921,-9.993,-79.185,29.793,69.762,6.302,104.014,-7.949,3.025,28.469,41.639,56.351,1.583,101.963,-196.223
0.0151055999999699,8.043,-1.861,-159.475,13.923,17.42,22.962,-155.656,123.114,45.767,32.487,16.582,24.415,61.342,37.018,46.976,-11.008,-74.495,32.837,73.79,15.517,114.668,0.256,5.584,41.248,47.233,66.541,11.827,105.959,-168.362
0.030076999999892,14.183,13.51,-147.02,34.401,20.989,34.209,-148.328,136.311,58.529,42.701,27.837,33.1,75.113,48.764,55.639,-1.775,-61.1,53.297,88.061,25.236,124.287,19.211,19.923,56.576,53.846,79.794,22.061,122.759,-151.287
0.0301402000000053,6.484,10.935,-137.139,28.219,12.771,35.2,-140.495,130.539,54.884,43.17,22.173,32.042,69.403,48.715,46.874,-6.384,-62.064,57.854,83.362,19.063,119.552,12.532,19.39,51.397,52.767,78.69,15.379,121.612,-169.067
0.0450627999998687,0.842,1.191,-137.002,12.822,11.221,26.968,-136.768,117.089,49.194,38.004,17.028,26.887,64.21,43.543,39.142,-13.55,-67.637,48.062,75.082,13.921,118.921,3.298,9.637,42.636,51.178,71.439,8.704,107.146,-164.799
0.0451361000000361,9.038,-1.372,-153.771,17.932,15.821,23.354,-147.39,120.045,48.12,32.331,15.987,25.323,63.122,40.426,45.763,-15.074,-70.131,43.404,76.032,13.907,121.363,6.368,6.554,39.52,56.249,66.244,8.183,104.477,-162.585
0.0600481000001309,4.931,-7.518,-168.474,16.89,3.51,14.622,-170.297,119.413,37.826,20.003,3.675,16.589,49.738,32.188,40.594,-24.28,-77.233,39.774,68.271,5.696,113.557,-0.298,4.498,31.796,54.656,60.543,1.002,102.323,-192.649
0.0749804000001859,-6.857,-8.536,-158.572,9.188,-6.74,8.46,-184.983,114.171,35.739,18.446,3.159,14.523,48.152,32.669,30.82,-26.817,-77.156,43.32,67.178,5.69,116.005,0.215,5.518,28.178,46.405,64.068,0.489,100.684,-188.87
0.0750418000002355,4.933,3.768,-145.605,23.524,10.173,24.845,-182.237,130.45,53.634,34.821,21.599,30.902,67.059,45.444,44.621,-14.495,-64.783,58.134,86.066,20.541,131.771,16.096,16.271,41.469,50.969,78.349,12.272,112.879,-155.893
0.0750831999998809,16.199,7.863,-150.071,32.722,23.483,35.066,-167.71,144.152,60.753,42.471,25.164,36.507,71.603,51.546,55.847,-9.87,-60.62,62.687,90.079,25.132,136.25,17.105,22.402,54.748,61.677,82.369,14.309,118.914,-156.25
0.0900489999999081,1.325,-0.342,-156.068,13.733,12.189,20.174,-163.956,129.663,48.396,33.207,12.331,25.199,62.31,49.957,41.959,-17.545,-68.244,55.964,76.669,15.885,127.404,8.891,15.208,45.472,58.541,71.016,4.561,108.549,-165.315
0.0901106000001164,-8.41,-1.366,-150.789,7.572,2.955,11.445,-190.432,124.923,43.225,25.489,9.757,22.613,58.661,46.321,34.233,-22.138,-72.274,52.834,75.055,12.795,124.203,9.394,9.045,32.106,50.798,64.285,1.994,105.878,-161.564
0.10544260000006,4.406,6.32,-142.441,28.569,13.198,25.266,-205.099,145.803,55.477,32.636,18.969,30.787,65.775,45.25,48.543,-15.456,-66.567,56.367,82.152,18.93,131.251,12.458,16.208,39.759,62.53,74.467,11.726,121.142,-164.476
0.105501399999866,15.673,15.023,-134.614,44.934,30.091,35.999,-172.106,155.903,67.205,47.973,30.733,39.465,80.054,57.5,65.913,-2.12,-53.18,66.045,92.316,29.67,141.878,22.692,31.049,56.625,80.911,89.761,25.035,138.439,-154.577
0.120067899999867,8.997,12.959,-134.48,39.254,30.573,30.84,-139.146,139.353,59.965,45.363,29.677,40.963,78.437,65.64,63.798,-3.143,-52.615,67.516,93.249,29.64,141.736,27.792,28.456,55.032,70.071,89.159,22.448,132.153,-139.566
0.135042200000044,-4.332,-9.084,-151.251,17.186,12.1,12.366,-171.282,118.209,38.388,20.215,7.619,25.04,53.767,42.52,42.217,-21.583,-76.128,47.981,68.565,6.557,126.738,2.662,4.349,33.46,37.726,67.041,2.958,101.795,-157.357
0.135104800000136,-4.328,-19.833,-166.469,3.848,5.94,3.644,-203.386,120.653,31.178,13.022,-4.684,11.183,45.004,24.035,33.978,-29.246,-88.348,38.199,51.59,-6.77,119.951,-14.247,-6.413,18.569,33.077,54.678,-1.656,93.496,-177.18
0.135147100000268,8.997,3.241,-152.471,23.824,26.426,23.621,-170.395,145.635,53.688,39.649,18.374,29.103,69.038,48.089,53.924,-10.773,-66.23,60.702,76.129,18.34,136.225,11.895,16.134,32.383,62.758,76.141,18.838,123.629,-159.072
0.150901500000145,11.037,19.119,-123.116,50.441,36.134,43.577,-137.437,158.809,73.614,58.053,36.799,49.566,86.387,75.706,64.629,7.68,-49.258,79.597,97.57,37.789,148.384,33.4,35.074,50.794,79.089,97.069,27.529,138.874,-133.81
0.16520730000002,1.292,7.829,-120.944,45.779,20.728,36.361,-153.694,147.38,65.856,47.748,22.93,36.196,75.03,65.384,50.219,1.525,-61.504,71.32,85.177,20.845,135.94,19.534,24.28,41.521,72.35,85.189,15.206,121.317,-134.701
0.165273600000091,0.266,0.649,-144.902,29.852,9.437,21.98,-185.815,138.011,49.909,30.795,7.538,19.254,57.537,42.265,39.411,-13.846,-74.25,58.441,68.186,5.967,119.923,5.17,11.961,25.086,70.741,68.198,7.506,114.023,-152.497
0.180143399999906,-3.32,3.21,-155.515,25.724,5.329,16.835,-212.269,138.385,44.223,24.104,7.53,21.796,51.331,37.612,36.297,-17.93,-77.249,51.723,62.482,4.937,118.778,4.14,10.924,25.573,63.498,66.08,7.498,121.594,-162.078
0.180211299999883,-18.174,0.645,-140.503,27.747,1.225,17.843,-227.426,136.71,43.154,27.666,7.01,21.774,51.792,41.673,32.163,-15.863,-81.783,49.622,60.37,0.321,120.196,1.062,5.79,23.498,42.942,65.502,3.905,120.448,-156.28
0.194253300000128,-15.594,7.304,-125.505,37.453,9.933,29.096,-195.948,138.622,49.259,38.397,11.614,23.29,59.938,48.803,40.327,-10.212,-75.041,61.355,67.994,5.444,122.125,6.184,5.784,20.401,48.534,71.072,6.975,121.864,-151.001
0.19433059999983,0.815,16.519,-129.478,49.199,23.755,38.288,-162.965,145.144,60.993,46.555,23.898,36.074,74.222,62.074,53.095,2.094,-57.548,75.639,77.148,20.295,129.176,18.473,18.074,31.139,70.515,82.784,15.677,130.964,-149.826
0.209206800000175,-3.284,7.793,-138.57,37.879,19.633,30.565,-191.491,141.412,57.346,41.385,20.8,33.989,71.586,63.549,49.456,4.653,-60.052,68.903,75.022,16.689,128.022,13.844,18.056,31.108,64.809,77.578,13.1,126.734,-151.213
0.213256099999853,-13.015,1.125,-140.481,21.447,13.978,19.776,-198.984,130,41.919,32.123,7.971,22.172,56.146,51.703,43.771,-4.573,-72.287,58.588,69.824,6.426,123.795,5.633,8.304,19.806,53.986,69.816,5.914,118.923,-156.697
0.226079099999879,-0.706,9.321,-141.877,28.598,25.235,21.806,-165.997,126.796,44.951,32.603,11.55,28.809,59.163,53.188,52.948,1.067,-66.579,66.214,71.803,12.567,130.844,14.849,14.955,25.934,63.666,79.48,11.031,126.489,-155.515
0.226144799999929,5.442,9.312,-145.834,38.303,30.845,30.493,-198.107,134.354,56.177,39.23,20.76,35.441,68.838,61.332,58.019,11.824,-59.34,72.295,74.805,17.166,136.348,19.957,21.601,30.006,63.602,81.45,16.656,126.362,-149.212
0.239309000000048,-11.469,5.204,-141.59,33.654,22.105,32.512,-230.184,141.905,54.071,39.703,17.153,28.233,62.621,55.635,48.227,5.665,-63.892,66.588,71.656,10.488,139.798,9.179,12.87,20.243,55.342,73.171,12.541,115.99,-153.674
0.239377700000205,-15.556,11.859,-134.276,29.522,15.423,25.82,-197.166,142.275,49.407,35.565,12.525,28.717,59.997,57.116,43.055,3.61,-61.779,71.132,66.974,9.453,149.392,7.633,9.783,24.321,61.946,76.684,10.479,120.997,-151.983
0.254280000000108,-2.221,8.261,-137.215,26.419,12.334,20.158,-164.181,130.862,48.845,31.431,12.512,31.25,63.523,69.867,46.599,11.291,-58.131,78.745,69.468,12.518,149.243,15.31,17.458,30.957,69.569,81.218,14.567,125.999,-136.974
0.254346799999894,1.368,-3.531,-146.3,23.319,11.297,20.65,-196.292,121.509,45.21,30.887,10.451,26.608,59.361,66.211,43.99,8.206,-65.757,69.957,72.473,11.481,141.409,13.758,16.416,16.581,70.524,76.014,13.528,113.065,-142.473
0.269276300000001,-0.171,0.571,-145.129,33.029,14.872,25.753,-228.371,133.171,48.751,36.492,11.465,30.68,63.913,58.46,40.36,9.734,-68.253,66.301,68.814,13.006,151.514,12.719,11.789,11.954,71.478,73.889,10.953,111.928,-164.359
0.273235600000135,3.416,7.231,-135.762,46.828,15.881,29.826,-216.872,148.919,57.924,42.091,14.527,34.235,71.534,62.5,44.418,22.532,-64.086,76.481,68.233,15.042,161.096,17.83,13.314,28.848,60.648,75.864,13.503,125.136,-162.658
0.285249099999874,-0.174,7.736,-130.503,46.269,13.816,31.845,-194.626,147.234,59.403,39.487,15.025,29.078,66.339,62.95,48.985,24.047,-62.998,82.04,77.899,17.589,156.324,23.96,23.547,39.577,58.026,81.936,17.588,128.084,-137.905
0.285312500000146,-2.735,15.413,-126.274,43.661,16.876,36.424,-195.969,148.623,60.88,42.009,18.596,35.196,68.834,68.01,53.034,25.56,-55.762,88.618,87.555,24.231,163.34,34.182,34.794,45.173,77.436,93.637,23.718,130.005,-112.151
0.299403099999836,-0.171,14.885,-127.173,45.667,17.884,39.461,-207.043,155.647,63.381,46.578,18.577,37.723,75.938,75.114,53.493,28.096,-56.219,90.066,79.27,20.621,170.349,32.098,27.587,43.591,75.821,89.957,22.67,131.925,-105.892
0.299468900000193,-6.831,-8.696,-146.001,32.814,5.058,22.516,-215.546,135.511,45.899,29.625,1.653,18.217,54.857,54.547,38.583,7.575,-79.217,66.922,53.063,0.108,152.248,3.377,2.456,17.42,43.47,62.203,3.692,109.251,-125.766
0.314330700000028,-9.898,-20.983,-157.126,15.362,-4.168,4.05,-206.108,111.297,30.484,10.64,-9.62,13.588,36.871,36.561,27.274,-5.752,-88.871,54.048,43.789,-8.601,146.46,-6.873,-2.67,-1.553,41.89,49.845,-3.484,96.334,-136.398
0.329339200000049,-0.666,-2.006,-140.575,23.032,7.107,15.317,-195.656,126.555,44.286,23.437,4.734,30.481,56.302,57.529,42.616,15.77,-68.802,77.56,67.311,8.313,168.856,20.287,18.85,22.527,74.636,72.849,14.45,123.903,-118.331
0.329401500000131,-2.203,10.803,-138.385,40.939,14.784,31.695,-206.731,146.921,58.586,39.808,18.05,34.549,72.64,71.816,49.745,27.538,-60.024,90.29,79.027,18.551,175.859,31.025,27.028,44.021,81.733,87.633,21.608,137.611,-109.504
0.346609499999886,-3.737,-4.577,-158.739,37.825,2.474,20.905,-220.357,136.528,49.818,29.522,9.322,27.854,62.833,58.937,31.252,13.678,-69.698,76.88,59.992,5.725,162.875,12.038,11.632,25.022,60.647,69.615,8.779,109.809,-125.788
0.346675700000105,3.951,-9.183,-148.846,35.225,2.472,15.249,-223.723,133.83,47.719,26.931,5.727,31.413,62.258,65.026,31.221,15.713,-62.968,80.901,58.908,3.158,167.323,13.051,7.522,15.263,58.537,63.397,8.258,106.625,-135.908
0.359465099999852,2.922,13.368,-121.545,53.121,30.134,34.189,-222.474,154.701,62.528,46.884,22.627,41.115,76.028,84.428,54.244,34.653,-47.024,99.776,82.415,24.159,186.624,36.092,25.957,39.839,75.385,89.974,22.082,139.306,-122.453
0.359529199999997,4.969,24.625,-125.522,64.851,44.961,45.938,-199.71,162.743,71.175,56.058,32.339,48.759,83.637,83.319,60.85,40.254,-44.928,103.262,90.53,34.381,195.146,43.74,35.153,50.557,81.969,102.179,28.207,147.876,-103.375
0.374453500000072,19.821,15.891,-134.106,60.175,31.596,41.794,-166.723,154.383,71.104,52.416,28.72,46.148,84.578,79.138,54.129,31.504,-48.981,100.597,81.73,24.613,190.853,34.475,26.921,35.138,79.326,86.708,24.593,130.31,-102.247
0.374517499999911,12.116,12.289,-123.213,58.578,21.83,38.678,-172.704,150.643,70.008,49.802,25.105,34.319,78.858,80.083,52.538,26.862,-53.031,100.497,74.988,16.904,183.49,25.731,19.209,27.418,75.148,76.887,20.982,127.618,-117.514
0.389438000000155,-7.876,7.666,-128.725,53.396,21.296,29.93,-204.807,149.98,60.204,38.994,16.371,27.625,64.947,69.244,48.387,24.274,-62.199,92.712,66.716,11.764,176.646,22.119,14.579,27.39,64.827,77.323,16.35,131.076,-128.155
0.389496600000257,0.329,-2.075,-147.552,41.048,19.225,18.117,-236.877,148.293,48.361,30.758,8.158,29.646,59.759,60.466,45.777,19.639,-68.797,85.959,62.039,7.141,174.932,21.073,9.954,23.777,55.028,75.196,13.26,126.847,-131.613
0.405205600000045,16.722,7.148,-147.404,44.08,29.452,27.833,-233.566,155.829,55.997,44.047,21.982,35.764,71.994,68.09,54.44,24.23,-66.167,91.508,67.612,15.843,184.491,24.638,14.042,26.827,57.022,77.17,19.395,134.917,-131.481
0.405271200000243,11.07,23.535,-139.06,54.282,43.768,42.662,-200.545,162.846,73.36,58.86,36.817,44.95,84.73,79.293,61.558,36.501,-58.928,97.565,72.667,24.537,195.065,29.736,19.664,32.948,67.211,84.778,28.084,147.59,-118.542
0.419703200000185,2.35,17.876,-132.261,49.105,37.064,34.422,-167.557,152.437,70.213,50.604,29.095,45.93,81.059,85.874,62.009,32.878,-55.795,98.492,69.009,19.901,190.259,31.243,17.595,31.378,78.927,87.255,23.446,143.344,-102.029
0.419767500000035,2.348,6.075,-125.469,44.445,25.756,24.142,-199.665,143.575,55.285,37.234,16.771,35.638,68.17,80.665,57.848,20.038,-61.887,94.807,60.743,11.684,181.872,27.626,15.528,28.785,81.41,82.557,15.225,132.954,-107.05
0.434517600000163,-0.729,6.069,-130.979,49.524,25.73,29.753,-231.74,155.727,57.279,38.221,16.242,31.504,66.053,68.289,47.032,20.53,-68.998,89.077,55.047,7.574,180.154,22.988,13.976,24.145,69.545,78.376,15.722,130.26,-122.825
0.43457750000016,-2.265,9.137,-140.069,48.962,24.168,32.797,-198.721,158.133,66.444,45.867,18.275,36.083,75.208,70.269,41.35,23.071,-66.879,93.086,60.115,10.128,179.973,24.502,14.986,21.56,64.865,78.809,16.731,131.154,-124.751
0.449540900000102,9.521,11.689,-136.343,50.45,24.656,30.715,-165.735,142.093,66.889,46.334,23.38,40.145,78.719,83.007,48.993,22.023,-57.591,103.752,70.813,20.364,183.38,35.748,26.754,30.76,77.095,86.928,18.251,138.195,-113.356
0.449598499999865,20.782,15.264,-133.645,58.084,32.828,34.783,-197.844,146.049,66.823,43.726,29.504,40.105,74.542,80.362,54.579,24.563,-58.046,103.135,74.328,22.393,187.295,42.372,34.925,39.438,84.703,93.501,24.893,148.303,-109.656
0.467261400000098,14.613,13.199,-135.561,51.878,31.771,36.797,-229.922,161.272,66.756,43.17,23.839,36.991,71.906,70.548,49.914,21.464,-66.697,93.299,65.545,10.588,176.861,30.547,24.643,30.69,82.057,83.673,21.794,145.081,-122.867
0.467325900000105,0.766,10.625,-127.228,45.167,26.616,34.199,-217.397,162.136,69.251,45.176,17.667,37.467,76.445,72.527,46.79,16.32,-65.606,94.23,58.307,8.016,169,23.344,17.959,25.023,83.512,76.417,13.063,136.227,-127.355
0.480089499999849,1.79,17.274,-116.343,59.978,33.761,40.312,-234.598,170.683,79.94,52.303,26.871,44.601,83.541,84.75,54.428,23.988,-53.245,104.894,69.519,20.815,180.101,38.177,27.675,38.318,82.916,89.149,19.71,141.726,-104.173
0.480152999999973,13.059,22.892,-117.763,72.726,37.826,47.444,-220.531,177.172,78.835,56.862,35.041,47.631,83.457,92.862,62.571,30.624,-49.093,107.863,80.208,26.43,183.508,47.873,32.77,48.014,76.685,98.793,28.4,148.244,-89.212
0.49463730000025,9.46,17.234,-124.305,63.432,27.542,33.565,-187.522,148.818,60.826,45.534,24.248,38.874,73.128,83.035,60.459,23.421,-58.778,99.046,67.32,16.67,172.053,35.017,23.003,35.671,79.17,87.936,20.687,138.362,-108.591
0.509632499999952,-7.968,5.946,-128.792,52.098,27.002,15.6,-215.512,133.3,53.592,30.119,11.416,33.199,63.321,69.632,53.738,13.664,-65.379,92.799,52.908,6.919,165.734,21.15,14.784,19.241,88.825,77.09,11.957,131.564,-126.413
0.509690899999896,-7.96,3.378,-131.737,52.045,37.734,20.708,-247.572,154.684,60.199,33.163,16.528,37.777,63.77,77.759,58.808,13.65,-59.166,98.854,59.516,9.986,167.105,24.203,18.867,20.246,88.736,79.062,15.531,141.678,-120.139
0.524726699999974,12.54,12.084,-128.019,59.678,37.696,33.495,-219.147,163.751,64.749,45.425,28.294,44.399,74.464,93.563,66.433,23.37,-46.811,110.026,71.239,20.222,171.548,36.986,29.607,36.108,85.061,89.229,23.2,150.758,-115.92
0.528663099999903,14.577,19.244,-118.669,67.815,31.511,36.023,-195.362,164.099,69.808,48.966,29.803,47.429,83.099,96.031,62.781,32.569,-41.641,114.014,75.779,26.862,174.963,42.585,35.213,45.805,90.099,97.849,25.738,149.07,-111.706
0.541404399999919,-1.831,17.176,-115.989,70.821,37.627,37.524,-227.442,177.255,73.836,51.991,26.699,44.82,81.991,95.423,59.644,29.974,-47.235,110.827,76.215,25.298,170.69,37.931,30.054,40.124,95.644,94.677,22.127,147.897,-95.713
0.541469000000234,1.244,13.573,-120.484,67.677,43.225,35.949,-198.013,169.905,70.689,51.939,25.648,38.115,75.762,92.766,61.634,23.284,-56.922,103.543,66.917,16.051,164.371,32.77,22.852,29.838,86.839,85.873,17.494,147.749,-94.592
0.554785700000139,10.465,13.047,-118.827,59.412,29.861,26.692,-165.027,149.243,63.446,39.591,21.011,34.491,67.489,83.452,58.498,19.675,-60.963,97.805,57.629,9.888,164.719,29.664,21.804,26.222,73.945,83.738,15.427,145.552,-112.941
0.554845999999998,0.72,13.034,-112.56,57.303,18.561,27.177,-192.015,153.192,61.845,35.966,19.453,37.018,64.86,82.856,54.341,22.217,-58.341,99.244,61.67,12.951,168.141,30.659,24.344,30.294,78.994,86.216,17.973,147.968,-117.951
0.56982169999992,-1.33,14.557,-116.546,68.517,29.301,38.421,-205.143,167.896,69.98,49.25,29.168,42.616,74.529,93.531,57.361,29.879,-54.696,104.78,69.805,17.549,171.559,35.751,27.394,35.899,90.186,88.691,23.078,154.48,-107.587
0.569885100000192,16.09,19.154,-121.553,77.67,39.005,44.018,-199.814,173.876,80.669,57.91,36.311,46.672,86.238,101.635,61.914,33.948,-48.494,108.773,71.272,19.581,172.412,38.789,29.928,35.863,87.534,91.676,25.617,155.35,-104.405
0.584818300000279,20.685,20.671,-112.209,77.592,30.257,43.462,-226.767,179.337,79.051,52.729,31.664,44.064,82.565,99.996,61.34,30.84,-43.322,110.202,71.713,20.586,166.604,38.238,29.386,36.34,80.274,95.171,24.054,155.707,-106.863
0.588784600000054,9.393,18.089,-101.339,77.002,21.517,39.832,-223.978,173.01,69.238,44.479,24.46,37.872,72.749,93.236,52.057,28.76,-49.427,104.968,68.055,16.979,161.826,39.224,29.356,39.377,84.805,94.563,20.444,158.113,-108.293
0.600568899999871,6.31,16.534,-103.287,76.413,25.082,36.206,-198.139,161.054,68.145,42.385,23.923,36.809,72.676,91.606,44.833,30.268,-54.5,101.277,64.401,16.45,165.251,39.185,32.401,38.826,97.528,91.395,18.887,152.319,-110.234
0.600633500000185,12.452,14.468,-112.917,69.164,24.032,39.756,-209.212,165.504,74.736,51.565,30.559,42.408,80.8,96.638,54.01,35.361,-46.761,110.91,72.021,25.143,172.258,40.683,33.905,34.176,105.627,94.377,22.454,147.556,-111.66
0.614933100000144,13.976,13.942,-117.415,59.874,25.033,44.327,-214.126,173.023,77.736,59.198,37.701,48.001,87.379,101.664,64.714,44.035,-40.055,120.533,80.146,30.241,177.721,48.327,37.97,37.216,105.521,101.968,29.091,154.069,-110.524
0.615008700000089,7.302,24.174,-106.027,69.548,43.963,46.332,-207.252,172.85,78.17,55.552,38.176,49.49,87.804,109.247,64.649,49.626,-38.478,121.949,82.115,30.21,179.08,54.426,44.08,46.4,110.027,105.964,30.087,164.161,-105.803
0.629849299999933,3.196,35.421,-91.064,94.581,48.53,49.872,-230.61,180.362,79.629,54.472,37.113,47.904,89.254,116.822,63.048,48.552,-33.316,123.876,81.521,32.742,173.266,51.298,41.474,47.378,118.626,103.809,26.983,170.657,-97.5
0.629909199999929,8.828,23.602,-99.682,88.339,18.255,41.625,-234.478,178.132,75.963,52.881,30.928,42.22,86.603,105.947,51.714,42.868,-40.455,117.605,70.169,24,161.309,35.877,28.625,35.548,101.089,91.922,19.271,161.264,-99.452
0.644878699999936,11.381,1.037,-117.513,55.975,2.356,22.628,-201.456,154.388,65.129,41.045,17.065,35.006,72.684,88.935,36.805,35.141,-57.833,102.63,55.241,10.143,154.488,22.522,18.862,25.266,69.737,76.973,11.055,139.074,-115.234
0.648980200000096,8.296,3.597,-113.297,58.993,26.432,25.679,-197.156,149.623,61.99,38.954,19.609,35.995,68,94.994,48.551,38.692,-51.627,107.138,62.359,18.33,162.018,32.233,23.454,25.753,77.352,80.995,16.679,141.496,-123.828
0.661736200000178,14.948,19.475,-104.987,86.599,41.774,41.535,-229.234,169.966,72.174,48.137,34.447,43.132,80.74,110.78,64.897,48.899,-36.719,121.888,73.055,29.583,171.078,43.984,31.628,31.363,100.841,94.746,26.397,159.798,-119.093
0.661800299999868,21.593,14.845,-107.956,76.778,23.802,35.346,-254.108,175.431,72.102,40.917,26.215,38.99,77.585,106.059,51.512,44.239,-46.928,115.619,61.711,18.795,162.197,34.206,25.448,29.795,87.42,89.016,20.735,152.466,-115.9
0.675029999999879,6.202,2.535,-105.799,57.746,9.434,18.404,-251.293,160.399,55.636,26.019,6.209,27.168,57.528,89.559,34.554,31.9,-61.226,101.158,51.403,9.554,148.203,24.95,15.689,23.617,69.402,78.681,10.98,137.969,-112.198
0.675094600000193,-4.563,8.68,-100.57,74.594,13.01,17.873,-218.254,154.091,51.482,27.017,8.252,27.141,58.495,87.932,37.081,33.917,-57.066,102.594,56.475,12.106,148.055,31.073,23.358,24.618,86.238,81.164,11.994,146.028,-95.692
0.69006679999984,12.86,20.967,-98.42,89.377,21.194,30.663,-185.248,157.523,66.799,37.749,22.076,35.823,75.343,100.14,45.753,42.08,-48.812,114.275,62.566,15.168,155.079,35.653,34.093,33.303,105.107,84.156,15.568,156.128,-83.301
0.704987200000232,26.167,17.872,-92.174,78.017,29.882,40.366,-205.042,162.488,74.929,47.957,25.64,41.935,78.853,106.187,54.417,46.136,-44.665,122.357,65.065,21.301,152.875,37.154,30.985,36.343,103.465,85.609,18.626,154.435,-93.464
0.705044599999837,15.383,8.632,-98.229,68.717,31.389,37.765,-237.113,170.523,72.805,49.958,24.078,39.844,74.164,99.933,57.949,47.627,-46.157,118.649,65,24.353,145.037,40.191,26.343,32.208,93.116,90.134,21.682,152.743,-109.764
0.721967100000256,8.707,12.722,-112.476,73.771,30.846,35.165,-246.609,179.574,75.294,47.859,25.59,37.242,76.651,95.223,55.329,49.117,-49.185,112.382,65.959,21.767,144.38,45.786,32.977,32.176,93.535,96.704,23.709,157.714,-111.704
0.722034599999915,18.945,25.005,-100.58,81.894,42.598,42.815,-213.575,174.783,76.756,52.422,32.737,44.377,85.796,106.911,64.495,54.19,-41.451,120.467,77.677,29.43,151.408,57.011,43.703,38.292,111.885,107.878,31.37,169.851,-102.37
0.735183000000234,22,29.591,-79.987,82.325,49.727,45.333,-180.574,159.752,74.63,56.981,37.315,52.018,89.296,124.222,72.628,60.284,-29.627,135.203,87.333,39.134,151.256,61.052,46.22,45.426,122.019,113.918,36.462,177.366,-89.973
0.735246799999914,13.781,28.537,-86.567,81.73,37.895,40.677,-181.418,162.153,81.215,55.899,34.204,49.404,86.133,125.123,62.309,60.224,-28.572,139.679,81.098,33.46,143.933,53.819,41.563,48.966,107.552,106.632,30.79,172.066,-81.686
0.75009480000017,10.181,27.996,-101.85,93.944,37.344,44.223,-213.512,180.947,88.818,59.429,34.17,47.305,87.584,115.264,57.124,56.577,-33.155,135.953,75.893,28.816,143.789,50.691,39.473,43.794,99.248,100.377,29.222,167.283,-87.24
0.750154500000008,14.781,20.795,-101.236,97.436,46.529,46.228,-218.934,178.716,80.02,58.345,36.185,48.795,87.497,113.099,62.702,54.984,-37.732,127.108,74.281,29.299,139.034,46.542,35.847,31.455,104.272,94.642,29.193,165.579,-100.472
0.764070000000174,19.89,13.09,-95.499,78.383,38.798,38.497,-185.927,162.144,75.33,52.139,31.538,44.135,82.286,119.646,60.59,54.929,-39.231,122.37,68.571,26.708,127.624,39.323,30.688,25.788,102.118,87.375,21.479,160.802,-102.933
0.764126399999896,17.821,18.712,-90.281,75.231,35.685,43.069,-192.914,170.691,88.062,60.284,35.092,46.14,89.888,127.211,60.529,59.997,-32.532,134.031,72.601,29.756,130.058,44.919,35.268,30.886,104.577,96.509,25.044,161.154,-93.097
0.781191800000215,13.704,22.28,-90.19,87.964,45.383,49.686,-224.996,183.84,86.437,62.273,38.644,50.193,94.409,125.034,65.08,61.986,-30.963,141.069,79.701,33.312,130.953,52.559,41.893,33.416,111.133,109.732,36.802,161.505,-93.516
0.781269099999918,15.228,15.597,-97.273,80.703,41.239,37.341,-257.046,173.923,66.883,42.231,25.285,41.946,77.409,113.126,59.891,49.629,-43.227,125.046,69.375,24.569,116.99,47.896,37.24,28.772,102.312,105.524,32.667,154.684,-106.742
0.794220100000075,17.262,23.266,-89.491,78.061,42.223,39.353,-255.252,178.359,75.525,47.311,27.821,44.978,79.38,116.087,60.344,49.067,-40.622,124.921,69.305,25.057,122.508,50.922,40.277,34.891,102.722,105.419,30.072,161.189,-97.926
0.794285800000125,18.269,36.563,-73.52,96.426,53.963,61.855,-222.21,201.235,105.676,77.49,55.458,65.937,107.478,136.976,75.14,68.998,-19.065,150.924,89.728,42.451,140.316,64.191,53.556,47.664,126.698,117.096,42.85,178.446,-73.238
0.809213200000158,21.324,25.256,-84.717,95.305,43.151,53.596,-189.2,184.64,97.886,70.24,49.767,61.261,103.784,137.863,74.041,67.392,-19.046,151.286,86.565,39.847,129.418,58.491,47.355,38.395,128.621,108.782,40.246,172.12,-84.435
0.809279999999944,15.668,6.788,-111.784,74.205,23.64,22.292,-221.286,152.18,65.512,37.895,19.491,37.121,72.942,115.184,55.011,42.221,-42.593,124.494,59.838,17.265,107.771,37.94,26.816,15.815,99.291,87.669,22.275,151.968,-116.626
0.824168999999984,4.381,12.416,-111.673,75.668,29.764,26.881,-253.34,163.298,68.008,39.906,23.058,38.621,73.381,113.532,49.321,41.667,-45.624,124.882,60.803,18.273,109.2,37.902,29.863,18.36,84.847,89.63,22.765,151.816,-107.8
0.824229599999853,10.525,32.384,-84.409,100.183,47.665,57.592,-220.299,195.923,98.679,69.068,47.113,58.562,100.973,136.472,68.739,62.63,-23.037,151.91,85.333,41.308,120.874,59.894,48.788,41.908,96.545,107.472,39.136,168.058,-76.442
0.840119200000117,27.42,39.011,-65.369,114.427,60.938,64.195,-187.291,197.776,104.215,78.22,52.189,64.139,109.581,144.533,85.064,66.666,-14.305,156.881,89.346,46.39,123.315,68.031,51.301,48.526,108.744,110.438,45.244,174.038,-79.951
0.840187400000104,22.782,28.214,-73.5,102.018,59.34,48.249,-186.591,175.037,87.205,63.797,44.452,55.365,95.639,131.068,74.221,53.791,-28.123,137.768,71.326,30.974,112.945,53.618,38.442,35.67,107.098,100.594,36.49,168.74,-96.265
0.855258900000081,10.464,23.575,-84.185,90.132,44.936,40.516,-218.68,171.788,84.556,55.024,36.723,48.65,88.371,122.228,57.24,46.053,-35.267,129.434,64.082,24.796,105.148,45.88,36.354,33.073,101.356,102.03,34.404,172.158,-93.095
0.855323300000237,19.163,41.994,-70.781,110.022,48.477,54.308,-248.175,197.744,99.329,68.802,44.884,58.335,98.529,128.765,66.917,52.667,-25.498,139.55,77.851,38.603,114.264,60.179,48.613,48.921,110.988,116.785,48.714,188.38,-80.707
0.869266700000026,28.877,53.735,-56.878,128.355,57.65,67.061,-215.139,209.841,107.939,81.541,61.233,70.572,110.213,138.371,80.17,63.885,-17.788,145.046,88.531,47.786,119.785,69.34,51.126,55.02,127.271,122.816,56.863,189.216,-71.404
0.884299499999997,17.578,35.239,-72.703,110.296,38.637,55.211,-182.137,191.189,100.146,70.701,51.95,61.793,104.98,137.208,66.77,58.698,-22.893,140.29,77.684,36.98,107.37,55.438,40.317,40.108,122.021,107.324,41.949,169.559,-72.87
0.884363000000121,8.851,16.76,-85.438,95.329,30.401,38.762,-214.23,184.85,90.824,57.31,34.479,49.435,92.067,131.435,53.895,43.27,-28.505,139.638,65.823,27.721,100.603,44.624,36.178,33.92,103.456,94.409,32.173,160.68,-83.556
0.899252100000012,19.601,25.965,-72.545,104.968,51.376,44.871,-229.897,195.936,92.783,59.814,40.08,52.972,90.951,132.328,61.014,42.202,-26.428,143.084,71.393,32.817,105.113,49.703,40.24,47.206,101.303,102.511,41.362,173.839,-82.447
0.903218100000231,31.364,33.624,-72.984,107.424,53.886,50.974,-196.879,187.543,94.739,62.316,44.651,54.968,97.008,133.22,65.051,45.746,-24.352,140.38,75.932,35.858,106.032,53.239,42.249,46.647,115.034,110.093,42.346,177.252,-82.365
0.915142500000002,27.747,18.733,-91.867,99.12,41.024,44.263,-228.958,177.621,90.546,60.204,38.459,49.79,94.349,132.575,61.912,40.065,-27.402,135.629,68.684,32.236,103.877,48.575,40.67,33.793,119.017,102.811,35.131,160.168,-101.75
0.915209400000094,13.886,12.054,-88.701,97.996,44.057,44.731,-261.004,186.665,89.431,62.193,40.982,49.74,90.668,136.541,62.875,40.025,-27.374,137.542,68.615,31.691,102.236,50.064,40.117,40.931,106.091,101.684,40.219,155.397,-113.432
0.92938920000006,11.311,27.924,-71.194,100.972,42.988,50.834,-227.956,190.577,91.391,64.18,42.99,54.814,96.726,141.015,67.423,44.596,-23.761,142.015,76.744,35.758,101.622,56.674,45.712,60.87,101.374,112.853,46.839,173.173,-96.412
0.929466999999931,24.107,34.556,-71.635,110.092,36.798,50.271,-211.846,189.874,93.861,66.678,40.385,58.345,102.264,142.411,72.479,43.014,-19.126,145.972,78.716,40.333,105.106,59.691,50.277,64.395,116.129,118.887,46.792,180.172,-74.286
0.944311300000209,25.62,27.349,-79.248,114.081,43.421,52.269,-229.565,193.783,96.841,68.148,45.468,59.311,98.576,143.293,72.406,41.947,-15.521,146.338,77.613,41.317,103.977,58.094,45.616,56.646,122.673,114.67,46.745,167.696,-70.626
0.944368700000268,17.91,25.273,-76.607,101.159,46.964,52.73,-197.06,186.929,93.158,61.42,45.423,56.178,93.866,140.076,64.649,41.392,-17.042,144.143,76.511,35.64,98.237,57.011,43.009,53.516,117.427,109.945,45.161,165.992,-75.166
0.959342900000138,26.601,32.42,-67.309,100.033,45.892,48.066,-212.232,186.23,90.503,59.309,41.279,56.122,96.334,138.911,64.584,38.277,-21.124,145.023,74.385,33.043,98.139,58.491,49.114,53.975,131.655,113.933,49.727,178.633,-66.382
0.963494900000114,37.333,37.51,-59.557,116.327,50.457,50.067,-244.296,201.925,95.023,65.91,46.873,58.627,98.799,143.383,70.668,39.776,-19.053,149.489,73.286,37.109,97.529,57.408,49.577,53.921,141.769,118.942,55.825,179.479,-61.704
0.976171799999975,26.025,31.325,-67.182,112.112,43.746,50.529,-232.78,196.6,92.367,61.233,44.264,55.495,92.553,139.654,60.351,36.662,-16.473,149.339,70.139,33.998,90.259,51.203,39.794,54.379,109.352,108.065,45.523,166.492,-87.77
0.989493800000219,19.339,18.486,-83.509,101.242,31.92,46.893,-228.962,186.67,88.176,56.561,32.949,52.878,88.362,135.415,47.995,29.965,-16.969,148.678,66.995,29.865,87.095,50.127,36.168,55.862,84.139,97.711,37.793,160.178,-96.392
0.989561800000047,35.201,23.078,-78.302,113.948,45.208,56.58,-221.048,206.463,103.969,72.898,42.65,59.997,100.569,149.625,61.267,39.669,-8.242,159.288,74.612,39.057,94.18,59.299,47.402,58.88,115.818,110.421,51.075,168.215,-63.508
0.98960390000002,40.801,34.326,-64.904,117.42,60.532,63.695,-188.039,207.793,113.087,77.436,54.903,64.548,107.641,157.672,73.501,46.802,-3.111,163.739,78.636,44.141,98.696,60.776,50.941,54.21,139.781,118.507,56.147,171.12,-60.371
1.00450200000023,21.805,19.947,-80.208,98.348,45.102,40.066,-179.142,175.31,88.895,52.256,36.917,54.237,87.553,137.022,58.058,28.824,-20.014,142.058,61.139,28.728,85.79,45.346,33.472,39.299,107.366,101.995,43.283,158.142,-92.586
1.01952819999997,14.611,7.632,-94.473,97.737,32.249,20.558,-211.238,165.913,71.9,39.396,20.487,43.937,71.584,121.003,47.754,16.5,-33.826,129.109,51.344,18.453,72.897,37.104,25.753,37.723,88.815,95.233,41.191,153.373,-92.493
1.01958920000016,30.478,25.555,-76.447,119.668,46.049,37.956,-243.302,195.974,90.272,55.238,33.786,52.09,84.832,134.202,63.588,29.291,-22.522,149.472,67.687,32.779,82.045,53.973,45.708,54.079,121.514,111.531,52.933,168.589,-59.613
1.02542330000006,34.546,33.726,-63.051,131.844,52.151,54.824,-221.542,208.073,102.477,63.892,41.949,61.26,95.506,145.339,69.16,35.922,-14.815,157.007,73.767,41.455,87.086,61.091,50.273,55.562,130.102,114.494,54.417,173.543,-65.701
1.03697890000012,19.142,16.786,-73.746,126.077,40.828,41.449,-206.976,191.983,89.054,53.07,28.587,51.977,83.627,133.411,52.697,22.566,-28.632,133.796,53.713,25.02,71.63,36.952,27.681,35.014,97.697,94.399,43.604,156.463,-83.566
1.04953810000006,16.562,16.77,-80.333,121.852,47.959,33.723,-181.666,184.619,86.916,48.918,26.509,48.339,80.47,127.642,52.644,18.445,-33.727,129.052,48.536,19.872,73.095,31.28,26.629,33.954,92.476,90.206,45.609,156.307,-72.212
1.04961540000022,33.963,40.831,-71.543,133.001,65.33,50.083,-160.48,195.193,100.149,62.189,45.951,64.172,96.783,145.445,74.621,34.308,-16.787,152.489,67.955,41.369,94.027,59.425,50.68,60.048,111.851,112.658,64.007,181.254,-56.258
1.06454489999987,35.466,47.45,-62.762,141.065,58.605,57.718,-164.93,200.121,102.61,67.762,52.052,67.694,101.809,156.058,77.108,41.959,-8.061,162.07,75.572,45.938,90.347,65.513,54.728,69.722,114.301,122.279,68.041,184.659,-51.591
1.0646056999999,16.988,31.521,-62.7,130.166,45.226,46.389,-170.913,188.65,92.774,56.936,39.705,52.769,90.949,144.631,59.1,30.134,-17.786,154.223,64.738,32.06,72.838,49.566,42.89,52.746,111.625,109.861,54.653,161.42,-64.347
1.07954860000018,20.045,25.855,-64.686,126.449,51.841,43.781,-189.697,185.9,90.632,55.855,36.079,52.716,89.321,139.876,60.578,24.98,-18.281,154.069,62.624,34.077,76.351,55.152,43.872,47.058,106.902,106.165,56.648,156.136,-79.139
1.07960980000007,41.029,39.149,-58.474,143.741,59.986,54.496,-220.246,201.595,97.201,65.02,44.24,64.447,96.404,150.494,74.862,33.665,-6.48,161.087,72.295,41.728,81.398,66.88,49.464,61.355,102.697,113.744,67.35,173.91,-58.568
1.09504539999989,37.914,49.356,-49.706,157.43,57.877,60.077,-213.366,209.078,99.153,64.955,45.733,64.382,98.869,153.93,69.664,36.705,-3.399,165.537,76.321,40.149,77.218,62.715,51.463,67.442,120.013,116.704,65.745,187.569,-27.259
1.09511019999991,36.34,51.356,-49.144,161.883,61.917,63.091,-180.365,205.283,99.054,66.94,49.785,64.83,101.844,150.19,68.057,39.23,-3.396,171.007,79.831,48.306,82.776,67.775,60.634,62.251,139.361,119.661,70.29,197.115,-35.428
1.10961760000009,56.796,55.915,-47.558,163.771,71.589,67.638,-147.397,205.59,105.615,78.143,59.982,74.499,106.866,154.138,83.871,46.363,1.731,172.885,86.924,56.455,85.767,76.929,64.671,66.287,130.512,125.689,79.442,198.967,-53.324
1.1096805000002,48.542,53.298,-45.973,155.922,69.468,63.472,-144.688,202.311,109.096,74.991,56.848,71.351,103.685,153.472,80.713,40.681,-4.419,160.929,81.714,46.152,72.361,65.581,53.336,70.319,110.914,120.44,70.141,182.886,-48.147
1.12465470000006,17.755,46.584,-56.174,151.156,63.251,57.261,-176.818,198.522,103.351,66.207,44.496,60.521,97.946,143.584,65.775,33.468,-16.71,149.497,68.312,37.397,64.092,56.294,44.573,60.515,104.655,112.635,62.386,176.556,-50.661
1.12471910000022,22.348,51.148,-59.191,161.763,67.286,64.888,-207.38,209.595,106.322,74.85,49.062,65.584,103.483,143.441,73.906,41.631,-11.57,157.545,69.268,41.97,68.127,64.947,47.603,56.869,109.674,118.67,72.057,189.699,-63.93
1.13958099999991,40.769,54.683,-47.861,165.7,71.83,70.459,-180.02,214.508,113.388,78.874,59.259,72.69,109.015,153.544,83.054,45.176,-1.825,168.658,78.933,46.026,72.157,72.567,55.752,70.644,116.736,125.724,76.084,186.948,-52.595
1.13965300000018,34.58,49.506,-45.252,155.8,65.61,60.655,-166.52,201.486,107.127,70.086,54.589,69.544,102.246,156.464,75.286,39.495,-3.872,167.977,82.44,50.079,72.597,75.056,62.356,73.135,124.816,123.549,73.958,177.027,-22.317
1.15562409999984,29.935,49.456,-48.793,148.472,56.836,54.446,-188.383,199.235,101.384,67.966,49.411,68.962,98.558,152.721,72.137,43.042,-5.405,164.223,81.845,52.59,68.426,76.518,63.318,64.353,127.765,122.401,74.909,182.486,-13.073
1.15569230000028,36.053,44.796,-48.232,144.737,54.217,54.904,-201.515,204.159,106.406,68.411,52.436,70.43,101.533,153.593,73.602,47.097,-4.887,164.059,77.153,45.878,61.698,70.806,58.132,65.313,113.805,120.229,72.273,178.717,-35.601
1.16979670000001,36.529,39.116,-57.917,149.203,55.7,55.361,-207.973,202.418,111.422,70.392,54.945,67.286,102.456,155.489,74.553,43.976,-2.833,166.456,75.539,45.32,61.124,67.149,59.611,70.883,103.958,116.523,70.151,169.829,-55.033
1.16986350000025,33.931,52.909,-64.519,161.862,57.693,65.552,-202.13,208.875,115.922,81.592,56.939,70.805,106.964,154.821,82.163,46.494,3.317,171.413,83.66,52.447,62.599,74.254,64.674,73.374,122.809,122.554,75.204,185.541,-48.831
1.18463789999987,29.798,60.541,-53.184,162.725,60.197,70.61,-172.726,212.765,117.855,79.973,55.345,73.808,107.882,158.252,83.105,47.984,1.777,169.705,79.478,47.783,58.438,71.618,58.462,74.325,128.322,123.968,76.153,196.626,-42.122
1.1846974,30.281,49.722,-49.545,157.951,65.26,59.268,-157.696,200.769,109.54,67.086,49.142,68.611,98.553,161.68,75.338,43.326,-6.422,163.387,65.566,40.563,57.355,62.325,51.231,72.201,103.603,117.184,75.053,183.622,-43.617
1.19969230000015,43.058,53.258,-53.594,167.015,66.732,55.623,-151.391,198.519,103.795,71.629,51.142,71.616,95.38,155.883,76.287,44.307,-2.317,166.81,71.648,47.695,60.884,69.947,59.377,74.178,110.671,123.727,80.101,181.901,-34.351
1.19975030000023,45.577,60.889,-47.905,170.434,60.005,63.252,-149.703,205.493,109.327,77.193,55.702,75.643,100.408,152.653,75.186,45.8,2.296,171.766,84.897,53.283,59.799,81.148,67.514,79.739,139.25,132.825,81.045,187.867,-32.268
1.2167371999999,36.31,54.169,-44.783,163.603,61.994,66.263,-181.828,208.361,114.853,73.53,56.159,69.932,100.308,159.673,72.549,42.168,-0.78,169.033,81.738,51.18,58.714,77.993,65.398,78.635,129.377,128.594,79.939,186.142,-39.92
1.21680800000013,42.421,58.725,-47.812,170.612,74.74,71.832,-201.627,216.35,116.787,83.702,59.176,72.423,104.306,165.661,83.235,45.199,1.782,169.888,81.656,53.691,58.655,76.378,66.869,82.143,115.927,130.002,81.909,191.079,-27.585
1.23021759999983,39.817,61.228,-48.789,169.929,65.956,66.637,-168.637,209.474,112.06,81.57,55.531,74.4,105.738,158.323,83.664,43.617,0.756,170.231,82.087,49.026,47.838,74.252,63.728,83.085,119.91,126.798,75.167,188.326,-27.045
1.23028299999987,16.211,42.211,-56.425,147.73,47.959,43.004,-143.878,179.55,98.628,55.873,38.569,59.469,91.8,144.845,63.088,27.18,-10.515,158.278,64.074,33.608,34.983,58.297,47.783,65.071,101.859,106.179,63.309,164.06,-58.781
1.24480410000024,18.244,37.558,-65.078,146.558,57.645,39.887,-176.009,176.297,95.968,52.231,37.506,56.336,86.073,145.212,60.464,18.956,-9.48,154.533,53.764,31.013,37.509,50.041,41.588,58.859,89.462,101.462,65.295,157.236,-57.185
1.25977830000011,35.644,47.255,-66.549,159.731,68.346,54.192,-185.567,197.637,105.093,66.523,48.227,69.599,95.209,156.338,72.699,29.183,-1.786,163.6,60.882,38.666,44.644,56.139,46.669,69.558,106.791,113.656,72.402,166.3,-30.488
1.25983750000023,25.875,37.474,-75.192,149.325,55.47,50.552,-170.525,196.927,107.55,64.919,46.13,70.042,97.163,157.718,65.966,34.277,-4.858,165.486,64.92,38.628,41.526,54.546,45.086,62.316,108.733,108.932,68.743,157.424,-50.95
1.27480560000004,25.337,38.973,-75.117,150.713,52.853,55.624,-202.63,200.829,112.053,72.539,51.206,68.435,102.189,151.925,60.265,36.804,-0.755,167.882,69.978,44.224,43.533,56.541,46.577,60.205,104.014,108.823,70.211,157.779,-73.44
1.27873270000009,53.488,64.549,-48.914,182.837,69.194,83.233,-208.062,227.268,127.822,94.496,68.061,80.15,117.456,162.532,78.135,46.501,11.541,180.522,84.253,58.012,54.248,73.903,60.363,86.272,126.964,129.718,84.998,182.725,-42.116
1.29066990000001,60.095,67.559,-37.594,192.901,75.785,85.199,-175.067,223.967,128.207,90.303,66.969,80.582,114.264,173.128,87.791,47.479,8.456,179.829,87.754,58.979,52.657,79.976,64.401,95.92,132.984,135.736,89.524,185.616,-20.557
1.29073280000011,39.03,43.413,-66.246,167.605,65.975,57.449,-142.104,191.468,108.099,67.671,51.533,69.23,95.707,155.536,72.334,33.087,-7.434,161.718,73.834,46.625,39.284,67.089,52.042,77.381,105.187,116.645,76.114,158.79,-43.591
1.30490770000006,32.331,30.562,-85.135,150.019,57.2,45.096,-148.622,180.005,100.818,64.017,47.383,67.624,95.099,133.864,63.552,26.906,-18.185,151.31,63.002,38.381,32.073,56.776,43.793,67.057,88.688,106.283,64.767,145.824,-58.916
1.30497150000019,42.545,37.703,-70.193,157.041,68.926,58.884,-179.211,196.732,115.062,79.322,57.069,74.729,108.324,144.488,79.37,37.126,-12.532,162.43,69.087,43.466,36.652,62.866,50.409,73.138,96.284,116.422,72.387,155.412,-47.586
1.31990730000007,47.625,48.936,-58.34,168.667,84.226,72.657,-204.648,214.466,125.193,90.514,64.697,79.777,115.9,168.422,91.074,45.285,2.85,176.1,78.752,53.669,41.226,75.099,59.58,79.725,113.094,127.064,82.049,162.941,-38.83
1.31997580000007,41.43,47.863,-58.281,166.449,71.846,69.511,-199.32,216.3,121.994,84.276,60.021,78.673,113.223,169.791,78.688,39.605,4.896,172.85,75.599,51.053,35.037,72.462,58.496,79.133,122.714,123.351,73.257,161.753,-48.525
1.33492139999998,39.852,41.667,-51.051,159.623,61.016,63.806,-196.047,210.961,119.31,77.531,54.326,73.471,108.499,162.961,67.338,35.979,-1.768,169.603,70.4,44.342,28.854,64.193,56.9,75.98,117.469,117.08,65.499,167.227,-57.185
1.33898429999999,53.644,49.823,-51.512,168.172,74.787,71.939,-174.846,211.262,123.29,83.089,59.907,74.422,109.927,169.97,75.468,42.603,3.356,179.68,78.015,53.007,34.973,70.276,61.454,83.076,115.814,124.135,76.192,178.843,-44.833
1.35098689999995,56.664,56.433,-65.805,177.738,77.274,71.867,-141.884,205.416,120.605,81.982,60.871,77.934,109.817,171.337,81.54,45.634,6.427,178.475,80.498,58.59,34.938,75.842,61.393,88.116,120.821,130.671,80.727,173.541,-31.98
1.35104510000019,38.165,45.106,-68.813,170.388,71.049,60.012,-164.796,195.476,112.8,72.678,53.638,72.221,101.51,157.334,76.848,38.416,-2.801,166.514,73.245,47.26,23.632,69.106,55.184,81.368,111.991,125.417,70.912,154.924,-29.387
1.36500070000011,29.93,39.937,-61.06,160.484,72.003,60.976,-196.906,201.941,111.662,72.093,49.999,66.001,94.237,151.541,72.672,33.255,-5.872,169.933,73.684,42.602,20.022,68.524,56.665,79.237,103.17,122.218,70.841,155.282,-22.697
1.36506490000011,37.072,44.508,-64.073,158.274,56.049,60.916,-174.168,205.325,107.964,68.947,44.313,65.422,90.044,154.976,64.915,31.172,-2.792,173.35,72.586,43.584,16.928,67.943,56.609,80.183,106.141,120.047,71.795,166.909,-33.945
1.38001149999991,34.473,42.414,-71.693,158.628,48.309,53.17,-141.206,192.312,102.733,63.755,44.269,67.406,91.491,151.234,62.801,30.116,-1.253,166.516,65.341,38.93,11.276,59.166,48.867,71.393,108.084,113.779,65.576,163.156,-62.601
1.38007760000028,31.365,43.909,-65.986,166.154,79.511,63.875,-173.34,198.78,113.901,76.499,60.618,77.585,106.256,157.231,79.132,39.82,6.946,174.547,69.374,47.088,20.999,61.669,51.892,71.834,110.025,117.764,71.146,157.358,-50.755
1.39496700000018,47.215,53.087,-51.576,175.722,94.288,77.644,-205.442,222.147,128.644,92.304,73.365,90.315,121.007,176.541,94.422,56.174,16.672,187.692,82.113,63.947,32.249,75.439,65.673,90.718,114.526,130.454,83.37,165.397,-17.917
1.39903690000028,61.513,57.644,-43.839,176.571,74.726,74.492,-172.449,224.999,129.028,92.212,73.804,91.249,123.447,187.636,93.815,62.778,22.803,189.041,89.203,67.981,27.093,86.122,72.267,102.922,119.534,136.471,86.873,170.867,-14.313
1.4107598999999,55.303,63.222,-49.431,177.931,73.115,73.905,-139.489,212.479,129.411,90.07,75.78,89.621,123.324,187.448,91.16,63.228,27.391,192.438,92.7,69.45,25.017,89.622,73.22,102.307,133.759,140.433,90.372,169.16,-26.081
1.41082450000022,42.44,65.208,-60.14,178.265,87.899,72.295,-129.615,199.971,127.745,87.419,72.118,88.507,120.639,181.113,89.02,61.115,24.29,192.758,89.533,69.381,22.43,81.848,69.56,97.594,135.163,139.78,88.745,167.453,-31.691
1.42510140000013,41.373,51.823,-66.227,164.767,89.348,64.025,-161.761,196.697,117.371,82.208,63.337,79.709,112.322,168.124,85.344,53.369,16.069,184.369,80.222,59.578,10.113,71.52,61.806,89.3,118.121,127.857,77.897,158.064,-47.028
1.42516699999987,51.578,50.234,-60.014,161.016,90.795,73.695,-193.875,214.431,122.377,90.835,73.007,81.166,113.746,171.542,92.944,57.414,19.639,190.332,86.802,62.592,11.639,78.109,63.793,87.161,122.614,124.656,80.381,153.296,-45.956
1.44013020000011,55.625,66.065,-47.146,171.101,94.803,85.917,-160.893,224.975,136.087,102.015,83.693,93.381,125.928,191.35,102.585,72.214,30.378,202.949,99.523,75.337,22.386,87.252,72.951,94.246,134.787,133.752,89.522,161.339,-24.394
1.45508999999993,44.299,57.802,-54.271,164.27,82.413,67.388,-136.654,200.672,124.168,89.105,67.215,85.09,118.117,183.474,90.699,61.896,23.175,191.988,86.616,62.966,7.507,73.332,63.657,90.566,109.549,126.446,79.699,151.956,-30.005
1.45515160000014,35.545,35.715,-77.783,148.224,65.936,46.316,-168.793,178.954,105.088,66.475,51.266,68.099,96.482,158.7,75.239,41.854,6.758,175.914,68.598,45.997,-11.456,59.427,49.248,78.692,88.435,113,66.811,125.164,-50.467
1.47165110000014,43.194,46.438,-70.02,156.273,71.506,59.59,-176.821,196.706,117.791,75.63,65.047,78.277,103.558,168.788,83.873,54.62,18.022,189.058,81.337,59.783,-4.785,72.687,61.495,85.273,111.912,122.109,75.454,130.162,-44.269
1.47171750000007,48.786,64.322,-39.724,174.048,87.828,83.608,-173.058,224.174,139.19,104.244,83.938,95.617,130.094,196.796,95.572,73.008,41.058,210.899,99.187,75.093,0.856,86.959,79.876,95.434,133.83,135.306,87.674,152.574,-33.466
1.48512789999995,46.176,51.45,-45.32,168.75,87.228,83.013,-186.205,221.9,137.514,105.164,79.243,89.886,127.915,194.037,87.28,64.738,34.869,206.589,91.915,67.846,-9.904,79.7,73.136,87.142,128.573,129.536,81.951,143.712,-42.142
1.48519160000023,50.228,40.64,-72.427,159.36,81.505,67.048,-153.231,200.161,124.568,85.591,67.893,82.112,110.881,180.523,86.168,59.55,24.076,195.624,84.651,59.581,-12.968,75.522,62.817,82.444,127.42,125.308,76.746,127.687,-47.223
1.50011470000027,53.252,50.846,-70.818,168.935,85.01,66.469,-120.29,194.326,120.345,85.505,71.923,89.714,116.918,188.028,97.865,71.786,37.884,205.675,95.837,66.693,-6.807,85.18,71.463,91.071,135.489,133.892,85.378,134.219,-32.831
1.50018110000019,42.952,52.332,-56.402,176.45,78.777,76.648,-152.445,208.476,128.422,97.203,78.512,93.723,126.535,192.963,89.57,75.3,40.408,210.592,97.278,73.287,-8.849,84.583,73.953,90.468,134.329,132.733,85.805,131.523,-16.917
1.51507390000006,39.323,44.595,-57.883,165.515,66.916,72.473,-184.568,213.391,131.88,93.52,72.798,87.482,118.724,181.499,77.185,66.004,23.974,193.988,82.836,64.504,-18.062,74.252,62.609,82.692,121.899,121.33,75.985,117.559,-24.072
1.51513750000004,50.042,46.6,-61.923,159.202,75.046,64.716,-151.596,202.419,124.063,86.254,70.163,84.833,115.019,174.145,87.866,61.839,22.925,188.158,79.68,58.292,-24.192,75.202,61.009,82.61,115.63,124.794,77.446,122.565,-37.88
1.5315986999999,54.603,51.676,-53.152,169.289,85.217,70.287,-118.656,197.606,122.402,91.803,79.827,89.359,122.588,182.68,95.463,70.487,37.247,204.364,93.945,68.992,-19.045,85.373,73.244,90.212,125.76,137.99,86.59,138.836,-29.133
1.53166499999998,54.549,56.235,-41.828,176.804,80.008,79.438,-136.469,204.068,136.112,102.47,87.432,96.954,130.15,194.281,91.781,80.662,44.382,213.381,103.072,79.682,-10.316,93.485,82.904,101.392,136.905,140.926,88.553,147.407,-20.907
1.54512310000018,58.593,59.765,-47.422,174.066,77.367,80.383,-168.607,205.401,138.025,98.781,81.709,96.345,128.483,192.037,95.788,74.434,39.214,203.946,93.235,71.405,-14.917,88.268,77.698,96.68,128.571,133.1,85.391,143.673,-40.866
1.54518659999985,51.874,50.484,-61.207,168.769,73.703,68.52,-171,193.413,121.493,82.801,68.307,83.953,114.523,176.988,91.594,58.99,27.392,194.521,76.748,57.501,-28.734,71.786,61.739,73.53,116.66,122.208,78.645,127.136,-48.51
1.56010700000024,41.576,45.31,-56.535,171.162,65.945,62.816,-157.509,186.559,119.835,81.693,68.239,82.844,110.822,175.786,80.744,61.493,30.951,202.011,80.77,62.567,-27.681,74.276,60.14,76.018,123.715,122.086,75.493,120.861,-23.358
1.56018249999988,52.805,60.634,-45.72,180.212,73.564,82.221,-173.746,201.742,140.207,104.153,87.126,101.717,130.691,195.078,93.983,80.387,50.9,219.74,104.768,82.484,-15.358,97.256,81.597,102.582,137.424,140.919,88.225,139.695,-4.892
1.57507880000003,66.585,68.771,-49.772,181.057,83.736,96.483,-156.153,213.835,148.776,112.758,95.236,106.738,140.807,200.006,108.234,87.479,52.386,222.594,110.81,85.988,-16.879,99.207,87.151,102.991,132.676,148.463,96.846,148.265,-11.547
1.57514149999997,57.296,52.308,-56.383,166.019,74.943,76.919,-123.21,193.129,132.746,92.665,76.698,90.238,121.198,176.753,92.244,72.022,31.329,201.367,88.158,65.41,-34.793,75.542,64.01,79.322,115.125,125.773,81.38,127.112,-28.954
1.5919100000001,45.456,37.911,-63.499,152.533,68.208,57.887,-143.579,172.444,118.269,77.204,61.252,80.414,104.683,160.694,74.733,56.068,19.514,183.234,71.676,52.537,-46.029,64.196,51.65,72.071,107.837,108.741,67.466,112.128,-42.757
1.59197489999997,56.681,49.144,-61.898,162.626,79.411,68.587,-175.711,188.665,128.909,85.836,73.486,88.018,112.775,167.706,84.905,61.135,24.618,192.273,83.387,63.755,-38.811,76.939,66.968,85.318,118.488,126.051,77.645,126.36,-29.907
1.60544250000021,72.506,71.124,-29.049,188.591,94.188,85.937,-157.092,212.555,147.735,100.607,88.782,98.688,127.519,181.883,106.849,78.493,36.376,210.524,103.284,81.11,-28.526,97.355,83.807,103.676,135.788,150.003,92.424,147.751,2.911
1.60550469999998,68.335,76.688,3.768,199.161,91.533,88.413,-135.93,210.806,145.538,103.58,85.107,99.102,126.88,185.287,105.717,79.439,39.926,207.751,102.156,81.541,-33.108,99.307,80.65,105.109,135.652,148.316,91.82,153.239,20.839
1.62007110000013,56.996,66.365,7.351,191.79,74.023,76.541,-153.213,195.738,130.536,93.742,73.238,88.757,115.482,176.392,82.558,65.015,31.177,192.687,84.123,66.09,-44.346,79.74,67.249,86.561,119.123,130.237,81.994,152.061,33.113
1.63508450000018,61.55,71.934,38.082,197.233,72.924,70.317,-162.281,189.907,129.381,90.063,71.628,87.643,117.928,175.704,82.475,66.487,32.683,197.105,83.527,63.975,-41.74,76.074,68.206,83.913,115.417,129.595,81.912,164.716,65.868
1.63514759999998,77.882,92.355,70.831,218.041,91.294,82.03,-150.848,199.451,141.035,99.706,83.34,100.363,130.618,188.848,109.545,83.326,48.532,215.863,104.448,83.891,-32.477,96.49,84.02,109.445,132.72,148.933,94.638,188.63,98.59
1.65003090000027,80.878,100.972,103.548,234.216,98.888,91.169,-133.279,211.034,146.017,106.779,91.966,105.386,132.536,192.245,115.071,88.366,51.557,220.258,109.467,90.979,-34.493,102.029,88.034,122.655,146.42,159.03,103.765,200.737,131.279
1.65382330000011,67.477,101.895,123.937,246.79,100.326,88.517,-128.022,208.774,140.748,104.623,88.287,98.621,129.33,182.319,102.148,82.642,41.772,211.841,97.574,79.617,-42.656,91.681,81.286,113.823,148.835,153.236,100.587,195.925,158.3
1.66529290000017,61.774,107.941,144.818,254.74,108.422,93.551,-154.534,211.127,142.656,105.031,87.175,95.448,130.738,180.6,106.144,84.609,40.193,209.58,99.013,79.538,-42.613,93.638,82.742,108.074,149.711,150.521,95.876,194.192,164.289
1.66535950000025,70.934,110.907,138.013,251.411,106.777,101.654,-182.557,226.797,151.735,109.024,91.698,97.914,131.119,185.03,113.211,91.184,45.276,212.444,106.087,85.606,-41.034,99.692,87.782,117.7,147.512,156.006,96.804,203.732,142.608
1.68015680000008,69.326,111.308,115.846,245.525,102.059,97.454,-165.98,226.058,150.046,108.403,89.557,98.841,129.963,184.333,106.95,92.63,50.354,213.256,102.907,83.983,-43.042,100.105,88.719,131.927,140.704,163.534,103.88,208.651,140.928
1.68022250000013,61.572,111.709,107.533,243.742,106.568,93.258,-133.026,206.877,142.212,105.733,87.418,98.23,129.833,185.173,105.818,91.513,53.377,218.678,105.365,85.436,-44.023,103.079,92.216,134.356,143.638,164.396,108.899,202.807,148.984
1.69514299999992,73.806,109.548,103.839,238.888,102.875,94.702,-100.106,202.059,145.143,107.676,93.479,98.644,131.241,192.673,112.372,95.007,55.373,226.657,111.92,88.937,-45.004,105.025,94.686,129.099,154.765,159.62,104.692,197.482,124.757
1.69520749999992,80.905,107.39,95.538,235.063,90.989,96.144,-132.281,213.128,153.195,110.642,95.434,102.131,136.745,197.603,110.211,100.035,58.904,226.942,107.197,85.774,-55.205,102.358,90.492,129.482,151.536,159.973,99.976,195.235,98.505
1.71007240000017,60.844,100.622,67.778,229.192,87.824,92.462,-164.424,217.013,147.406,104.384,86.117,99.98,133.022,190.745,100.879,97.374,56.283,219.031,99.405,82.615,-65.396,97.133,82.717,125.254,133.454,156.227,98.339,186.843,87.135
1.71408030000021,53.098,86.177,35.435,216.155,87.737,79.562,-151.964,203.988,134.451,93.521,77.322,91.683,120.593,179.796,97.192,91.129,45.981,213.176,96.232,81.507,-66.355,90.376,78.024,117.957,129.734,145.312,92.606,175.385,58.359
1.72657500000014,69.439,85.066,17.469,212.353,97.383,74.872,-119.025,191.489,135.341,93.94,80.831,94.153,122.522,183.715,108.878,97.185,47.472,217.574,102.284,86.037,-63.215,95.921,86.143,129.11,144.974,151.315,91.488,172.136,41.907
1.72664269999996,74.493,93.178,28.21,212.141,108.556,87.604,-94.827,195.396,143.915,104.092,89.459,105.33,132.646,193.265,116.966,108.871,55.109,222.479,110.891,92.611,-60.078,107.608,97.327,139.739,153.538,161.922,97.545,165.304,55.697
1.74009250000017,63.148,82.839,7.177,196.047,92.566,88.541,-127.008,199.299,139.161,101.939,86.808,100.101,125.341,184.363,101.992,105.176,47.881,214.06,101.558,85.346,-64.116,97.766,89.033,123.205,142.626,146.391,91.812,145.671,41.297
1.74015439999994,56.937,68.924,-25.106,180.994,80.69,78.207,-159.156,192.952,131.849,92.615,78.012,87.706,115.481,169.834,90.619,92.776,42.711,207.698,86.087,72.965,-76.348,83.324,74.599,110.787,130.188,130.875,80.449,138.865,8.98
1.75510340000028,57.392,74.49,-26.617,184.399,100.59,83.764,-178.977,198.907,139.402,98.158,81.52,91.716,122.538,172.738,100.775,95.757,49.328,214.151,91.124,75.966,-83.444,89.388,79.136,120.922,129.545,139.966,82.93,151.022,-1.787
1.75516629999993,55.285,75.953,-26.591,182.678,98.44,85.729,-160.355,208.954,143.873,101.646,85.025,97.26,126.514,178.713,101.186,103.858,47.229,212.399,96.669,76.915,-84.385,93.91,87.253,125.924,133.514,144.436,85.921,150.358,-9.982
1.77005270000018,46.521,62.044,-49.618,168.663,70.165,69.762,-144.825,199.011,134.508,88.737,74.694,88.454,116.654,173.411,85.716,98.119,40.522,199.379,84.789,67.104,-93.01,84.594,79.482,116.064,128.77,132.509,80.712,132.789,-36.612
1.77383589999999,48.011,53.785,-66.987,161.834,73.168,59.446,-165.173,186.005,128.738,80.451,66.422,82.73,109.877,167.602,85.118,91.361,41.506,196.106,75.995,62.426,-103.163,77.337,70.693,111.338,115.834,123.667,78.07,121.898,-46.822
1.78538650000019,58.209,53.219,-75.629,160.648,84.878,54.776,-170.131,182.745,127.072,78.834,66.356,85.721,107.718,165.385,96.304,94.343,38.391,196.935,76.431,62.876,-104.596,73.162,71.134,113.788,103.935,123.544,78.504,115.116,-38.578
1.7854483000001,54.053,47.531,-85.287,153.827,73.01,49.598,-152.542,174.365,118.236,72.095,63.216,84.098,102.487,161.121,93.133,93.224,33.229,192.639,75.33,61.788,-106.029,72.064,70.551,110.6,106.392,124.957,78.938,106.804,-34.441
1.80018130000008,44.265,46.459,-83.153,152.136,73.449,57.745,-151.877,174.703,119.655,75.097,64.689,83.502,103.409,164.034,85.356,93.643,42.93,199.107,79.353,65.825,-105.923,79.676,70.48,106.391,127.29,127.393,82.445,110.796,-35.431
1.80024749999984,54.467,55.634,-77.434,167.353,85.159,73.057,-147.115,191.434,133.88,90.903,75.895,91.103,116.114,174.628,91.93,104.82,55.182,213.764,87.471,72.931,-104.792,86.257,77.07,111.408,136.385,129.828,85.436,121.956,-43.081
1.81414020000011,60.048,55.066,-83.505,176.408,75.852,76.57,-147.48,194.317,136.307,95.423,77.356,92.549,122.658,178.04,98.498,108.814,55.639,218.674,89.433,73.883,-111.86,84.121,76.481,111.809,114.219,127.649,82.789,114.662,-54.308
1.82916860000023,45.643,38.104,-91.618,161.887,66.555,67.272,-171.923,181.827,126.437,84.569,69.082,85.796,113.826,174.276,86.617,99.484,53.535,214.869,82.683,68.686,-123.531,77.377,64.621,101.963,95.662,118.812,73.485,92.518,-52.205
1.82922689999987,44.06,27.308,-97.674,148.405,69.562,48.762,-162.017,172.424,119.138,71.165,61.841,81.1,103.978,174.101,74.235,93.749,51.944,207.994,73.379,59.396,-133.654,67.566,60.97,99.812,106.325,111.008,66.752,84.228,-44.98
1.84513599999991,58.873,32.916,-102.699,150.818,68.98,39.491,-141.875,166.616,113.384,64.946,56.144,81.019,101.313,172.39,79.796,93.143,47.281,202.663,70.232,54.213,-142.229,62.887,62.959,104.835,113.903,109.36,69.246,91.829,-50.058
1.84520320000001,60.864,44.666,-97.986,159.889,74.547,55.846,-174.009,173.622,116.344,75.639,64.284,85.548,105.822,171.193,89.45,94.586,49.283,207.071,77.846,64.405,-140.038,72.558,64.432,108.316,103.543,114.886,75.325,98.397,-53.594
1.86035990000028,51.581,53.331,-88.666,167.926,87.28,74.233,-175.884,189.33,128.523,92.982,81.126,92.635,115.962,179.731,90.897,103.713,56.919,218.135,88.014,78.173,-133.238,86.83,75.127,116.405,106.001,124.505,80.885,101.885,-43.295
1.86042469999984,48.456,48.154,-95.75,164.171,80.533,69.035,-142.92,182.993,127.883,90.328,75.41,92.542,117.896,184.162,88.245,108.22,55.325,217.404,87.926,72.972,-140.789,85.207,76.588,114.239,121.776,123.356,81.829,96.147,-48.374
1.87428580000005,44.776,23.985,-123.216,145.404,57.325,49.435,-122.175,158.042,114.307,71.194,52.723,85.185,106.899,174.056,78.85,102.364,41.896,201.089,74.431,54.901,-161.505,68.132,57.478,86.861,136.886,103.131,71.93,72.907,-80.036
1.88936130000002,41.657,15.251,-126.167,139.111,58.292,41.701,-154.328,158.396,108.045,63.438,53.695,82.538,98.083,159.025,72.623,95.602,38.268,191.154,68.721,55.87,-162.88,61.404,50.761,77.04,122.917,90.732,62.124,65.149,-87.128
1.88942589999988,41.103,21.384,-114.77,137.947,63.869,38.073,-140.854,161.312,108.962,61.838,54.666,83.48,99.522,164.501,73.063,98.068,44.377,199.16,74.8,59.913,-162.717,66.978,64.542,93.357,116.647,98.838,67.185,70.207,-71.159
1.90430389999983,40.038,16.752,-122.852,128.588,56.633,33.936,-124.832,150.392,105.779,56.141,44.365,81.348,96.861,173.046,70.94,96.945,44.845,203.571,74.725,54.218,-171.776,66.911,62.941,96.85,115.505,102.838,68.655,65.014,-76.211
1.90841300000011,38.973,12.124,-138.611,129.996,54.527,33.903,-134.441,149.217,106.186,57.622,46.37,80.754,94.715,172.873,68.82,94.799,42.751,197.22,71.576,54.163,-175.703,67.868,59.292,92.142,120.513,100.686,66.025,60.85,-84.844
1.92026799999985,46.619,33.117,-116.955,152.92,68.817,47.189,-141.991,166.486,117.35,70.884,61.181,88.358,106.403,177.311,79.51,102.389,51.418,198.047,81.751,65.38,-166.305,81.12,75.114,104.858,135.249,113.393,79.279,84.356,-57.607
1.93445060000022,55.281,50.502,-89.174,165.574,75.408,61.486,-161.317,174.517,124.918,75.936,65.218,89.807,110.395,174.06,83.529,107.922,52.391,200.923,83.206,65.827,-164.09,82.576,78.113,107.314,134.602,120.452,87.397,102.715,-39.619
1.93452470000011,53.177,35.595,-110.089,151.577,63.55,50.154,-172.426,161.022,109.423,59.466,50.296,75.372,92.354,152.881,69.101,95.006,34.408,186.378,60.581,48.855,-179.295,63.026,57.542,86.202,111.926,99.839,72.452,84.169,-64.682
1.93456629999992,51.074,22.751,-136.107,138.617,57.338,33.197,-157.909,149.59,92.92,45.062,36.925,66.588,78.942,144.531,61.859,81.079,26.689,174.92,46.689,40.609,-191.411,51.692,48.263,78.944,104.129,86.931,63.671,62.568,-73.327
1.94935710000027,47.437,32.975,-119.577,144.626,64.453,38.8,-150.579,155.076,98.463,52.702,41.499,75.23,84.498,155.145,67.945,85.608,35.371,180.893,53.302,47.741,-190.195,57.276,53.338,87.062,116.32,95.041,70.267,68.653,-53.273
1.94943610000018,38.68,35.503,-106.649,146.531,63.364,41.322,-135.059,153.897,104.512,58.285,47.605,79.253,89.537,152.941,65.316,90.646,33.799,180.712,55.81,46.668,-192.054,58.243,49.699,80.315,113.13,95.459,68.147,77.293,-61.417
1.96427399999993,45.302,25.222,-121.912,135.114,62.276,32.572,-112.895,141.96,100.309,53.103,45.509,75.588,89.96,150.739,65.763,89.531,30.691,177.97,56.267,44.573,-198.01,57.16,49.137,75.624,101.746,91.777,64.493,73.118,-77.237
1.97988339999984,60.113,28.27,-123.327,139.077,70.411,40.736,-133.786,148.99,105.844,58.685,50.586,82.172,96.53,165.445,75.431,95.589,41.931,190.6,68.506,56.311,-194.738,69.399,61.895,88.868,114.964,102.444,72.113,73.044,-56.668
1.97995320000018,52.369,36.951,-112.958,150.721,67.779,48.38,-164.391,161.649,111.374,65.287,55.146,85.164,95.921,167.329,70.232,99.592,46.5,197.581,73.56,60.353,-189.932,77.014,69.006,93.39,130.731,108.489,75.627,75.533,-43.803
1.99441000000024,44.119,35.377,-116.943,142.886,68.224,40.647,-147.833,154.315,104.09,60.098,50.48,78.931,91.214,158.452,66.064,96.418,42.867,191.236,68.876,53.633,-192.304,72.326,64.326,89.71,121.379,105.307,74.527,74.945,-60.666
1.99447490000011,59.957,42.002,-112.215,148.891,93.258,49.316,-129.754,155.185,110.133,68.748,59.651,88.586,101.881,165.466,87.514,106.056,51.021,198.73,78.541,63.313,-189.038,80.963,68.36,99.355,116.647,115.96,82.649,87.166,-60.605
2.00939770000014,60.921,53.231,-96.222,176.406,98.801,66.685,-148.58,175.01,122.319,79.437,70.863,99.256,109.976,166.837,95.624,115.683,55.581,207.24,86.147,73.496,-185.263,91.64,72.902,101.304,126.264,121.479,87.69,96.3,-43.638
2.00946400000021,42.417,44.981,-102.785,173.156,66.426,57.397,-143.308,172.786,112.975,68.087,57.472,86.349,96.034,148.227,71.45,103.785,41.693,188.59,69.667,59.59,-195.323,78.229,62.071,82.76,118.965,105.476,78.381,80.834,-40.008
2.02444689999993,47.498,40.325,-109.343,157.614,60.212,48.63,-110.377,157.243,105.69,64.945,52.291,80.115,90.815,145.005,68.817,98.558,34.992,177.13,61.4,53.895,-200.251,68.929,57.398,78.579,107.575,102.297,76.253,76.143,-33.821
2.0245116000001,66.406,59.24,-87.204,178.973,88.329,67.537,-106.681,168.357,121.465,83.323,71.707,95.916,107.118,160.742,92.314,114.853,46.227,193.859,76.708,70.747,-187.243,86.279,69.636,94.382,127.448,118.076,87.448,99.633,-25.078
2.04014760000018,64.29,68.914,-80.969,192.626,95.413,81.302,-138.849,183.558,128.516,87.851,77.783,101.456,112.134,163.655,95.808,120.374,50.792,199.813,81.755,73.751,-180.908,90.291,73.665,97.361,144.227,119.495,89.409,106.193,-36.323
2.04021139999986,55.004,59.112,-99.331,169.892,84.047,68.925,-130.001,173.64,118.142,79.054,66.946,92.645,102.8,153.245,83.929,111.544,43.569,189.88,72.451,61.894,-184.826,74.831,68.981,87.53,123.078,111.691,83.172,91.742,-40.385
2.05446570000004,59.048,56.491,-90.523,164.087,83.963,59.122,-97.084,160.659,115.974,78.462,65.342,91.016,102.698,151.555,84.87,109.896,44.55,192.764,71.867,62.344,-180.543,76.806,69.936,91.029,108.61,119.264,84.626,91.138,-22.927
2.05452920000016,61.55,57.459,-76.6,173.657,85.928,62.649,-119.528,163.06,120.981,79.921,67.326,92.974,104.132,160.113,89.908,114.396,53.215,199.743,75.893,68.942,-177.288,87.487,70.379,98.11,128.481,126.829,88.127,94.633,-27.002
2.0694367000001,52.78,51.254,-96.503,165.286,81.744,65.148,-151.684,173.655,120.348,78.304,63.673,89.295,99.417,165.588,85.72,114.794,52.137,195.445,74.28,65.799,-183.259,81.252,68.259,92.889,141.161,119.018,81.892,91.465,-47.98
2.06949699999996,45.042,49.666,-104.091,165.121,83.199,66.107,-168.438,182.191,120.74,78.738,60.535,86.644,98.805,157.225,83.072,110.581,46.449,191.663,71.645,61.635,-185.125,75.535,69.728,87.16,128.212,113.263,78.736,94.447,-40.247
2.08446349999986,50.12,51.153,-91.692,173.665,84.652,64.504,-135.482,172.275,118.058,74.048,57.401,85.02,97.169,147.847,86.063,107.909,45.89,190.447,71.573,61.573,-182.89,79.558,69.658,87.586,118.862,115.712,82.756,92.304,-21.252
2.08452440000019,55.706,44.442,-104.408,160.171,76.883,51.12,-102.559,146.487,105.644,62.704,53.245,79.812,87.338,147.187,81.879,106.776,41.746,182.06,69.452,58.95,-186.294,75.893,62.928,82.375,121.305,112.522,78.062,76.33,-28.403
2.10038639999993,44.379,37.225,-114.037,142.593,67.073,39.286,-124.486,137.119,96.317,55.469,47.556,73.585,80.591,143.453,69.501,103.596,32.483,175.218,60.673,51.206,-189.693,65.058,57.23,72.559,120.159,104.725,69.275,68.569,-40.157
2.10045350000019,36.138,38.213,-93.431,141.938,72.641,45.906,-156.637,151.327,102.881,57.975,45.972,72.999,83.584,138.187,71.993,100.418,32.963,178.116,56.514,50.131,-185.918,63.456,57.685,71.462,113.891,101.546,70.23,74.136,-32.945
2.11496859999988,48.397,45.859,-91.288,153.579,87.937,56.107,-123.692,161.422,113.536,69.7,58.221,83.172,94.772,148.295,90.364,108.515,43.688,188.184,67.216,61.864,-179.584,71.59,63.775,77.538,110.191,104.519,75.795,77.648,-23.178
2.11503270000003,52.447,51.961,-108.615,170.844,88.874,60.661,-97.953,163.822,119.058,80.388,68.922,90.261,102.361,154.806,92.836,117.116,48.255,194.656,74.834,68.974,-173.769,79.203,67.81,80.534,108.032,110.05,77.769,79.107,-32.376
2.1295070000001,37.025,44.224,-108.507,166.574,74.953,59.576,-130.131,164.683,115.865,73.136,58.607,81.974,94.574,141.844,76.861,109.826,39.498,186.264,66.05,61.22,-173.595,74.001,62.619,73.281,102.8,109.427,74.617,79.028,-45.664
2.14455829999997,34.427,30.348,-107.374,137.206,66.681,44.66,-137.685,152.222,98.331,53.595,41.642,69.597,77.061,129.407,72.174,99.47,27.163,170.197,55.737,51.425,-182.131,62.143,53.335,63.474,97.575,100.096,67.883,72.289,-44.081
2.14461729999994,43.614,31.342,-113.926,130.921,64.053,30.783,-104.76,137.213,83.888,44.32,40.063,67.99,68.275,126.203,72.101,100.395,23.55,164.903,53.632,48.3,-181.949,60.032,50.207,63.411,102.6,96.922,66.278,69.655,-44.037
2.14465950000022,41.521,42.069,-109.202,152.307,59.89,40.486,-127.197,142.711,92.001,51.96,45.659,72.021,71.793,125.053,65.882,106.955,29.161,171.911,57.165,52.35,-164.861,67.657,57.33,69.495,116.842,106.047,73.384,81.368,-48.604
2.16046740000002,39.943,43.564,-102.945,155.229,62.392,51.716,-117.336,151.278,103.692,62.154,47.662,77.072,79.918,130.051,70.427,109.41,30.157,174.3,61.719,58.446,-151.888,73.737,64.444,73.012,121.336,109.015,74.335,86.41,-35.235
2.17467889999989,45.026,35.324,-104.891,141.754,64.891,41.93,-84.431,146.516,102.564,58.506,45.053,77.507,82.4,131.97,74.455,105.202,22.954,164.392,57.046,53.776,-157.884,68.028,58.745,68.84,109.432,101.221,66.576,75.053,-29.053
2.17474130000028,42.932,29.653,-105.811,137.001,55.605,32.155,-113.548,141.246,94.777,48.714,36.811,71.794,76.17,125.178,61.06,98.436,20.882,157.056,46.743,45.013,-163.361,55.152,44.854,58.525,98.564,93.435,61.386,66.781,-43.368
2.18971259999989,40.839,35.259,-99.557,142.499,53.5,39.807,-104.213,139.568,92.633,52.763,39.848,73.259,77.63,129.151,59.462,102.436,29.058,162.534,49.77,50.091,-149.366,56.121,44.809,55.905,101.539,92.317,62.862,71.325,-28.98
2.18978920000018,45.922,48.031,-87.675,154.14,66.254,54.112,-75.419,146.089,103.811,67.568,56.714,84.969,92.922,143.367,75.284,112.068,37.738,170.568,61.503,58.751,-130.261,68.873,57.059,63.021,106.56,99.397,69.971,76.889,-4.873
2.20475369999986,45.363,46.958,-92.71,153.986,64.139,59.181,-107.619,166.435,113.953,71.598,56.145,84.372,94.878,141.174,72.647,108.882,37.701,169.373,60.929,56.13,-128.594,66.243,55.465,61.422,102.355,102.884,71.438,72.714,-24.848
2.20481950000021,39.17,34.616,-113.11,134.877,46.656,51.949,-139.787,169.855,104.618,62.305,40.208,74.041,83,131.299,61.304,99.552,31.003,166.13,52.672,51.463,-133.076,57.467,47.213,54.188,93.032,98.17,64.707,65.469,-40.704
2.21975569999995,39.643,39.192,-105.312,131.156,44.56,50.36,-106.859,148.68,96.828,60.706,44.778,74.992,85.991,135.778,67.39,102.526,30.972,170.062,55.693,52.949,-123.209,68.68,55.363,66.429,90.889,102.683,67.716,73.6,-20.684
2.22382800000014,49.338,54.01,-83.177,149.98,58.86,57.995,-73.965,141.871,105.441,67.818,57.029,81.577,93.077,139.229,70.909,109.083,38.113,172.454,63.322,57.507,-108.741,78.346,64.529,79.17,101.045,115.388,78.407,89.408,-23.737
2.23669900000004,62.608,50.37,-92.828,152.391,67.51,58.449,-92.334,150.439,107.385,68.774,53.386,80.47,86.837,132.942,64.69,107.95,37.051,168.695,63.258,60.011,-103.509,71.607,60.366,70.894,113.239,113.223,76.791,86.757,-44.206
2.23676750000004,61.009,42.122,-107.592,140.456,67.443,53.268,-76.36,146.19,102.666,67.169,53.332,80.39,87.774,135.883,70.261,109.379,35.477,167.502,61.146,60.463,-97.77,66.925,57.744,65.188,110.564,107.987,71.079,74.375,-34.427
2.24983280000015,46.091,44.642,-103.898,138.266,67.888,52.19,-100.874,143.482,105.125,68.639,58.402,83.383,94.859,146.505,77.363,115.929,45.175,172.97,64.159,63.476,-87.939,70.956,61.785,67.684,101.232,111.465,73.057,73.788,-20.048
2.26478619999989,49.119,46.646,-104.307,142.226,70.894,56.748,-133.049,155.634,108.094,70.107,58.344,86.374,94.252,148.92,74.724,115.813,49.741,178.432,71.779,70.073,-78.117,77.033,62.748,66.08,103.18,114.94,73.497,78.325,-25.664
2.26484530000016,61.365,48.137,-100.104,148.232,75.946,69.499,-118.571,165.725,113.109,74.647,61.359,87.312,99.281,147.747,79.26,112.624,47.129,180.303,81.441,73.589,-66.256,84.641,66.271,72.161,107.688,118.411,75.472,79.271,-28.2
2.26488700000027,53.619,51.162,-91.295,148.084,72.796,70.967,-106.157,160.436,114.533,75.085,59.761,82.102,99.181,144.013,79.181,109.437,47.594,177.049,79.823,70.954,-60.554,84.044,70.303,81.311,102.457,119.83,78.471,76.631,-22.536
2.27981760000011,48.955,44.964,-97.351,130.517,56.33,51.94,-97.342,145.931,102.635,61.69,49.455,75.872,83.201,136.184,63.733,102.668,44.985,172.773,68.472,66.272,-61.518,77.3,67.671,77.643,100.305,115.611,71.732,73.48,-22.001
2.28378030000022,64.787,45.943,-98.791,122.702,55.761,50.864,-94.683,142.199,99.971,60.091,52.479,79.895,81.581,136.048,63.669,102.053,41.866,177.211,66.867,64.669,-54.284,77.222,66.067,76.029,113.525,114.983,70.636,78.53,-32.738
2.29674590000013,67.284,56.656,-97.155,140.51,77.734,68.744,-126.351,154.864,111.142,76.937,62.161,85.45,95.331,136.937,80.511,107.074,42.849,178.059,69.361,67.166,-43.984,75.608,63.439,75.953,120.071,114.868,76.201,81.013,-42.951
2.30994820000024,53.897,56.599,-105.767,150.103,84.317,69.699,-107.782,158.295,112.055,83.521,61.586,84.852,96.261,129.627,81.456,108.504,40.757,170.196,65.706,69.148,-39.842,75.533,59.789,68.192,107.656,112.192,74.588,72.735,-29.588
2.31001190000006,54.867,55.006,-93.366,146.367,75.523,70.654,-74.887,157.112,115.529,85.486,67.16,90.403,100.775,137.695,80.349,115.055,46.352,174.637,75.374,76.763,-26.482,91.339,69.976,76.833,106.011,126.937,80.148,77.273,-5.992
2.31005379999988,55.325,55.975,-79.952,141.61,76.984,75.707,-107.087,169.763,121.049,86.425,67.093,91.337,105.797,144.729,88.978,116.477,51.429,175.999,86.057,79.248,-16.721,98.932,78.103,90.076,115.127,137.568,86.216,85.905,-13.159
2.32490349999989,38.363,39.525,-111.123,125.074,68.711,50.016,-134.645,159.347,98.899,60.724,42.435,71.266,82.638,118.969,79.156,96.893,31.909,151.744,65.479,59.701,-28.488,77.828,60.094,70.006,101.179,114.377,65.125,65.327,-41.322
2.32496739999988,33.714,27.703,-128.431,110.092,50.199,28.449,-101.722,126.912,78.308,40.171,30.609,61.461,64.624,108.092,61.658,86.037,22.656,142.371,47.483,47.858,-28.459,65.455,50.812,56.104,87.246,99.405,51.74,50.404,-47.941
2.3399260000001,50.074,43.557,-99.101,123.302,57.321,48.4,-77.03,128.322,94.623,57.549,47.997,77.281,81.978,135.136,71.842,98.247,45.687,166.307,63.317,62.667,-9.475,78.197,67.155,75.515,104.577,114.163,69.107,72.383,-32.012
2.35591980000027,50.024,46.587,-94.391,136.499,63.924,58.086,-109.228,155.859,104.263,64.664,49.998,78.228,87.532,138.075,78.943,96.099,51.789,171.264,66.327,64.654,-12.027,73.508,62.477,73.903,109.083,109.438,65.964,76.922,-27.881
2.35598260000006,33.58,23.999,-114.789,123.043,42.343,39.072,-140.37,149.555,86.74,45.131,30.993,61.756,69.513,114.883,56.322,79.097,32.27,151.625,44.232,44.609,-27.385,51.406,38.336,49.238,86.945,85.25,43.356,44.569,-32.976
2.36998570000014,29.448,17.315,-110.575,109.087,33.079,33.91,-107.442,129.426,82.555,41.5,29.937,61.182,66.882,117.329,42.946,77.481,31.725,148.4,41.626,43.028,-20.185,49.817,40.347,51.751,77.637,85.165,46.899,29.155,-26.283
2.37004660000002,36.591,25.494,-104.829,108.978,48.415,36.95,-74.546,127.759,90.157,50.68,40.154,67.781,73.988,122.847,55.199,80.99,36.304,153.374,51.83,52.206,-8.894,58.477,52.09,59.896,80.12,96.351,57.098,47.057,-25.745
2.38508490000004,40.141,23.42,-113.434,108.357,55.539,36.913,-106.747,132.755,91.091,51.654,39.089,67.713,73.914,112.478,62.828,80.396,27.046,148.098,48.192,50.105,-7.861,56.881,48.452,51.127,85.163,94.717,52.43,53.67,-40.576
2.38514440000017,37.539,29.032,-109.734,110.298,57.533,47.635,-113.301,140.819,94.586,55.188,40.074,71.744,76.914,115.44,64.302,85.439,29.068,145.9,49.169,52.104,-1.193,60.923,51.99,55.174,95.837,97.184,55.964,48.493,-39.511
2.39995790000012,31.354,42.835,-103.989,122.995,60.037,54.759,-80.4,145.289,100.127,61.793,46.694,74.233,79.911,123.009,69.873,87.403,37.749,146.779,56.804,56.15,4.956,67.01,59.622,63.828,91.642,103.235,64.105,52.543,-31.274
2.4000160999999,34.396,42.792,-107.471,131.069,53.317,50.094,-103.885,142.07,97.978,61.219,45.623,69.548,79.318,120.324,71.852,86.291,35.662,145.095,52.649,51.996,1.365,64.893,54.439,58.641,79.768,100.058,61.992,55.565,-38.415
2.41559370000004,42.559,36.089,-104.802,125.815,51.214,50.556,-136.057,149.1,97.88,60.133,41.479,71.528,81.801,122.766,65.633,88.254,37.675,144.95,50.547,54.505,-0.173,66.365,52.336,59.095,86.348,98.421,59.881,50.898,-31.717
2.41565910000008,33.295,28.881,-107.259,113.394,52.187,46.407,-114.916,151.512,96.245,54.438,35.29,71.457,79.669,121.106,56.858,82.018,39.687,135.072,54.595,53.938,-3.759,63.225,53.308,59.548,83.188,95.761,56.234,40.601,-19.902
2.43009650000022,24.552,18.093,-118.423,107.133,44.963,32.528,-87.649,132.405,88.464,45.162,29.619,64.725,70.368,111.251,54.24,73.739,29.401,121.104,48.905,45.175,-10.928,49.33,44.546,44.632,68.248,83.882,50.031,29.802,-40.375
2.43016010000019,39.385,25.248,-115.23,117.272,47.479,37.107,-110.615,130.224,88.888,48.703,34.2,68.759,71.835,116.775,62.895,80.325,29.884,120.983,47.319,52.815,-4.769,52.354,43.989,44.075,80.475,83.798,56.641,41.043,-51.093
2.44509930000004,46.005,42.641,-105.381,129.45,58.19,55,-107.431,145.463,97.508,59.925,43.9,75.35,82.009,126.392,70.004,85.88,38.563,127.522,53.932,62.496,6.506,64.085,55.215,57.863,91.153,98.571,64.269,66.617,-33.623
2.44516209999983,31.615,43.623,-104.764,127.271,50.96,59.044,-96.565,141.731,97.411,60.89,46.93,72.713,81.415,122.167,67.885,82.208,35.451,129.444,52.853,54.236,5.988,60.947,55.673,59.854,75.692,101.034,61.643,69.625,-32.565
2.46012610000025,35.681,43.579,-95.95,129.705,46.298,58.985,-118.497,140.052,96.801,61.853,51.494,76.739,80.821,122.045,68.329,87.761,38.489,136.487,57.411,57.256,8.031,63.448,56.129,63.381,80.74,100.421,63.63,60.846,-23.823
2.46018300000014,52.04,55.831,-87.657,141.359,59.572,65.073,-87.128,150.159,102.34,69.988,54.516,85.371,89.45,127.559,72.872,94.334,46.648,143.522,69.137,70.519,11.097,75.167,63.245,72.539,100.639,110.566,71.251,64.371,6.427
2.47689549999995,47.889,50.14,-100.377,136.094,57.463,54.762,-54.253,133.615,96.602,62.746,46.265,77.601,85.774,119.746,65.627,85.53,38.404,136.719,60.871,59.69,-1.722,67.92,58.059,61.195,87.218,103.283,63.495,60.208,-6.387
2.47696619999988,41.181,34.72,-110.522,119.564,42.036,37.801,-74.691,111.964,81.648,44.24,41.095,68.815,69.807,110.917,54.802,78.272,33.243,132.484,48.002,46.31,-12.479,54.02,48.779,47.302,62.54,85.249,52.673,46.828,-38.656
2.48960269999998,48.312,39.297,-100.166,119.957,47.117,43.399,-106.892,127.734,84.128,46.758,45.153,75.406,70.761,117.467,56.285,82.805,43.968,142.597,56.151,55.998,-5.806,58.576,52.829,56.988,61.966,93.361,59.281,51.392,-22.736
2.48966610000025,52.362,52.065,-94.43,132.133,57.829,57.7,-120.105,145.537,99.413,62.592,49.206,80.966,84.523,130.157,63.913,86.82,51.096,153.213,63.78,63.114,-2.214,65.69,56.875,66.153,75.736,105.563,65.369,63.124,-4.783
2.50425760000007,46.675,54.062,-100.484,136.099,54.185,56.618,-106.153,137.706,100.851,62.017,51.206,79.348,84.438,134.125,68.972,88.783,51.045,155.109,65.253,63.051,-8.872,68.698,58.867,65.574,91.542,102.896,61.718,64.597,-26.807
2.5043255999999,37.919,46.323,-98.846,127.766,56.18,50.413,-111.17,129.372,91.016,55.808,50.642,79.269,79.743,130.405,73.002,91.768,49.969,153.93,72.36,65.037,-10.913,74.265,65.468,69.095,98.622,107.916,61.144,60.434,-37.539
2.51919540000017,38.905,40.129,-94.137,120.466,63.808,51.388,-117.206,127.706,88.364,58.313,49.055,78.165,83.25,128.225,76.002,92.188,48.382,152.751,71.775,63.435,-11.926,72.654,64.378,66.464,96.987,108.833,64.669,56.276,-25.718
2.51925699999992,57.31,48.798,-99.165,130.591,57.597,53.385,-102.232,126.041,91.349,59.792,53.104,77.574,82.142,128.609,75.414,93.121,51.408,152.086,65.043,62.859,-13.451,68.995,60.215,63.324,96.378,100.527,67.166,59.293,-22.618
2.53594990000011,63.4,56.947,-102.14,139.682,49.855,54.357,-99.568,130.526,93.307,59.22,57.662,81.595,80.523,128.993,71.24,96.614,52.893,153.471,71.638,68.944,-10.364,75.586,66.303,75.044,87.572,111.185,72.221,70.505,-12.862
2.54935320000004,51.554,51.767,-93.841,129.297,53.903,54.815,-113.301,132.444,95.775,63.772,59.141,86.124,87.614,129.376,71.169,99.079,49.254,154.342,77.714,71.437,-10.866,82.683,69.823,80.604,82.874,122.857,76.76,69.922,3.032
2.54941929999995,57.137,49.153,-89.649,120.97,53.849,53.735,-83.474,121.553,95.167,65.245,60.107,85.526,89.064,126.173,73.659,97.443,48.181,151.626,71.489,69.316,-18.54,77.477,63.605,66.691,101.746,110.439,71.048,59.093,-7.729
2.56427399999984,59.129,48.08,-98.781,119.312,44.062,45.997,-65.46,108.624,84.313,54.933,49.288,75.194,76.679,115.288,66.413,88.636,41.985,144.814,62.708,61.562,-30.304,64.079,59.443,56.891,104.206,97.008,61.243,51.35,-28.726
2.56433599999991,39.09,35.736,-106.879,109.459,41.456,35.192,-97.67,104.929,73.471,43.095,35.919,66.922,67.381,106.976,55.076,78.301,35.795,138.522,56.498,55.353,-40.52,55.818,57.334,57.858,77.974,95.374,57.083,45.151,-19.988
2.57925890000024,45.711,38.774,-105.747,112.424,52.685,39.256,-104.744,110.46,78.008,47.151,48.178,75.052,73.974,115.066,65.78,85.395,45.493,145.556,61.052,64.519,-38.943,63.959,58.814,62.411,84.044,100.402,65.223,51.765,0.524
2.57931589999998,67.182,54.105,-102.055,127.68,58.78,49.975,-71.852,110.862,87.151,55.3,59.913,82.149,79.535,123.148,81.083,96.581,51.083,152.582,68.676,73.676,-36.342,73.629,64.903,68.497,106.501,109.523,71.818,68.62,-6.136
2.59432950000019,53.283,46.366,-102.466,119.356,54.111,41.728,-102.006,102.042,77.33,44.999,43.459,70.284,68.697,109.192,71.268,86.75,36.687,139.622,59.898,62.332,-48.601,66.383,61.764,67.916,89.489,106.852,63.549,62.916,-29.696
2.59839349999993,42.471,40.172,-98.265,109.503,54.057,34.002,-134.18,106.55,72.642,40.855,40.342,68.165,65.555,102.423,62.488,81.028,36.651,135.384,58.813,57.658,-54.7,64.78,58.628,65.286,79.153,102.134,58.875,50.558,-27.105
2.61099760000025,63.946,59.599,-88.945,127.836,65.786,55.484,-101.258,120.788,91.525,61.307,61.306,86.539,86.494,125.375,79.331,99.39,58.131,158.815,79.759,75.019,-44.399,79.06,70.865,72.906,104.689,114.84,72.136,63.827,-0.438
2.6110619000001,69.517,62.101,-90.905,133.344,69.818,67.212,-68.369,118.106,99.118,68.418,62.782,87.99,91.53,131.909,80.789,103.389,55.511,159.681,77.63,78.018,-47.941,77.444,70.794,74.37,105.097,116.262,74.113,69.911,8.272
2.62471510000023,46.906,40.01,-107.72,110.669,57.965,45.628,-100.576,111.328,82.113,49.906,43.764,68.434,68.385,102.576,59.191,82.281,31.377,127.246,47.839,54.374,-65.312,56.362,49.207,53.803,76.815,92.58,55.596,47.812,-12.229
2.62477900000022,30.978,30.748,-120.42,100.312,52.784,32.262,-116.357,113.266,74.859,40.123,37.06,60.681,56.021,88.641,55.546,74.514,26.223,118.921,36.52,41.512,-73.956,44.01,41.985,36.331,69.053,79.679,47.343,30.345,-31.684
2.63942029999998,32.996,33.279,-122.349,105.335,57.855,38.378,-83.453,104.956,80.419,41.619,40.609,66.256,64.674,101.36,65.224,79.563,37.98,134.172,44.68,50.18,-75.419,44.991,49.115,39.881,71.546,83.698,51.394,29.803,-32.677
2.63948260000006,43.721,29.66,-123.764,105.742,50.112,39.364,-101.3,101.777,81.363,43.115,43.642,67.727,70.757,106.382,60.036,79.483,39.991,135.575,45.66,55.252,-75.855,49.044,49.066,48.038,62.253,83.102,52.368,32.847,-28.034
2.65442200000007,42.653,27.581,-126.714,100.513,38.791,40.862,-133.474,115.507,80.77,47.682,40.013,64.585,68.125,103.202,54.34,76.842,35.34,130.828,38.442,48.537,-81.415,46.946,43.894,42.354,57.067,79.433,49.241,33.839,-32.104
2.65842350000003,27.241,26.529,-124.026,94.777,50.536,42.87,-129.242,115.904,77.103,46.61,32.288,61.959,61.397,100.025,56.335,70.105,32.743,127.623,31.232,40.292,-91.58,38.19,38.727,30.017,63.67,73.718,42.02,27.145,-42.318
2.67098160000023,34.386,25.99,-114.68,98.781,62.268,37.192,-111.182,106.054,76.513,39.904,33.793,61.897,61.848,97.363,57.304,67.986,33.223,124.422,33.25,42.301,-90.976,38.664,39.201,28.962,75.39,68.521,40.441,23.019,-38.177
2.67105160000028,57.406,31.599,-107.905,112.002,50.935,35.618,-78.283,109.535,85.146,44.474,42.98,66.958,69.471,104.438,58.783,78.677,37.8,132.495,46.536,55.578,-82.176,52.458,52.482,43.79,89.659,80.236,53.721,31.193,-12.524
2.68447419999984,48.639,35.154,-112.408,112.402,43.712,38.656,-45.417,106.864,83.012,48.016,40.888,70.99,66.84,106.383,58.212,80.135,40.324,139.022,49.564,59.621,-87.217,60.602,61.138,53.992,91.106,91.426,58.79,37.31,2.858
2.68453790000012,28.098,31.02,-117.419,103.068,49.816,30.933,-77.647,94.974,68.584,37.21,32.65,64.771,53.965,91.419,58.154,68.784,32.087,127.612,39.78,49.316,-96.863,55.931,54.93,49.84,76.158,83.138,49.51,35.223,-12.514
2.69948269999986,37.292,28.428,-108.592,109.625,50.278,29.365,-109.845,102.051,68.003,34.611,33.13,59.583,54.423,89.279,66.805,71.789,30.518,124.411,42.302,47.217,-96.766,53.825,53.338,47.741,70.959,79.469,51.509,35.188,-27.359
2.71447260000014,46.476,34.547,-101.311,121.811,48.179,43.68,-119.469,118.855,78.694,47.896,42.831,68.233,66.152,101.997,69.3,81.963,40.733,138.631,55.58,56.904,-94.62,60.944,60.457,53.841,83.696,88.099,59.142,36.177,-18.11
2.71453169999995,33.622,32.463,-111.456,113.492,48.131,42.099,-86.562,114.125,76.566,46.311,42.788,70.726,65.574,94.723,58.472,76.246,37.107,134.906,48.864,54.285,-103.235,56.785,53.224,47.639,77.977,80.326,50.374,25.895,-13.993
2.73055040000008,26.928,14.5,-129.788,92.374,42.447,17.979,-54.2,86.347,58.558,20.65,22.253,49.138,41.43,67.988,53.803,57.727,11.966,108.644,20.126,33.226,-119.526,30.6,31.141,25.562,45.623,55.655,35.979,4.352,-33.447
2.73061600000028,33.049,5.776,-136.318,86.134,38.819,7.202,-62.343,71.916,44.155,5.26,8.911,35.769,23.97,57.162,55.798,46.911,1.196,97.777,7.811,21.41,-125.554,17.762,24.45,16.315,36.356,46.378,33.381,-3.849,-48.27
2.74458910000021,33.016,18.578,-127.985,98.343,43.903,18.466,-82.773,87.213,49.746,16.013,22.222,48.541,36.241,68.888,53.181,54.548,13.49,106.9,23.684,32.147,-115.182,36.187,39.795,30.131,59.886,59.139,41.545,15.11,-43.099
2.74466560000019,25.81,28.806,-122.221,100.807,46.42,24.595,-71.419,94.81,59.943,24.706,31.421,53.616,46.451,81.114,50.054,61.154,19.112,109.867,30.321,38.775,-110.968,45.372,44.366,40.347,61.875,68.814,45.602,26.366,-34.347
2.75960780000014,24.76,26.728,-126.198,97.632,44.837,23.546,-65.2,86.519,61.42,23.657,26.779,48.439,41.281,83.082,54.614,56.994,13.97,106.683,21.069,34.125,-118.03,38.667,36.125,38.258,52.592,69.257,45.556,23.265,-27.14
2.75967170000013,35.494,32.849,-126.071,113.928,47.354,33.256,-97.41,99.752,68.531,33.879,35.461,59.661,49.437,82.487,67.88,62.572,18.054,112.212,29.757,41.776,-115.35,48.875,43.773,41.805,76.105,74.311,53.708,36.562,-19.941
2.77456190000021,39.557,41.013,-121.847,122.011,48.331,41.42,-91.677,111.435,74.097,42.042,43.623,66.262,58.609,79.843,73.96,71.219,20.598,112.1,41.51,52.492,-109.087,57.535,53.463,47.399,88.837,78.335,61.339,43.186,-18.896
2.7746231000001,32.345,35.336,-119.164,103.958,44.184,33.694,-58.798,92.881,65.826,33.804,37.431,59.023,52.403,77.714,64.152,65,18.016,108.914,33.272,46.805,-112.564,46.719,46.238,49.913,58.522,74.671,56.154,21.626,-15.291
2.79067350000014,42.046,34.789,-114.434,104.367,48.751,35.709,-71.034,94.837,72.421,39.405,43.542,68.186,62.597,89.931,63.575,68.521,29.268,121.613,39.386,51.369,-110.915,51.283,48.241,59.597,50.267,81.256,59.684,23.653,-4.517
2.7907424,61.984,48.074,-111.758,122.705,62.534,51.043,-103.239,119.846,86.693,57.296,57.33,79.9,77.903,100.088,76.832,83.822,41.535,133.274,56.765,67.711,-105.168,67.113,59.975,64.148,75.319,89.372,70.383,48.22,-11.173
2.80463980000013,53.213,48.538,-112.671,117.46,64.521,52.016,-107.746,117.164,75.848,52.628,51.125,69.574,65.53,91.278,69.583,76.054,32.784,124.432,47.487,61.496,-108.649,61.411,55.305,56.4,72.17,84.159,63.14,44.074,-24.482
2.80470229999992,36.766,37.731,-108.459,108.121,52.161,43.255,-103.028,105.264,65.526,42.33,42.877,61.82,56.755,83.502,53.632,64.195,23.017,116.11,35.144,47.09,-114.176,52.64,47.052,56.343,50.581,80.489,55.905,33.271,-12.162
2.81965519999994,48,40.767,-106.302,115.185,51.084,42.7,-80.896,107.208,75.194,46.898,44.371,64.32,67.457,88.03,62.287,70.278,29.142,119.068,42.281,50.116,-113.037,54.637,48.542,58.848,54.117,81.433,63.021,36.824,1.17
2.81971569999996,58.71,53.534,-104.146,120.705,66.915,47.78,-48.027,105.051,80.242,52.999,49.962,68.866,73.025,89.991,77.594,75.331,38.334,127.658,49.411,59.8,-104.727,60.73,56.691,58.789,74.043,83.401,66.032,38.324,-1.905
2.83462790000021,51.479,60.653,-89.697,128.781,75.557,59.003,-41.831,112.119,85.797,62.68,63.745,79.044,80.124,97.073,81.103,82.428,44.444,136.752,58.071,71.011,-94.376,77.063,69.954,74.612,90.362,97.662,71.089,49.556,-2.415
2.83468530000027,49.379,56.494,-90.12,133.263,68.822,62.018,-74.065,122.253,90.322,66.203,65.218,78.965,83.118,102.611,78.972,85.932,42.35,133.029,60.575,69.915,-100.942,78.523,66.81,80.685,86.174,101.663,75.629,58.216,-7.023
2.85062270000026,48.817,41.068,-112.059,117.248,56.457,43,-87.311,106.249,71.276,43.083,40.562,61.467,62.03,87.652,67.623,64.841,24.889,113.429,36.436,45.255,-124.92,46.681,40.616,54.477,60.472,74.921,57.622,35.616,-16.238
2.85069380000004,39.034,30.269,-115.533,105.348,46.155,29.637,-116.425,95.897,58.397,28.183,29.763,52.184,48.648,76.294,53.21,49.919,14.618,104.094,21.03,32.914,-134.016,32.29,32.378,42.127,48.628,55.378,40.146,19.187,-8.025
2.86584459999995,35.921,31.775,-108.245,109.341,45.084,35.243,-148.584,109.633,70.634,40.963,39.467,58.28,57.309,82.877,53.157,59.603,22.8,109.113,33.817,45.689,-123.636,48.139,43.617,55.405,57.801,65.569,48.815,31.975,-10.066
2.86591120000003,46.132,36.866,-114.797,109.744,54.261,37.769,-115.648,113.622,75.174,45.02,39.94,62.832,57.764,83.307,61.301,61.593,28.413,115.663,38.393,49.229,-120.439,50.652,42.548,58.936,57.744,72.676,56.451,38.603,-31.573
2.87973929999998,56.332,41.953,-103.924,112.708,56.256,39.781,-82.744,108.385,73.05,41.901,41.949,64.819,59.755,83.736,63.801,58.97,32.995,122.72,34.769,45.594,-121.343,45.991,43.53,60.414,51.538,69.529,53.321,32.417,-19.246
2.87981769999988,49.615,39.349,-86.401,114.645,43.904,43.327,-58.071,103.666,76.051,43.396,44.469,60.655,65.843,90.312,56.565,61.472,39.11,123.622,37.296,47.085,-123.271,46.457,48.61,65.476,51.999,64.337,50.194,23.676,13.561
2.89477910000005,29.073,20.354,-106.295,98.649,34.126,24.841,-73.382,85.119,61.118,27.984,25.469,48.812,47.334,79.975,43.701,47.578,26.775,110.178,25.475,36.28,-135.955,34.628,32.68,51.066,53.996,51.977,40.41,10.844,0.228
2.8948448000001,27.507,12.649,-126.169,89.328,32.555,7.91,-105.584,75.813,44.151,12.586,13.66,43.64,30.381,61.452,38.534,35.748,11.892,98.285,13.667,25.485,-140.43,28.446,24.45,42.306,57.016,50.388,36.783,11.858,-31.023
2.91157180000027,47.46,28.006,-109.649,93.338,30.473,19.685,-137.754,92.643,52.816,23.332,26.967,48.207,41.109,63.953,41.057,43.397,19.052,101.773,21.85,36.218,-129.531,39.688,40.307,58.145,57.984,65.195,48.529,26.703,-23.82
2.92488390000017,48.437,30.027,-105.441,87.609,33.004,24.788,-104.828,95.112,56.349,27.407,28.989,49.696,44.654,71.061,40.504,45.402,26.718,107.819,21.828,39.256,-128.377,35.55,37.193,61.673,46.655,61.543,47.456,21.553,-11.501
2.92494949999991,31.995,16.165,-126.852,82.91,45.779,12.981,-71.936,78.111,46.559,18.671,20.251,48.109,36.412,69.453,44.049,39.722,21.056,104.125,15.146,29.482,-133.884,24.756,23.324,48.292,34.825,45.6,34.601,4.626,-26.346
2.93986930000028,32.987,18.198,-129.287,90,54.443,21.165,-89.795,81.106,55.221,29.411,27.915,52.672,46.622,73.482,55.788,45.317,21.547,100.947,24.353,37.138,-126.065,36.514,33.546,53.879,37.864,54.776,41.739,7.182,-30.931
2.93993409999985,42.688,29.451,-115.325,92.984,51.827,38.562,-121.98,97.419,69.511,42.189,38.646,60.816,59.895,80.581,60.343,53.469,29.21,110.58,34.062,49.396,-119.792,52.359,46.321,68.169,50.634,73.165,55.529,19.471,-17.58
2.95483610000019,35.473,33.007,-115.21,95.965,48.189,34.937,-146.449,101.932,67.904,36.511,37.582,60.755,55.225,81.525,57.209,55.465,35.841,120.715,35.053,46.785,-122.746,49.233,45.25,66.564,58.268,70.53,51.375,24.062,-19.099
2.95489499999985,29.29,31.95,-120.73,97.406,47.628,28.755,-169.356,103.367,63.738,32.889,33.446,56.596,50.046,84.005,53.566,52.335,39.391,116.496,37.579,43.664,-120.061,41.499,43.155,60.862,53.087,60.725,45.689,22.501,-24.715
2.96987910000007,42.069,28.332,-114.974,91.16,49.117,32.312,-136.399,101.215,62.137,36.442,33.413,57.564,52.046,84.945,53,47.672,34.741,110.744,34.468,45.158,-114.818,42.482,39.526,58.24,50.472,60.665,48.204,12.745,-10.346
2.97383510000009,52.273,31.889,-106.15,93.631,56.241,32.28,-103.475,89.843,60.538,35.381,37.99,60.58,51.481,77.688,56.533,50.698,28.558,111.146,32.384,46.649,-113.166,50.637,39.999,55.62,55.032,67.776,53.792,9.146,-1.626
2.98671409999997,44.536,44.153,-107.068,100.709,62.844,31.735,-135.647,87.191,60.99,36.37,43.588,61.032,51.43,74.537,59.55,55.259,33.141,111.035,40.036,51.726,-111.516,54.172,46.619,61.2,46.268,75.906,61.935,24.506,-13.92
2.98678270000028,39.88,42.572,-117.72,95.998,57.658,33.24,-167.787,98.375,59.904,39.92,41.495,60.458,55.989,83.171,55.905,51.617,41.304,117.071,38.459,51.162,-112.942,45.921,41.961,62.676,35.976,70.707,60.848,31.141,-20.566
3.00003379999998,49.062,32.795,-119.139,95.902,52.478,31.67,-134.831,104.424,64.455,41.417,38.892,60.91,59.519,91.285,56.873,52.59,48.948,129.25,34.323,47.012,-119.489,41.777,36.796,53.391,45.673,56.291,49.004,17.278,-20.033
3.00009739999996,44.402,35.836,-103.65,100.417,59.085,33.175,-101.909,100.221,74.125,42.4,43.464,63.923,60.484,89.657,64.501,58.685,51.46,126.047,40.948,52.088,-118.345,49.932,45.469,56.924,48.189,59.821,49.98,14.699,-21.55
3.01495049999994,28.476,37.85,-100.473,92.12,62.612,32.117,-116.664,88.85,63.804,37.235,44.445,63.347,55.813,79.321,68.023,52.991,38.089,108.502,39.37,52.036,-112.591,53.468,46.96,61.99,34.821,73.594,58.127,20.832,-20.504
3.01501099999996,32.034,31.664,-124.451,88.441,58.451,24.913,-148.823,83.638,48.371,29.513,38.765,57.648,47.56,74.119,68.467,45.254,26.78,104.808,29.085,42.762,-111.454,46.242,39.229,50.658,31.2,70.958,56.02,11.077,-17.41
3.03004940000028,44.297,34.194,-129.962,98.599,61.467,32.573,-180.949,101.998,61.643,37.168,40.775,60.665,50.587,80.192,66.349,48.282,36.999,115.973,32.642,44.257,-112.367,43.122,42.775,52.144,31.169,64.228,55.451,6.455,-17.905
3.03406589999986,31.958,38.771,-107.29,101.062,56.794,40.737,-147.981,113.167,71.315,42.254,42.272,64.19,56.684,81.137,56.549,48.746,40.036,116.37,32.609,43.7,-114.816,40.517,41.708,62.338,31.138,62.114,52.322,18.232,-24.035
3.04691709999997,15.532,28.486,-111.282,87.129,38.294,21.229,-115.045,80.778,50.752,25.305,27.885,53.367,42.795,66.711,47.783,39.988,23.09,99.86,18.744,28.799,-123.923,28.182,26.297,42.808,40.84,49.757,37.925,14.115,-29.134
3.04698420000022,25.762,22.31,-128.589,77.82,37.744,8.912,-101.098,56.107,40.967,17.595,21.709,51.777,33.53,61.521,50.297,37.899,21.53,97.198,20.262,31.332,-125.336,29.178,26.783,33.031,41.312,49.194,41.986,2.831,-18.858
3.06013059999987,45.204,38.169,-107.968,89.525,60.248,29.908,-133.272,88.838,57.832,37.558,42.18,69.144,51.428,73.755,62.542,50.669,39.439,115.032,41.759,53.33,-109.841,54.764,49.298,64.249,39.734,74.761,63.973,14.611,-3.982
3.06019700000024,44.135,48.377,-94.54,101.219,65.31,42.686,-165.414,115.902,62.897,47.254,52.384,70.612,58.036,79.829,69.652,59.84,43.498,122.089,48.377,54.814,-102.047,62.394,55.909,73.918,54.551,79.809,63.396,22.281,-15.762
3.07508370000005,32.307,34.496,-118.011,93.945,44.241,28.811,-132.461,91.195,51.564,31.838,32.864,56.196,41.584,77.7,56.262,48.509,39.869,114.282,32.447,40.414,-113.728,38.253,39.971,50.278,54.496,54.114,46.427,7.914,-30.603
3.07514739999988,34.324,25.752,-116.869,85.654,32.413,22.634,-99.541,81.882,52.025,24.121,23.609,55.628,41.03,83.257,44.935,39.239,43.927,117.754,27.292,38.325,-118.737,28.481,34.296,52.79,33.95,47.912,45.356,3.808,-12.129
3.09006940000017,41.975,38.022,-95.747,92.229,42.627,31.833,-131.717,100.756,62.219,36.905,37.93,61.208,54.822,87.785,55.649,49.958,47.469,121.735,38.023,45.459,-109.909,43.309,42.971,71.692,30.329,66.819,52.995,17.124,2.228
3.10596829999986,36.297,40.033,-111.021,90.599,52.83,34.363,-140.806,94.507,61.132,43.016,43.015,58.072,51.693,79.5,62.253,50.421,41.274,110.342,34.911,44.901,-109.799,46.34,40.366,64.448,37.984,70.851,54.479,20.18,-18.267
3.10603100000026,34.724,27.186,-127.304,78.214,52.778,28.693,-107.878,83.142,57.485,34.263,34.775,56.477,46.006,72.761,52.969,39.099,33.036,104.084,27.704,41.27,-114.3,40.146,33.666,53.113,41.532,62.583,52.375,11.963,-30.032
3.11920229999987,48.522,27.671,-111.807,76.086,54.262,30.201,-84.716,98.428,63.575,34.229,37.302,60.007,54.157,77.811,54.453,45.208,37.102,111.665,41.509,47.888,-109.575,51.889,45.928,62.281,55.323,68.668,52.323,11.439,-18.219
3.11928179999995,46.424,31.229,-109.646,74.985,50.621,33.245,-116.907,106.527,61.974,38.293,40.851,60.459,54.615,78.246,60.547,49.261,43.212,112.066,49.664,55.013,-105.879,60.034,56.64,67.855,55.78,76.797,54.32,13.477,-20.762
3.13416540000026,25.373,18.39,-131.566,63.127,30.591,20.916,-149.065,90.539,47.568,25.447,29.539,54.251,42.265,66.384,48.191,32.306,33.947,103.757,31.684,43.175,-116.02,43.068,40.702,54.979,27.547,64.937,47.606,0.656,-35.086
3.13422730000002,24.323,12.224,-139.119,56.916,21.339,11.161,-150.965,82.763,44.959,17.737,21.825,47.537,37.612,62.732,41.482,27.663,26.741,100.579,21.406,29.299,-126.15,29.192,25.292,41.604,20.347,52.064,37.312,-11.64,-30.952
3.14914020000015,37.106,22.458,-130.783,63.52,35.15,21.909,-143.13,91.39,54.135,29.503,28.463,49.026,43.722,72.915,50.662,36.344,35.936,105.601,27.02,35.93,-122.438,33.262,31.927,42.075,37.233,56.623,40.348,-4.456,-20.163
3.14919569999984,30.409,22.948,-125.529,65.505,34.09,22.911,-136.327,90.786,47.421,27.424,26.898,49.49,39.068,72.33,47.538,29.648,36.412,108.57,21.357,39.48,-120.778,30.155,32.919,43.57,32.073,54.005,44.406,-0.866,-25.266
3.16529230000015,24.231,16.777,-123.866,60.829,22.273,7.007,-131.58,81.986,35.078,9.978,18.674,41.756,29.807,62.011,35.195,20.909,25.105,100.777,13.139,29.707,-126.805,17.829,23.153,37.378,21.282,42.68,35.141,-7.525,-38.56
3.16535599999997,42.138,27.007,-118.619,67.428,36.595,13.66,-163.723,93.175,44.265,16.116,25.828,45.812,34.9,61.437,44.381,28.573,27.642,91.454,20.298,33.776,-119.506,24.471,27.74,41.439,34.581,53.396,41.253,3.241,-38.522
3.17930500000011,51.829,41.324,-117.476,77.095,51.415,30.552,-183.54,107.939,52.93,29.42,35.536,57.037,38.452,60.863,61.243,32.643,31.2,91.363,25.401,43.476,-110.165,38.279,38.471,53.693,42.231,69.736,58.118,17.07,-17.479
3.17936860000009,35.896,32.574,-126.068,66.771,33.433,11.567,-150.568,81.191,35.971,11.459,22.18,46.222,24.068,47.483,51.448,21.339,17.849,85.636,14.617,31.137,-123.887,29.532,28.699,43.906,26.307,55.834,48.326,-0.878,-4.141
3.19434200000023,25.101,13.586,-134.651,52.36,18.543,-12.524,-117.63,50.371,21.59,-5.458,5.252,31.319,15.847,42.312,29.88,9.535,10.659,75.304,3.844,18.298,-137.596,12.596,15.862,24.907,15.01,36.823,29.835,-23.931,-18.994
3.19440710000026,34.81,14.084,-127.856,58.455,28.77,1.321,-149.788,73.887,37.45,11.453,15.493,42.558,28.127,56.102,34.461,14.136,22.431,82.401,11.013,29.551,-128.749,18.731,22.506,30.005,19.606,41.909,36.977,-19.296,-28.197
3.2092877,42.46,29.44,-119.532,66.594,37.451,24.374,-181.914,106.088,55.343,31.934,32.384,57.885,41.931,66.804,54.406,28.467,31.118,98.713,26.883,42.841,-117.349,36.643,35.804,45.344,29.32,57.749,47.699,-3.907,-18.435
3.20934859999988,39.344,32.484,-122.998,59.355,39.975,24.349,-148.944,97.273,53.751,31.902,31.839,53.728,44.963,64.688,56.401,29.463,30.575,101.175,31.467,42.286,-117.232,42.754,42.428,51.446,38.512,66.4,46.114,1.732,-24.051
3.22520639999993,39.817,26.304,-124.925,58.271,48.644,19.714,-142.135,87.954,49.086,28.284,28.221,50.089,43.381,66.673,48.66,23.286,33.618,98.513,28.874,40.707,-120.188,41.687,45.459,57.03,46.671,66.334,47.092,0.705,-38.372
3.22527080000009,45.412,27.302,-120.701,66.922,50.132,25.33,-174.268,96.575,53.648,31.842,30.754,55.162,43.338,70.705,51.685,26.336,36.146,98.414,30.382,42.715,-121.605,40.62,44.389,56.973,45.599,63.194,45.508,-1.344,-32.698
3.23977479999985,42.293,26.763,-128.777,62.244,38.299,27.354,-159.237,92.38,54.619,31.81,29.187,52.033,42.782,61.925,48.56,25.285,27.913,90.631,24.716,37.037,-126.607,32.383,35.123,45.645,28.135,58.007,39.315,-1.855,-32.666
3.23983720000024,32.005,19.563,-132.747,50.911,29.039,19.13,-139.61,83.579,45.855,24.606,21.985,42.247,35.567,50.592,32.629,16.551,19.688,81.831,14.958,30.34,-135.189,25.178,28.941,42.014,18.886,52.314,39.276,-2.366,-38.268
3.2543356000001,32.997,23.642,-112.634,58.033,35.67,16.549,-145.618,88.618,42.223,22.532,22.475,44.766,30.921,55.664,37.72,20.12,25.303,86.873,23.652,35.945,-131.98,35.911,37.109,53.755,40.896,57.385,45.384,-1.339,-13.639
3.26929210000026,42.698,35.402,-99.714,72.831,51.004,27.291,-121.906,96.214,50.89,29.682,32.699,54.455,37.038,62.269,60.224,30.346,32.963,94.47,34.899,43.594,-121.09,48.683,45.268,60.361,61.86,71.16,51.487,2.761,5.842
3.26934879999999,38.045,34.342,-116.008,68.148,52.49,25.727,-104.366,92.02,49.815,27.091,34.716,50.814,36.488,54.01,60.164,25.705,27.294,87.716,25.643,35.866,-126.092,40.95,39.588,54.153,48.478,68.015,50.923,4.295,-22.853
3.28437190000022,25.199,24.574,-129.212,49.637,41.167,7.258,-125.779,79.632,33.371,10.158,18.799,37.956,22.619,47.296,43.197,14.921,19.07,78.407,15.883,27.12,-138.261,28.614,34.425,46.926,37.159,52.065,41.65,2.754,-40.249
3.28829219999989,31.321,22.5,-122.935,48.05,40.101,5.714,-147.17,79.553,33.338,8.098,14.682,40.992,21.06,55.958,45.716,16.443,23.15,84.476,21.503,31.704,-135.049,33.196,40.026,51.49,53.003,57.136,40.072,5.825,-16.642
3.30135659999996,46.659,31.187,-113.078,64.396,49.795,27.225,-161.88,100.99,54.309,29.607,36.184,53.758,38.97,66.148,58.99,30.259,36.446,99.248,33.777,44.992,-128.254,46.995,48.695,63.734,62.684,76.547,52.327,11.454,-4.33
3.30141980000008,44.051,39.352,-104.768,73.553,50.257,40.518,-158.644,114.209,64.501,42.897,46.907,58.828,50.714,70.692,58.931,38.426,42.558,105.809,41.427,51.607,-131.712,53.096,55.307,66.744,50.838,80.569,59.447,12.468,-11.498
3.31448690000025,36.835,33.165,-105.688,59.135,42.01,29.719,-131.845,97.701,52.141,33.121,35.589,55.695,42.466,69.085,53.237,33.264,33.294,97.506,33.701,43.871,-142.851,45.358,48.079,55.407,35.93,69.73,52.728,6.307,-19.171
3.31455009999991,41.921,16.738,-125.563,36.022,39.406,10.734,-146.57,78.648,37.744,19.768,25.307,48.467,29.104,57.745,49.597,24.522,24.039,85.114,18.298,32.557,-152.954,34.554,34.711,42.031,28.21,56.852,46.015,-3.945,-37.083
3.32948440000018,40.854,16.209,-138.757,40.597,47.564,12.26,-178.699,85.742,38.731,22.822,27.843,48.931,29.074,54.101,56.208,26.034,30.675,90.151,22.891,36.11,-151.264,37.593,40.312,44.551,35.354,57.308,49.043,-3.941,-44.73
3.32955990000028,34.154,37.198,-121.2,71.294,59.812,33.764,-145.733,103.587,52.525,37.656,39.086,64.251,42.365,71.978,72.545,38.816,43.964,106.455,39.774,47.857,-140.867,52.413,55.128,62.437,54.786,73.132,57.703,11.432,-13.947
3.34447959999989,37.706,46.382,-102.636,80.957,59.24,38.854,-112.799,101.946,58.62,41.204,44.683,65.724,48.983,80.103,74.01,43.388,42.896,102.763,40.759,47.297,-143.288,54.922,51.999,69.035,61.904,79.206,59.182,19.618,8.096
3.34840389999999,41.254,38.139,-108.681,59.359,50.471,22.933,-144.962,89.036,50.364,29.892,36.441,49.264,37.663,61.067,60.103,34.123,28.508,84.729,32.521,40.077,-153.903,45.645,45.287,60.256,52.62,71.443,54,11.913,-4.72
3.36058279999997,37.114,37.588,-115.744,52.64,49.908,21.886,-177.092,93.558,47.24,28.325,31.281,48.703,30.453,50.248,56.969,33.064,22.844,86.181,34.538,43.623,-155.286,48.161,50.877,59.684,46.42,71.884,53.434,8.315,-12.4
3.37454100000014,38.614,39.6,-112.042,64.37,47.809,30.061,-157.96,102.686,49.754,33.932,34.836,58.388,35.034,56.857,55.888,37.642,25.383,93.267,37.577,47.166,-155.643,53.236,51.339,63.723,47.398,74.373,53.892,11.381,-10.338
3.37460420000025,43.699,32.388,-111.418,62.257,44.175,24.908,-149.605,95.923,47.655,31.337,33.777,53.719,36.023,53.727,52.246,30.432,22.796,82.416,30.88,41.996,-162.659,46.011,43.09,56.487,44.789,66.102,50.252,8.296,-20.062
3.37464520000003,41.606,33.38,-111.819,54.51,51.303,25.395,-168.923,96.852,50.682,32.843,33.743,52.128,34.963,49.062,62.44,27.84,23.798,77.722,26.75,41.954,-167.108,41.354,44.072,52.332,45.769,62.962,48.153,4.701,-21.578
3.38953440000023,32.855,38.982,-105.559,57.529,52.789,32.03,-135.966,102.903,56.779,39.47,37.808,57.711,39.026,56.698,66.476,34.472,31.971,89.428,31.334,44.986,-167.965,44.386,49.663,57.402,48.285,64.436,49.129,1.623,-8.749
3.38959770000019,24.113,34.845,-105.966,60.033,43.002,26.875,-146.077,98.189,53.648,36.356,35.208,54.58,39.499,56.641,54.626,31.876,29.89,87.289,30.791,40.842,-169.846,43.317,47.052,58.882,37.478,60.785,47.031,-2.477,-8.74
3.40448930000002,31.261,32.248,-116.619,56.899,44.496,26.335,-178.206,106.288,54.107,34.783,32.612,52.476,38.435,46.338,57.133,27.745,20.638,75.931,22.563,38.24,-170.701,39.688,41.882,54.725,22.071,60.212,45.447,0.087,-19.49
3.40862150000021,44.55,28.118,-123.162,51.719,43.427,27.846,-145.24,106.182,52.516,32.187,30.018,50.374,35.323,42.706,58.613,26.693,18.056,74.318,15.368,36.152,-175.653,33.5,35.692,43.911,26.148,57.078,41.815,-2.987,-29.717
3.42029709999997,35.796,14.769,-122.014,38.86,30.064,7.838,-112.307,73.8,35.045,14.224,17.692,39.565,25.554,43.175,37.55,18.982,15.989,75.269,11.767,29.456,-185.724,26.807,31.046,36.183,34.318,45.238,37.163,-16.817,-35.322
3.42036319999988,27.051,17.316,-117.794,34.21,36.694,2.195,-144.47,65.017,31.423,10.624,18.187,44.137,25.528,48.768,37,21.012,19.559,80.316,20.464,34.55,-183.489,33.952,39.212,49.467,30.186,50.828,40.712,-13.214,-24.016
3.43463010000005,44.442,33.693,-114.602,47.496,51.002,27.296,-176.601,97.74,51.372,30.593,35.587,59.462,39.847,58.453,60.017,33.286,31.322,90.994,33.764,48.347,-173.059,47.238,48.906,62.737,35.279,65.122,48.868,2.169,-9.648
3.43469420000019,49.521,36.733,-115.512,59.744,41.729,37.002,-180.523,108.401,55.931,39.784,41.699,58.378,44.418,56.857,57.907,33.253,35.39,89.879,32.193,47.275,-172.374,46.679,43.222,54.478,46.514,61.983,50.356,-0.907,-15.786
3.44957580000028,36.151,38.745,-109.761,63.27,38.613,33.379,-178.293,99.071,54.339,40.256,41.145,55.245,43.862,54.751,49.14,35.269,35.354,86.203,30.624,44.666,-174.763,47.145,42.667,54.935,42.881,61.409,53.892,-0.906,-19.356
3.46457809999993,42.775,41.781,-105.553,52.449,52.919,35.395,-145.327,101.533,60.432,40.728,41.104,58.776,46.892,60.332,61.899,39.332,35.319,87.654,32.13,44.109,-175.613,47.61,45.186,61.54,33.105,65.446,55.375,7.291,-16.775
3.46463459999995,43.757,18.685,-126.452,25.756,43.133,14.355,-112.394,79.915,42.953,19.683,22.62,45.91,30.963,44.902,55.177,18.288,17.865,66.561,10.069,23.06,-191.319,23.484,25.16,37.4,20.264,43.863,40.463,-11.671,-35.714
3.48132050000004,26.807,1.248,-145.793,22.144,22.085,-2.565,-144.557,61.392,25.492,7.368,11.839,35.618,15.051,27.439,35.654,3.413,4.527,47.027,-5.311,10.229,-202.911,10.14,14.377,19.945,3.85,26.401,31.201,-32.664,-44.9
3.48138419999987,37.026,23.276,-126.18,50.299,33.846,26.126,-176.688,94.118,46.983,35.025,35.905,51.976,35.528,46.879,50.475,23.39,24.503,70.546,21.335,35.834,-187.851,38.819,38.953,43.491,7.944,47.892,47.051,-20.848,-19.752
3.49469260000023,55.945,35.548,-110.172,53.322,50.718,36.859,-145.261,108.881,58.719,44.724,43.554,58.584,51.886,64.251,63.745,34.125,38.823,87.894,37.195,49.119,-181.515,52.613,47.623,56.255,22.281,61.164,54.689,-11.094,-17.683
3.49476050000021,43.081,19.118,-130.554,28.166,34.274,8.133,-121.037,76.496,35.094,18.039,20.969,41.619,31.854,47.28,44.726,19.234,22.39,70.388,16.665,30.626,-200.289,31.043,29.645,38.268,17.648,43.684,40.289,-18.255,-44.305
3.50965760000008,37.915,20.636,-135.547,30.699,23.993,10.686,-153.191,71.809,30.961,16.997,22.485,41.578,25.162,38.524,40.582,18.19,19.294,71.342,17.161,33.157,-201.626,32.549,34.226,38.742,20.704,41.591,39.737,-15.163,-34.015
3.50972300000012,53.246,36.497,-116.968,54.235,47.023,36.291,-156.624,96.84,49.373,41.058,44.492,61.004,43.068,49.244,60.522,32.004,34.131,90.226,40.71,54.641,-185.03,55.57,52.123,57.659,36.053,60.505,56.603,-7.463,-3.754
3.52472630000011,56.779,34.924,-119.413,60.328,57.735,33.693,-134.951,95.719,50.86,43.066,49.57,64.529,46.099,50.219,64.56,33.509,36.147,88.599,42.206,54.586,-188.431,58.589,51.046,57.601,32.43,65.055,60.133,-8.48,-12.972
3.52478990000009,56.21,33.352,-123.392,57.194,41.795,25.462,-122.52,85.377,45.686,36.876,44.91,56.78,41.954,50.169,58.347,28.352,33.549,86.461,33.455,47.872,-196.44,50.845,46.896,50.371,27.275,59.867,54.437,-6.935,-27.816
3.54059400000006,53.592,39.466,-106.875,59.699,44.315,30.56,-116.25,91.952,48.715,39.4,43.328,56.723,46.011,57.803,59.826,25.25,34.54,87.911,31.372,49.361,-194.194,47.208,47.362,51.858,35.445,59.295,55.92,0.244,-18.567
3.54066139999986,43.293,33.791,-111.378,58.614,64.763,29.505,-137.138,93.397,51.74,37.824,40.211,55.642,41.866,53.135,58.229,19.59,26.821,71.942,23.144,43.164,-200.148,39.989,38.093,45.146,25.163,50.526,52.79,-1.293,-19.573
3.55478989999983,46.836,20.95,-134.321,51.896,59.575,25.377,-161.592,87.668,48.102,31.638,35.048,49.438,35.164,44.885,55.61,14.959,19.109,63.673,14.412,36.973,-209.169,32.777,30.883,33.318,6.182,36.643,43.003,-18.198,-29.799
3.55485730000009,53.449,17.343,-129.063,47.745,43.122,22.79,-137.864,83.482,38.32,28.533,32.963,50.414,35.642,47.401,56.066,16.481,20.627,72.319,19.008,42.059,-204.862,36.33,35.462,38.407,10.275,39.168,42.448,-32.012,-16.962
3.56978750000007,45.711,26.547,-105.881,52.821,50.763,21.742,-104.939,81.349,40.331,31.066,40.103,58.048,38.68,52.989,56.522,21.588,26.754,75.32,30.26,50.214,-196.972,48.589,45.673,50.664,21.023,53.986,54.701,-16.61,-3.113
3.56985059999988,47.714,39.84,-101.164,60.452,63.008,28.893,-98.174,86.903,54.635,39.744,48.772,66.187,47.863,59.596,62.614,25.665,36.974,80.88,36.889,55.287,-196.775,56.225,52.287,49.077,26.125,58.543,62.843,5.435,-10.794
3.58477570000014,56.376,37.239,-113.358,56.806,51.162,30.401,-126.765,90.915,48.433,36.63,42.063,62.534,44.229,59.024,66.65,18.979,38.474,84.898,31.217,48.059,-203.751,45.923,43.526,39.294,24.05,48.238,53.559,-7.89,-19.493
3.5848390000001,45.561,25.419,-122.466,53.163,40.352,21.149,-158.913,82.115,30.966,24.298,33.824,53.763,28.815,47.695,57.874,11.275,29.214,75.591,22.989,39.302,-209.695,39.217,35.798,39.254,12.243,42.042,44.796,-25.301,-19.473
3.60065170000007,46.028,36.152,-112.098,61.819,55.169,27.788,-165.927,84.594,44.255,35.033,47.623,62.418,43.131,51.745,60.89,21.51,35.844,80.639,36.798,54.12,-199.751,59.67,52.156,53.56,20.427,57.369,58.583,-4.271,-11.769
3.60071530000005,68.011,52.51,-97.641,67.905,74.581,43.642,-162.175,98.854,62.654,53.953,62.432,76.7,65.117,68.087,82.858,33.784,47.592,96.952,54.18,68.922,-190.33,73.955,66.448,63.24,44.998,73.706,71.333,18.275,-3.048
3.6152474999999,67.43,41.186,-108.302,61.177,73.482,36.426,-156.377,91.583,48.759,40.067,52.636,64.84,46.097,58.286,83.287,24.529,34.224,84.56,37.732,50.41,-202.435,53.389,49.476,45.758,33.682,59.8,56.917,-0.186,-15.34
3.62988989999985,43.285,21.165,-133.809,53.943,55.478,16.409,-127.532,67.925,28.218,17.997,33.628,45.82,23.509,38.76,55.027,8.623,19.845,64.495,12.591,31.917,-220.163,29.257,28.422,19.585,4.959,33.612,38.929,-23.752,-37.867
3.62995230000024,32.995,15.508,-137.774,44.668,38.004,8.196,-122.281,59.148,23.579,15.418,26.934,47.311,27.584,39.745,38.578,2.466,22.387,67.505,14.628,37.008,-228.652,27.178,25.832,13.418,5.466,28.456,36.841,-23.728,-37.316
3.64489009999988,37.573,14.981,-129.951,33.865,39.503,10.237,-154.434,63.187,24.58,15.915,29.981,51.362,23.97,41.755,48.274,3.489,21.852,69.486,23.835,37.996,-232.522,35.348,31.441,20.064,8.535,34.063,38.853,-18.582,-27.033
3.64494839999998,40.609,21.626,-128.284,38.442,57.906,18.936,-181.944,72.858,31.215,20.51,36.611,51.311,23.434,40.176,65.131,8.608,21.83,69.929,25.86,37.445,-228.191,43.51,40.631,29.778,1.866,41.201,42.913,-15.489,-24.957
3.65986329999987,40.569,31.338,-122.008,54.285,65.021,30.7,-194.058,90.204,40.918,34.321,43.747,58.432,37.243,47.308,70.702,16.284,31.542,79.081,30.445,48.679,-223.352,47.052,44.177,37.945,10.573,51.406,48.505,-11.375,-20.833
3.66386009999997,42.065,34.38,-113.177,61.403,54.197,32.206,-206.159,95.236,38.828,35.312,44.727,60.935,35.669,45.212,65.508,17.292,29.974,77.977,28.365,46.068,-227.74,41.882,36.96,31.247,19.784,46.744,48.457,-11.876,-25.936
3.67676059999985,46.121,36.395,-113.576,58.78,53.631,25.514,-173.165,71.063,32.129,27.079,42.121,56.776,28.461,40.044,63.905,13.689,23.284,70.214,22.189,38.338,-229.561,39.279,34.362,23.531,16.178,37.475,48.921,-9.815,-30.008
3.67682650000006,46.075,33.797,-120.123,51.549,59.725,18.316,-140.204,46.401,31.584,26.028,40.03,56.719,33.043,47.176,63.842,11.626,28.384,73.218,26.778,45.472,-229.331,43.85,39.451,30.168,17.187,46.147,52.458,-7.756,-12.56
3.6900184000001,35.783,20.956,-131.786,40.226,48.907,12.663,-172.339,55.576,32.577,26.514,36.916,56.662,28.399,47.641,56.605,10.59,28.868,71.608,28.288,44.914,-235.25,43.806,35.313,30.65,17.682,49.687,48.307,-19.531,-14.084
3.69008389999999,32.673,20.423,-136.265,37.112,47.321,18.798,-204.443,83.697,38.18,31.611,39.441,56.606,26.834,45.032,56.549,13.141,24.228,67.438,24.674,38.721,-236.551,40.176,32.203,19.861,19.201,38.879,45.697,-25.66,-38.148
3.70501730000024,46.985,32.698,-124.345,45.784,64.692,34.148,-203.213,95.909,46.851,41.825,49.135,63.209,41.152,53.696,69.3,19.788,30.351,73.518,31.309,48.929,-232.729,41.161,39.344,18.816,28.404,41.914,54.873,-11.802,-27.864
3.70509700000002,52.061,35.739,-121.659,53.423,62.578,32.577,-170.223,86.079,44.243,36.148,48.574,64.683,39.061,51.593,70.255,20.28,32.37,73.445,33.839,51.954,-234.545,43.169,42.378,25.97,28.887,52.118,60.966,-2.056,-10.418
3.71996399999989,44.837,35.191,-132.296,55.419,49.195,20.761,-137.777,70.624,36.514,26.378,41.865,59.495,25.702,43.857,61.988,16.161,27.215,66.711,29.707,44.217,-235.848,47.736,43.873,36.19,27.322,56.165,59.88,-0.517,-30.387
3.72392870000021,52.989,37.205,-128.578,51.265,56.831,21.253,-139.688,65.943,36.477,30.45,46.946,58.923,29.263,50.473,65.512,19.731,32.311,71.255,35.312,51.858,-233.05,52.299,48.44,40.252,35.491,59.182,60.845,0.508,-38.554
3.73613079999996,63.695,28.458,-128.449,42.505,60.36,23.793,-171.824,76.123,33.367,28.883,46.899,57.327,29.746,46.836,69.545,20.224,32.278,71.696,36.302,51.293,-238.965,46.099,43.268,26.892,30.333,51.438,56.686,-9.226,-25.708
3.7361922,48.262,24.331,-143.178,41.95,49.029,22.745,-203.928,86.293,30.26,24.243,35.582,52.147,21.519,32.957,58.205,13.031,20.975,58.305,24.482,37.922,-247.947,39.906,35.54,18.668,20.056,42.166,49.969,-14.34,-26.706
3.75012670000024,35.918,33.529,-140.985,44.982,50.005,24.771,-170.936,80.571,36.89,32.416,37.083,52.095,27.133,38.047,51.487,13.018,21.979,56.197,21.896,39.421,-250.261,42.427,36.017,25.31,26.696,48.271,53.505,-7.153,-27.704
3.75018970000019,48.177,29.909,-132.647,35.715,53.029,19.623,-137.977,68.707,37.877,31.871,43.194,51.53,31.204,44.157,55.534,15.055,27.592,62.801,22.387,41.943,-252.06,37.774,31.882,16.063,23.083,45.661,53.964,-15.855,-33.312
3.76507570000012,53.765,20.145,-141.736,35.167,50.414,13.968,-170.115,71.2,35.79,25.179,37.003,50.454,26.562,39.502,57.527,11.966,25.003,59.152,18.266,35.241,-254.37,33.638,30.826,7.85,12.814,36.906,46.225,-23.524,-45.574
3.76513539999996,42.952,32.933,-135.447,49.989,58.048,25.225,-202.22,87.011,43.439,36.425,39.015,55.015,32.171,44.073,57.47,18.101,28.564,60.117,26.445,42.378,-248.992,44.875,43.09,25.773,25.609,47.628,50.79,-4.545,-22.987
3.78010760000006,38.811,38.535,-120.454,49.427,54.404,26.737,-187.673,88.461,41.859,35.364,41.025,51.373,31.114,44.542,54.339,20.133,28.024,61.082,30.004,44.385,-248.743,45.855,39.974,24.722,27.12,49.117,56.374,-4.541,-4.521
3.78422120000005,40.309,20.053,-134.679,37.594,35.906,7.755,-196.195,71.466,25.935,13.299,24.59,38.514,11.615,27.591,44.038,5.768,13.139,45.652,12.556,27.435,-261.814,27.878,22.003,1.131,-1.084,30.113,45.047,-33.225,-36.792
3.79614880000008,40.781,17.472,-143.765,42.68,43.555,9.284,-179.605,68.321,25.909,17.384,22.516,40.525,11.604,23.465,43.482,5.762,10.564,38.946,6.908,26.383,-264.114,25.289,22.493,5.741,-5.693,30.083,39.879,-32.68,-44.952
3.79621369999995,43.814,29.238,-124.154,47.76,57.856,22.595,-146.637,75.937,34.593,31.199,36.838,48.169,24.912,34.2,53.172,17.539,16.701,48.128,14.586,35.578,-257.702,33.973,30.668,17.518,20.952,36.712,48.036,-16.253,-12.119
3.8102229000001,41.721,17.937,-124.03,32.855,42.429,7.203,-177.742,66.639,24.824,10.676,25.019,38.899,11.055,28.53,46.971,8.813,8.487,42.445,5.862,25.808,-266.666,23.693,21.928,1.107,34.251,23.868,44.914,-26.483,-19.792
3.81029350000017,40.142,4.6,-141.324,25.65,30.091,-6.637,-209.839,64.011,16.09,-3.68,11.161,33.225,-1.252,16.719,37.19,1.632,4.893,35.743,1.245,20.659,-273.572,17.009,18.832,-5.042,25.508,20.258,35.136,-36.703,-46.924
3.82516170000008,43.689,11.255,-140.158,35.871,40.82,9.764,-208.093,83.415,24.783,16.304,23.958,44.975,15.656,25.411,48.936,15.462,16.159,48.514,13.539,30.885,-264.589,28.263,28.035,5.209,17.798,29.972,38.174,-27.957,-41.242
3.84013700000014,38.009,12.268,-135.92,32.249,43.34,15.389,-175.097,76.672,29.369,23.972,29.057,46.467,20.763,33.07,54.01,19.033,15.63,50.515,11.989,27.78,-265.349,26.697,24.933,0.081,20.854,22.769,43.771,-24.343,-40.688
3.84020360000022,33.361,7.133,-136.808,19.409,33.563,1.542,-142.134,49.443,21.143,12.165,19.806,36.174,7.935,21.766,39.099,8.768,5.881,36.12,2.243,17.506,-272.256,16.937,20.297,-5.554,21.345,17.624,41.678,-26.88,-40.648
3.85528680000016,47.672,11.224,-130.524,25.025,34.042,2.565,-174.267,55.029,18.56,14.202,23.373,39.212,11.513,16.622,37.523,10.296,9.973,39.158,7.364,22.612,-266.348,24.605,26.937,8.284,9.028,30.926,42.149,-25.316,-19.602
3.85535250000021,48.649,9.164,-135.516,29.098,46.303,9.735,-206.368,73.929,25.202,19.311,27.96,47.37,21.748,25.314,46.707,18.482,17.136,46.803,9.918,27.712,-263.52,30.728,26.91,14.423,7.483,31.407,44.668,-32.463,-25.218
3.86922619999996,30.669,-0.579,-147.676,13.7,55.991,4.602,-176.96,68.22,29.787,17.243,24.346,43.736,18.14,26.314,46.148,17.952,14.045,41.633,6.834,25.123,-266.331,23.012,20.735,2.625,23.869,18.568,39.501,-43.702,-55.419
3.86928699999999,32.176,0.446,-143.43,8.051,49.275,2.548,-143.996,59.442,27.708,17.738,25.346,41.131,14.536,21.164,45.59,15.372,11.469,40.567,10.926,28.172,-264.015,23.502,24.301,-2.5,25.894,20.599,36.9,-41.096,-56.388
3.88417870000012,41.877,10.179,-135.09,19.314,39.492,7.668,-176.127,65.53,24.607,15.671,25.833,43.651,14.009,25.754,50.155,19.968,17.093,46.674,15.526,32.242,-264.263,32.187,30.936,8.261,17.671,31.337,44.547,-29.272,-36.352
3.88423950000015,32.102,15.292,-132.905,25.442,43.551,15.858,-208.226,80.834,32.779,19.754,29.393,46.682,20.142,35.462,51.642,29.681,24.761,52.775,20.121,32.21,-262.462,35.229,33.467,15.937,28.925,33.355,47.064,-24.632,-29.656
3.89916700000003,32.07,16.302,-130.211,25.929,49.143,26.6,-178.817,94.073,46.579,36.128,39.098,50.733,33.442,43.623,56.201,37.336,28.322,58.358,27.785,36.788,-251.954,34.169,33.433,10.286,31.457,31.272,43.431,-28.194,-36.798
3.89922410000008,46.382,13.212,-134.692,20.78,48.069,23.5,-145.85,81.171,39.872,34.042,36.497,50.17,31.872,43.58,59.731,36.274,25.732,56.763,22.122,39.313,-252.214,32.598,28.789,3.103,2.224,27.142,45.949,-34.313,-49.569
3.91608510000015,42.75,9.1,-142.241,12.562,50.07,6.058,-134.946,54.963,20.877,12.491,25.702,42.435,16.471,34.315,53.524,28.554,21.096,49.021,12.366,31.589,-261.183,30.004,25.687,2.588,-8.024,20.967,46.416,-42.988,-61.303
3.91615069999989,32.973,7.554,-145.685,21.259,48.483,4.515,-167.086,61.568,24.442,12.479,26.701,38.807,17.479,31.206,47.835,26.988,23.124,48.46,17.477,30.021,-258.361,27.925,26.173,2.073,15.038,21.971,42.271,-42.945,-65.34
3.92933510000012,38.575,12.157,-147.589,35.582,42.287,17.318,-176.141,81.998,38.25,28.348,32.31,43.379,27.708,36.811,48.299,34.133,29.248,51.998,22.583,36.651,-253.491,27.384,25.122,5.657,18.096,27.072,43.765,-28.558,-53.491
3.92939939999997,42.123,20.342,-136.171,26.325,48.905,17.301,-143.177,75.769,33.601,29.857,32.79,47.434,27.68,36.774,52.349,36.661,29.731,52.97,19.486,36.102,-253.75,31.968,28.171,16.41,7.32,29.094,47.82,-24.943,-21.675
3.94435800000019,39.519,23.908,-115.03,14.003,57.053,14.21,-127.152,66.471,27.932,24.704,31.22,47.387,27.652,36.737,56.395,34.063,27.14,52.917,21.516,34.529,-252.472,36.034,36.34,23.053,20.633,33.676,50.334,-30.553,-4.235
3.94443469999987,37.943,22.347,-117.476,22.698,54.434,20.343,-154.177,75.626,36.613,27.24,31.701,46.827,29.161,40.286,56.339,35.053,28.65,48.254,20.982,37.056,-252.219,31.9,33.742,20.981,26.247,36.204,51.308,-22.326,-28.821
3.95929729999989,32.27,18.226,-138.876,25.75,54.38,17.761,-176.052,77.088,37.089,27.213,30.133,45.755,24.009,36.148,53.721,33.994,28.109,42.058,13.277,32.92,-253.504,25.208,24.999,16.862,3.167,29.508,46.646,-21.279,-55.432
3.95935559999998,29.676,12.572,-138.737,12.916,53.813,7.497,-179.462,66.764,26.806,22.063,24.467,44.685,21.424,30.988,53.667,28.836,23.982,43.552,12.239,27.252,-252.226,26.207,26.511,16.845,-2.471,23.843,41.989,-37.139,-43.082
3.97614720000001,33.744,16.658,-114.52,13.928,46.587,13.125,-187.992,70.284,28.828,24.09,27.004,45.153,26.013,30.957,54.638,31.881,22.421,47.095,21.448,33.885,-249.412,36.427,36.218,26.562,21.097,31.504,47.582,-25.831,-15.886
3.97621370000024,30.637,28.425,-101.597,27.234,45.003,24.895,-185.755,82.509,37.509,28.164,36.711,47.669,27.012,31.439,52.535,35.948,24.961,44.486,29.111,39.486,-243.015,44.075,41.817,39.855,27.736,41.206,52.657,-3.264,-7.673
3.98984100000007,27.02,23.273,-116.865,24.133,48.032,15.136,-160.466,71.156,30.299,18.915,31.039,44.547,19.812,33.969,49.92,31.814,22.886,38.807,25.496,33.299,-242.772,36.859,37.677,39.303,10.29,35.529,47.482,-19.654,-19.961
3.98990370000001,34.165,9.418,-136.216,12.326,44.398,-2.809,-162.355,46.494,11.825,4.551,17.176,35.281,9.034,33.423,49.358,25.634,15.179,33.132,16.761,25.581,-247.652,26.576,27.906,27.993,-0.991,23.198,40.262,-40.127,-42.483
4.00440419999995,33.107,12.482,-137.104,10.264,37.693,-3.319,-194.468,46.96,5.154,3.01,17.158,32.685,5.439,20.582,46.235,20.998,9.528,29.001,12.646,22.482,-242.282,28.599,26.853,24.891,7.719,22.663,39.709,-28.304,-56.785
4.01935360000016,24.364,21.179,-127.233,15.889,36.119,7.955,-193.761,64.843,16.419,10.691,22.777,37.263,11.069,19.024,42.09,20.977,15.154,32.046,15.195,25.021,-232.818,30.619,34.511,32.039,21.544,28.276,43.768,-19.054,-44.945
4.01941070000021,29.975,17.571,-116.348,22.533,37.62,12.046,-166.415,69.389,28.186,14.779,23.779,39.275,16.693,34.374,42.561,27.103,24.873,38.161,15.692,28.582,-234.634,25.466,33.964,38.154,21.01,25.686,45.261,-30.306,-18.26
4.03439669999989,28.921,8.845,-116.231,17.9,32.459,7.935,-198.524,71.369,26.108,16.301,22.73,37.186,16.676,32.803,41.493,22.978,21.262,35.049,8.504,22.405,-237.474,20.829,23.172,33.505,8.693,16.439,40.093,-40.009,-14.656
4.03836490000003,15.572,5.762,-131.997,3.538,22.693,4.341,-217.281,76.421,20.959,16.285,17.072,33.563,13.074,19.45,33.255,13.221,12.531,27.33,2.86,15.211,-233.138,18.247,19.05,25.275,6.123,12.836,36.979,-37.92,-38.207
4.05032100000017,27.852,14.465,-134.426,7.632,27.793,3.312,-184.276,60.975,24.012,14.219,20.129,33.529,12.548,27.628,32.709,18.331,20.203,36.524,7.468,22.88,-227.269,23.864,28.252,34.471,11.753,25.631,44.627,-25.587,-45.341
4.05038659999991,45.755,21.111,-119.435,19.92,39.548,1.772,-151.304,44.008,22.451,11.131,27.793,36.57,14.073,36.309,43.435,22.923,28.38,48.27,11.047,27.98,-222.943,34.086,31.298,44.683,8.667,35.851,49.705,-20.95,-31.464
4.06460629999992,29.827,9.819,-124.951,6.068,37.46,-0.791,-183.428,50.112,10.646,5.997,20.081,31.41,7.911,19.879,43.904,12.654,14.007,34.39,3.351,18.219,-224.77,26.368,21.533,29.781,4.56,24.032,44.532,-32.713,-38.604
4.06467150000026,19.039,6.223,-140.195,-2.135,32.811,1.259,-192.466,57.746,10.635,6.503,15.962,27.792,2.78,9.101,39.762,12.642,1.185,17.962,3.348,19.737,-222.496,20.194,20.487,22.579,11.728,17.861,47.049,-34.217,-50.861
4.07960570000023,32.34,21.586,-134.419,18.359,37.902,9.454,-159.486,58.713,23.432,16.231,27.729,34.937,10.462,20.362,46.382,20.826,12.967,27.677,15.64,32.013,-211.515,36.567,31.737,38.438,16.839,36.798,56.224,-19.326,-31.343
4.07967360000021,28.721,18.491,-131.724,16.292,34.79,6.883,-191.602,62.753,17.773,12.628,20.529,32.853,7.377,23.928,41.725,13.12,16.028,30.211,11.013,23.272,-215.914,33.457,25.045,36.35,7.088,34.2,50.02,-23.917,-21.065
4.09462750000012,12.299,-7.656,-144.399,-16,18.361,-12.079,-223.686,51.419,-0.688,-8.389,-1.008,16.426,-13.635,8.535,21.703,-2.262,-0.894,11.738,-10.002,3.268,-231.58,3.197,4.528,13.772,-10.337,1.89,29.99,-53.607,-45.123
4.09874709999986,11.774,-16.357,-149.378,-26.742,12.707,-22.313,-190.674,30.363,0.85,-12.991,0.018,14.36,-15.158,2.379,19.12,-3.284,1.156,11.726,-10.505,4.802,-225.2,0.12,2.474,8.123,-16.987,-6.821,22.788,-66.873,-62.496
4.11049090000006,24.058,-3.021,-144.106,-9.297,29.601,-7.946,-198.168,39.042,13.657,5.465,16.411,30.74,7.399,19.283,36.519,10.551,23.184,32.719,10.51,22.728,-208.069,22.149,19.89,18.874,-2.625,13.678,36.085,-46.826,-56.798
4.11055540000007,39.403,10.815,-129.617,5.057,42.379,6.919,-230.245,62.057,19.791,16.73,25.104,41.468,20.199,38.219,46.216,22.836,30.846,41.908,22.283,33.464,-205.812,28.787,29.604,30.126,11.722,25.448,48.856,-30.386,-43.421
4.12463090000028,41.925,11.316,-118.217,4.539,34.14,4.35,-197.228,58.409,22.333,13.64,25.079,37.84,16.593,36.644,41.047,19.227,25.692,36.231,16.625,29.844,-210.729,23.123,24.964,36.243,-1.61,22.348,45.221,-37.015,-30.058
