Timestamp,Cz,Fz,Fp1,F3,C1,C3,T7,C5,CP5,CP3,CP1,P1,P3,O1,CPz,Pz,Oz,O2,P4,P2,CP2,CP4,CP6,C6,T8,C4,C2,F4,Fp2
0,-1.157,-8.396,-342.419,-50.537,0.704,-18.355,-3.844,-15.213,21.165,-7.708,-4.141,1.851,0.916,10.827,6.953,34.342,67.06,27.046,-5.403,10.568,42.663,4.644,22.369,17.251,-61.494,4.965,-14.749,-13.251,-172.433
6.93000001774635E-05,-2.693,-11.974,-350.786,-56.122,1.728,-24.996,27.923,-26.469,19.095,-4.627,0.474,5.948,7.575,13.891,12.07,37.382,72.629,30.605,-0.275,11.07,46.719,11.3,27.47,22.357,-61.945,8.546,-9.611,-7.091,-190.704
0.0108086999998704,-5.251,-17.085,-363.755,-59.14,-4.934,-27.533,0.23,-37.201,17.539,-9.233,-6.699,3.38,2.444,3.63,0.787,31.709,67.945,23.915,-10.52,3.886,42.574,5.141,24.369,21.822,-65.981,4.951,-17.798,-10.67,-195.636
0.0108771000000161,-5.759,-23.215,-361.342,-68.302,-9.54,-37.751,-32.045,-39.213,8.812,-22.544,-18.475,-8.918,-11.903,-1.496,-12.022,23.993,59.68,24.403,-17.682,-1.753,38.945,-1.012,18.709,18.214,-66.94,0.848,-24.953,-29.102,-178.022
0.0258277000002636,-5.753,-30.877,-367.128,-70.283,-8.505,-44.886,-22.792,-41.223,0.094,-30.206,-22.555,-12.496,-18.551,4.141,-14.059,18.846,62.182,28.477,-19.201,-7.899,39.419,-5.11,12.543,5.388,-48.942,-8.374,-26.465,-38.807,-191.676
0.0258939000000282,0.913,-20.6,-365.737,-50.745,-3.886,-32.546,5.408,-32.472,11.364,-20.442,-13.823,-0.7,-9.823,11.821,-5.848,24.975,71.342,31.01,-14.571,-2.255,47.576,-2.543,15.092,5.895,-45.82,-7.854,-21.315,-21.862,-208.391
0.0408664000001409,7.06,-0.087,-338.219,-37.374,2.778,-22.267,31.53,-23.218,23.648,-9.15,-1.514,6.473,-0.592,20.519,5.429,38.27,77.93,40.201,-0.725,12.091,59.824,10.779,25.835,26.894,-66.778,12.646,-8.486,-0.323,-177.444
0.0448010000000068,2.442,-4.185,-331.22,-53.218,1.238,-31.466,20.74,-36.515,9.28,-17.85,-3.562,0.831,-7.251,23.572,3.886,35.158,74.779,44.771,2.35,10.542,60.277,13.843,25.297,22.768,-60.564,17.245,-7.965,-6.47,-162.922
0.0574031000001014,0.39,-17.501,-352.918,-62.899,-2.862,-35.533,-11.556,-44.676,-0.463,-24.493,-11.243,-0.194,-12.367,19.45,-3.29,27.95,70.093,41.653,-3.8,4.896,56.63,5.632,20.661,4.815,-32.326,2.37,-16.667,-20.808,-189.911
0.0708792000000358,6.538,-15.434,-358.713,-54.639,-0.297,-28.325,-19.229,-29.774,11.833,-13.197,-5.596,3.904,-2.621,14.307,-0.213,34.07,73.097,41.611,2.864,11.552,62.721,11.262,26.275,11.982,-39.466,4.93,-14.601,-19.763,-191.77
0.0709461000001284,3.457,-17.98,-351.694,-55.609,-3.371,-32.908,13.578,-33.843,11.821,-13.184,-5.078,-0.71,-2.618,4.559,-2.262,32.499,67.388,35.934,1.324,9.491,64.708,14.324,24.2,12.995,-64.018,10.048,-13.049,-24.354,-178.259
0.0859095000000707,1.404,-24.11,-351.343,-56.578,-6.441,-41.584,29.446,-49.69,3.612,-24.442,-14.295,-5.32,-12.35,-5.179,-10.969,22.733,54.001,21.553,-14.559,-1.277,59.008,0.99,13.417,-0.85,-63.954,-2.258,-18.159,-32.014,-191.4
0.0859739000002264,8.063,-12.815,-344.844,-42.689,0.737,-30.784,17.633,-33.759,13.855,-17.245,-10.182,-0.704,-5.677,-3.637,-5.835,25.271,56.508,21.02,-13.52,3.335,62.535,-0.036,14.941,4.786,-64.402,-5.329,-16.604,-22.248,-194.283
0.100912599999901,3.957,-6.655,-332.203,-38.036,-0.288,-15.384,-2.364,-11.696,25.624,-3.395,-1.975,0.321,0.476,-0.56,1.343,28.32,63.112,27.146,-5.309,8.967,66.571,5.6,15.438,8.367,-77.658,-1.225,-16.588,-18.128,-177.182
0.100972700000057,-4.244,-16.894,-335.97,-47.732,-8.997,-19.98,-10.559,-16.295,18.938,-9.027,-7.096,-4.29,-9.77,-5.17,-5.318,21.632,54.852,17.898,-14.526,0.249,63.43,-5.677,4.664,-11.109,-68.871,-13.007,-23.743,-33.991,-185.202
0.116517100000237,1.908,-23.025,-349.466,-55.369,-4.377,-29.181,19.678,-29.599,8.673,-19.265,-10.675,-6.847,-15.908,-9.775,-8.386,20.585,49.674,8.146,-20.146,-4.362,65.416,-11.819,4.147,-21.344,-50.359,-21.704,-24.232,-42.154,-207.046
0.116583800000171,9.59,-21.977,-348.092,-58.387,3.312,-25.566,48.86,-38.279,5.079,-15.659,-7.591,-3.254,-11.282,-6.692,0.843,25.176,58.334,21.458,-8.855,6.401,72.523,2.025,15.414,-10.564,-60.042,-9.899,-18.572,-34.94,-199.155
0.131004800000028,9.068,-14.271,-332.375,-51.669,6.382,-18.88,22.683,-37.728,7.123,-7.447,0.614,4.946,-4.098,3.561,8.527,32.323,68.521,40.904,5.498,19.714,80.647,18.929,28.206,8.914,-57.933,9.067,-11.894,-23.634,-171.291
0.131072900000163,6.498,-1.449,-326.919,-39.322,12.011,-19.374,-9.615,-30.518,10.702,-6.927,8.81,11.089,0.517,12.267,12.105,39.463,73.064,40.863,12.665,22.256,89.276,26.083,40.473,24.275,-25.087,18.279,-4.71,-10.803,-162.41
0.146050199999991,3.93,-4.521,-335.814,-40.307,7.389,-24.99,-29.073,-31,9.154,-14.092,2.654,6.467,-4.094,8.668,10.044,33.275,67.355,26.99,5.48,13.524,85.6,19.909,37.871,20.152,-23.013,13.65,-7.266,-9.255,-175.568
0.146112500000072,2.901,-16.3,-343.163,-48.976,-6.963,-30.088,-34.167,-35.579,9.145,-16.127,-7.595,0.313,-9.726,-0.05,3.373,20.947,57.042,17.741,-6.309,8.388,78.343,10.155,24.001,11.422,-55.265,7.489,-13.407,-18.467,-184.614
0.160956100000021,4.948,-12.185,-344.356,-45.341,-4.907,-23.91,-1.345,-27.859,19.894,-5.865,-0.415,3.386,0.018,0.975,1.833,26.049,61.083,19.261,-5.79,9.916,85.949,10.657,25.002,16.534,-50.087,11.067,-9.295,-15.375,-183.405
0.161015700000007,9.041,-4.488,-344.524,-39.148,9.955,-14.664,31.444,-24.245,28.584,0.801,9.831,7.994,9.752,7.634,6.442,34.732,68.707,21.29,-4.247,10.931,95.597,12.184,29.075,14.468,-17.249,12.081,-5.7,-9.212,-185.27
0.177964800000154,14.155,-12.681,-347.254,-49.867,16.092,-18.236,30.9,-32.93,21.895,-2.786,4.699,7.986,2.057,4.553,10.534,29.062,62.49,19.22,-11.415,8.359,92.427,6.536,18.8,1.134,-29.527,2.847,-12.866,-21.498,-189.184
0.191160299999865,4.919,-21.889,-345.882,-62.625,8.392,-24.365,-1.406,-31.873,12.652,-6.882,-4.528,2.342,-6.654,-6.723,3.351,23.91,54.231,14.078,-18.064,3.227,86.699,-2.692,9.047,-6.04,-61.773,-7.402,-20.026,-35.821,-191.556
0.191231199999947,-13.529,-22.38,-335.29,-55.902,-1.863,-21.267,-24.459,-20.57,14.176,-8.412,-8.622,-5.857,-6.135,-11.839,-8.947,21.324,50.59,8.428,-20.095,-2.924,81.49,-8.325,7.501,-12.181,-65.81,-12.517,-24.104,-33.736,-192.389
0.191274199999953,-8.904,-20.308,-328.294,-43.551,-0.836,-17.147,8.354,-18.5,21.334,-5.842,-4.515,-1.753,-2.543,-7.217,-4.328,20.791,53.614,8.932,-12.39,0.153,82.433,-2.169,11.592,-9.608,-49.35,-8.407,-22.543,-24.481,-186.049
0.206094799999846,10.06,-16.189,-330.015,-40.946,9.411,-12.007,25.764,-17.457,27.973,1.849,5.736,9.007,5.144,2.525,13.095,31.016,66.88,23.78,4.016,12.961,96.695,12.178,23.364,8.333,-40.079,5.947,-13.299,-15.747,-179.715
0.206161600000087,6.976,-10.538,-325.075,-36.806,11.963,-8.409,11.393,-15.39,29.482,4.921,8.292,9.511,8.725,8.157,13.082,39.182,71.936,34.002,7.598,16.534,102.746,12.678,26.927,11.911,-33.892,10.551,-10.724,-11.121,-184.146
0.221069600000192,-4.302,-9.503,-315.016,-33.696,8.877,-13.524,-0.914,-17.424,24.329,-0.72,3.161,4.378,2.057,3.538,1.286,32.995,63.155,21.161,-3.168,8.833,93.934,3.956,17.166,-3.471,-42.055,1.319,-14.812,-13.159,-188.061
0.221143300000222,4.924,-4.37,-309.578,-33.15,15.016,-10.949,-5.011,-13.821,22.255,2.355,7.256,8.985,4.104,1.998,7.432,32.962,65.141,9.357,-1.116,10.361,98.963,11.125,18.686,-1.418,-54.308,4.392,-8.137,-12.121,-179.163
0.236787800000002,17.215,9.467,-309.268,-21.334,19.612,2.382,14.974,-6.122,32.992,14.136,14.421,13.074,15.37,9.681,21.257,42.663,74.81,20.106,9.132,19.06,111.672,21.36,28.401,11.391,-53.741,17.707,0.58,-1.35,-169.25
0.251438100000087,8.488,14.068,-312.545,-14.652,13.957,5.966,36.988,-9.19,36.033,14.634,10.82,8.45,12.281,6.085,18.162,41.083,68.587,22.135,5.024,14.942,106.437,13.142,21.2,4.208,-58.298,13.591,-3.519,-2.374,-171.643
0.251502800000253,-3.303,5.857,-311.72,-23.347,11.381,1.862,16.459,-14.304,24.213,6.422,7.223,4.856,0.486,-8.778,6.873,34.895,56.223,6.743,-2.666,7.243,97.109,5.444,9.908,-6.555,-65.925,2.819,-9.151,-13.642,-176.082
0.265995400000065,8.483,7.388,-300.65,-20.762,17.005,5.446,-13.784,-6.605,24.189,11.027,12.339,7.925,1.51,-6.208,10.965,38.958,60.266,9.81,0.411,12.871,104.697,15.172,13.997,0.624,-54.588,7.427,-6.068,-8.505,-173.344
0.266054700000041,23.331,13.528,-294.714,-10.495,22.111,9.539,-14.282,-0.963,34.411,16.139,12.839,12.015,8.169,6.094,18.126,41.993,69.939,23.633,3.997,16.956,112.277,19.768,20.643,5.234,-40.701,12.543,-2.475,-0.3,-169.072
0.280970300000263,5.89,0.707,-301.591,-23.804,16.454,1.332,7.249,-11.72,26.18,3.315,1.043,5.855,0.476,3.014,6.325,33.242,67.308,15.412,-1.643,7.205,106.017,7.453,14.474,-9.628,-41.685,0.747,-10.157,-16.693,-174.026
0.281028500000048,-16.658,-16.2,-305.901,-43.761,1.58,-14.038,40.029,-28.615,12.834,-9.496,-8.179,-3.884,-9.259,-5.698,-7.514,23.987,59.043,3.614,-9.326,-1.511,95.664,-1.776,4.726,-21.402,-48.816,-11.549,-20.393,-33.583,-180
0.295058799999879,-3.833,-9.524,-299.447,-36.545,-1.495,-12.999,48.699,-23.463,23.579,1.272,-0.999,1.755,4.071,3.016,1.203,30.623,66.669,14.881,-4.706,5.151,102.229,6.422,8.82,-11.646,-55.939,-2.828,-14.225,-24.328,-170.086
0.299026700000013,13.589,9.954,-287.365,-10.893,14.9,10.58,16.375,3.713,45.073,21.25,14.884,17.635,26.096,19.407,15.546,48.523,83.509,32.285,9.131,18.978,122.619,20.761,26.742,7.321,-54.859,15.618,1.158,-6.373,-155.571
0.312014200000249,3.329,13.017,-287.589,-4.734,18.984,16.204,1.501,10.881,46.565,20.717,13.844,14.031,22.996,18.363,11.432,50.524,80.351,28.666,8.61,16.909,123.521,17.154,26.715,4.752,-50.705,13.553,-0.892,-6.366,-167.711
0.312094299999899,-4.871,-6.976,-315.479,-27.271,-0.503,-9.427,14.82,-8.085,27.05,-3.382,-8.711,-5.451,-1.618,-1.123,-5.998,30.493,57.729,7.121,-14.453,-3.6,105.979,-5.405,0.048,-21.893,-66.024,-9.515,-18.822,-29.414,-190.085
0.32515740000008,3.843,-17.215,-329.508,-41.076,-7.162,-17.615,10.194,-13.712,18.314,-13.113,-16.387,-10.056,-9.301,-10.343,-13.676,19.705,51.012,-1.083,-25.709,-13.33,108.434,-14.621,-8.149,-34.679,-81.839,-17.702,-21.365,-44.754,-182.723
0.325225500000215,6.913,-0.291,-296.391,-28.739,5.14,-0.179,31.189,-3.965,33.665,6.368,0.023,3.786,5.053,0.938,-3.416,34.029,65.305,13.262,-10.314,1.54,125.232,-0.262,10.815,-21.836,-64.339,-3.852,-10.585,-23.704,-160.511
0.340148100000079,4.345,5.857,-269.454,-23.075,6.672,1.871,63.945,-8.572,40.804,16.096,6.683,10.442,10.683,8.622,4.272,45.266,71.388,20.934,-0.058,12.297,127.156,9.984,16.439,-14.642,-45.832,2.812,-4.939,-4.213,-163.936
0.340214000000287,6.902,-7.469,-295.313,-29.712,2.054,-7.353,31.606,-20.346,23.857,3.784,0.016,4.797,3.5,4.002,3.755,40.61,65.681,18.863,-3.644,8.699,126.004,7.413,9.763,-18.726,-52.958,-0.777,-6.471,-19.065,-176.58
0.355210900000202,11.506,-6.437,-312.948,-33.269,4.102,-8.37,-0.701,-21.863,12.05,-1.343,-0.496,3.255,0.423,0.924,5.288,37.496,63.566,21.918,-2.103,9.202,132.538,8.43,15.389,-15.121,-61.102,1.785,-6.465,-28.268,-172.817
0.359330000000227,9.957,0.742,-297.266,-39.895,5.122,-10.411,18.767,-23.89,16.136,1.732,0.529,6.326,-0.09,-2.15,3.746,40.02,64.527,21.384,1.998,12.267,135.48,14.569,20.496,-9.471,-63.602,6.907,-4.921,-19.018,-168.034
0.372050100000251,7.898,-1.308,-292.358,-36.269,9.728,-4.765,51.536,-19.255,24.829,5.829,4.627,8.368,3.497,-1.636,3.23,43.054,65.487,15.727,4.557,12.255,139.955,22.239,22.013,-6.9,-60.977,11.51,-0.306,-16.438,-166.841
0.372116200000164,13.013,3.816,-294.627,-17.79,14.329,6.511,67.366,-5.404,31.977,13.508,12.819,8.872,10.665,6.05,11.936,44.035,67.471,19.298,7.626,15.829,142.889,26.316,28.138,-2.282,-41.961,18.671,1.744,-12.835,-161.551
0.385268399999859,7.365,0.738,-290.234,-26.482,2.019,-3.23,52.954,-10.009,23.748,4.273,1.024,-1.383,-1.128,-1.64,6.289,33.233,58.694,10.057,-5.189,8.128,129.938,13.482,17.864,-8.427,-37.308,10.456,-7.479,-14.359,-168.05
0.3853352000001,-14.16,-19.755,-300.19,-51.046,-12.84,-21.157,30.36,-27.418,7.33,-16.224,-19.47,-15.726,-21.107,-25.717,-16.259,18.342,42.241,-10.445,-26.701,-12.885,118.538,-6,-1.621,-24.813,-64.423,-10.047,-17.718,-36.374,-182.738
0.400251099999878,-11.072,-12.563,-303.988,-36.65,-4.63,-11.915,29.817,-17.656,17.569,-6.474,-10.741,-9.05,-12.377,-24.155,-13.169,21.91,45.273,-2.75,-23.6,-11.335,128.153,-4.969,3.503,-23.251,-73.068,-9.012,-12.065,-37.874,-177.945
0.400317900000118,15.067,10.504,-285.753,-15.097,7.158,2.954,48.23,2.341,35.994,13,5.151,5.303,5.054,-3.126,3.75,32.647,59.06,13.646,-9.232,5.583,136.734,5.794,15.283,-12.469,-54.04,4.829,-3.344,-11.709,-167.009
0.415291600000273,7.88,1.784,-284.443,-30.963,1.515,-7.295,56.891,-10.469,23.151,1.204,-7.662,-1.874,-4.685,-7.733,-8.549,24.93,52.341,1.337,-16.907,-2.62,129.425,-0.359,3.484,-19.629,-58.596,-2.861,-10.512,-12.21,-166.329
0.432191599999896,-15.694,-12.05,-299.528,-38.104,-5.659,-18.046,45.051,-29.926,8.271,-11.092,-19.437,-12.118,-16.463,-24.12,-22.373,17.22,39.993,-9.935,-25.087,-14.4,124.172,-8.556,-4.204,-26.27,-85.178,-14.641,-18.699,-26.542,-165.651
0.432255300000179,-5.945,-3.841,-291.544,-20.648,-0.018,-10.856,12.731,-21.699,16.459,-1.86,-7.635,-4.422,-6.713,-17.435,-8.518,23.863,46.613,-1.728,-13.279,-0.554,129.684,-0.862,5.534,-15.485,-98.925,-6.429,-11.508,-19.855,-167.022
0.445376200000283,6.357,-0.251,-280.494,-24.213,5.618,-6.746,-9.823,-15.53,15.931,-0.321,-0.455,1.218,-1.071,-5.635,3.274,29.987,56.813,7.495,-6.606,6.619,134.165,3.237,5.529,-13.42,-89.604,-1.3,-5.861,-22.909,-173.515
0.445444899999984,-4.92,-3.837,-288.922,-36.997,2.026,-13.4,22.974,-34.982,6.693,-4.931,-4.04,0.705,-4.144,-3.58,-1.853,34.055,62.391,19.271,-10.698,0.465,134.031,1.697,2.962,-23.653,-57.239,-4.885,-8.929,-33.645,-172.317
0.460376900000028,-5.94,-0.247,-294.781,-29.275,1.512,-14.923,55.739,-46.73,9.76,-0.316,-1.987,2.753,-0.553,-2.04,-2.875,39.144,66.94,24.375,-5.052,6.612,133.897,7.33,11.156,-26.703,-38.227,-1.294,-5.334,-20.291,-171.632
0.460442000000057,4.312,-0.247,-296.536,-29.758,5.609,-13.884,23.408,-33.363,11.287,-3.389,-3.522,2.75,-0.553,-5.624,0.714,33.47,60.213,8.469,-7.608,6.093,131.201,5.786,9.095,-23.603,-65.341,-1.805,-6.353,-14.123,-179.657
0.475379100000282,4.82,0.266,-298.288,-39.462,3.041,-14.894,-8.891,-24.108,11.788,-4.41,-6.592,2.235,-2.602,-10.741,-1.849,26.776,54.517,2.825,-19.384,-5.696,128.508,-2.417,2.426,-18.456,-81.669,-7.95,-13.007,-27.429,-176.916
0.475440000000162,0.204,9.999,-288.768,-27.64,2.014,-10.781,23.905,-31.257,20.486,8.914,3.148,5.819,5.086,-2.021,-3.896,33.922,63.684,16.654,-13.217,-1.079,130.941,4.758,13.182,-8.191,-53.411,-1.283,-8.383,-21.766,-167.518
0.49214800000027,-5.944,9.989,-285.918,-24.538,0.475,-9.233,11.074,-34.812,15.342,6.856,3.145,2.227,4.568,-0.482,-6.454,31.839,61.059,11.002,-9.105,-0.054,126.712,7.827,12.657,-11.769,-46.697,0.256,-5.813,-12.523,-171.961
0.492215700000088,-9.524,-1.804,-297.415,-43.469,-10.284,-15.372,-21.213,-29.141,7.642,-6.471,-12.227,-5.46,-6.195,-14.826,-13.107,16.95,44.604,-7.964,-27.539,-12.861,113.778,-8.574,-6.311,-22.516,-76.365,-14.602,-18.103,-23.781,-177.937
0.505822200000239,-4.391,-2.314,-294.044,-38.303,-9.761,-12.282,11.596,-19.891,19.93,2.245,-10.166,-3.917,-1.578,-16.348,-13.606,17.957,46.097,-4.882,-29.561,-9.262,112.639,-8.053,-3.231,-14.809,-77.825,-15.099,-17.06,-25.807,-167
0.505910800000038,-4.387,-0.263,-290.164,-28.53,-0.53,-7.659,43.86,-16.285,23.496,5.829,-2.983,-2.889,1.498,-12.746,-11.031,23.063,49.637,-1.803,-19.285,-3.618,117.137,2.201,5.994,-10.696,-58.792,-6.887,-8.846,-18.609,-163.759
0.520385600000282,-12.579,-12.558,-305.755,-49.506,-6.677,-17.386,25.373,-26.002,10.665,-12.108,-14.764,-10.57,-15.922,-25.029,-16.656,13.818,37.292,-16.146,-31.561,-15.397,108.311,-10.609,-6.82,-24.517,-64.368,-15.59,-19.083,-28.324,-184.6
0.520449800000279,-8.468,-13.57,-298.789,-46.383,-7.695,-17.368,58.135,-27.513,16.802,-7.997,-14.236,-9.535,-14.369,-27.053,-14.59,13.804,38.279,-14.593,-34.603,-12.82,107.178,-13.16,-5.276,-18.857,-76.087,-14.549,-20.089,-31.369,-189.027
0.535338700000011,-0.775,4.887,-269.289,-13.549,10.243,2.117,59.614,-6.993,32.667,15.577,8.319,2.77,9.211,-11.144,2.331,29.672,54.122,7.963,-11.002,5.123,120.391,7.858,13.684,1.142,-75.499,4.421,-1.626,-19.555,-159.636
0.550314399999934,-3.336,7.956,-269.532,-19.171,12.282,7.75,27.279,1.211,30.073,15.049,10.36,5.328,8.69,-11.133,6.427,33.228,56.117,13.078,-6.381,8.192,118.734,11.436,10.085,-4.495,-67.226,6.978,-0.599,-18.511,-150.255
0.554224500000146,-2.82,-3.835,-278.996,-42.718,-0.538,-8.139,28.789,-19.795,18.772,-0.335,-5.019,-4.411,-7.713,-21.368,-3.826,23.461,46.327,-2.817,-16.62,1.012,109.393,2.203,0.853,-17.298,-52.815,-0.714,-8.283,-16.443,-169.06
0.554271500000141,1.793,0.267,-262.836,-31.404,-3.099,-17.353,61.548,-34.632,10.044,-6.483,-9.625,-7.48,-10.779,-24.933,-6.896,17.29,39.621,-9.986,-17.116,-4.112,111.333,2.713,1.877,-12.67,-53.274,-0.713,-3.664,-4.131,-152.497
0.566071499999907,2.816,12.05,-231.322,-13.955,2.54,-10.163,37.92,-27.938,9.522,-3.402,-2.955,-1.837,-7.182,-24.396,-4.327,19.322,43.167,-1.779,-18.124,-4.108,114.296,2.198,-0.174,-9.071,-73.713,-0.712,-1.612,5.607,-119.557
0.566138600000159,11.01,22.284,-198.303,-0.621,12.783,4.192,41.981,-15.614,25.906,10.946,8.831,6.874,1.534,-11.051,1.825,31.598,59.518,13.592,-10.421,9.216,118.792,10.393,10.072,-3.939,-63.905,6.461,0.952,24.044,-88.186
0.580381799999941,17.147,32.508,-165.317,19.872,16.357,8.798,63.968,-9.451,35.101,18.619,10.871,7.892,10.754,5.354,5.409,36.177,68.168,20.751,2.91,16.379,124.309,20.629,23.382,5.799,-39.763,16.188,8.635,36.316,-68.118
0.580450599999949,2.785,27.865,-144.147,19.34,-1.59,-5.555,31.629,-14.565,18.673,0.158,-8.608,-5.436,-3.089,-4.386,-8.941,17.698,55.292,8.947,-13.487,-0.544,108.303,2.165,4.915,-2.916,-63.29,1.315,-0.595,12.713,-35.262
0.595381800000268,-4.902,21.177,-119.925,13.685,-11.835,-15.283,30.06,-22.235,10.969,-9.064,-16.796,-12.603,-15.381,-17.189,-20.203,8.459,49.601,1.766,-26.281,-9.765,96.411,-10.133,-5.848,-14.696,-80.645,-10.47,-12.377,3.991,-2.44
0.610443099999884,15.595,44.209,-87.017,38.775,9.181,4.712,62.818,-10.942,31.963,15.023,7.299,4.828,6.151,-2.315,-0.202,30.48,64.921,19.182,0.385,10.225,119.369,18.567,19.773,6.323,-47.776,16.181,5.566,36.775,15.494
0.614471599999888,32.998,69.781,-74.635,59.741,33.763,30.835,76.587,13.148,49.862,36.525,28.297,19.68,25.1,9.983,23.364,45.306,71.516,29.921,15.754,25.584,134.106,35.967,32.561,29.37,-17.502,40.756,26.053,68.501,29.311
0.626319800000147,23.743,65.612,-88.392,58.144,34.242,32.341,44.235,19.795,44.689,31.366,20.584,11.976,14.317,-3.347,21.291,32.965,60.174,15.035,-0.656,17.362,120.652,20.561,19.209,18.583,-39.514,30.981,20.391,58.187,30.818
0.626400000000103,7.838,58.374,-96.501,56.037,17.301,20.013,53.412,5.43,32.349,21.601,9.292,4.791,5.081,-19.225,11.024,25.248,49.867,1.7,-6.803,7.098,117.97,13.369,12.017,6.781,-52.795,17.63,11.661,43.784,16.443
0.640500900000006,7.83,61.902,-104.089,49.833,10.624,14.87,86.147,-5.334,27.706,21.067,12.357,9.397,8.662,-17.157,12.55,29.833,51.354,3.235,-3.21,8.116,124,16.941,12.517,17.533,-54.279,21.711,14.724,36.568,7.205
0.640565900000183,14.995,60.303,-119.866,39.537,20.859,18.442,54.297,2.356,32.289,23.095,16.443,9.9,10.19,-9.455,16.123,28.267,56.426,3.232,-5.768,10.157,119.777,15.387,13.53,19.052,-65.495,23.226,15.221,35.506,-1.512
0.65552230000003,15.492,56.657,-140.239,43.084,25.449,24.571,21.968,11.063,36.867,27.683,16.939,9.89,12.229,-9.958,13.033,26.189,57.907,3.228,-2.176,10.659,120.17,15.372,15.053,7.25,-61.844,19.617,12.132,39.569,-32.761
0.655586800000037,14.964,53.014,-162.128,43.04,25.936,28.645,47.561,8.49,36.83,34.315,23.07,17.053,18.365,-8.923,15.07,34.36,63.484,15.008,2.949,15.259,126.197,17.406,10.939,8.78,-46.413,21.646,15.194,29.284,-61.417
0.670527100000072,17.511,44.252,-177.847,26.091,34.107,23.493,65.957,-0.227,33.207,31.207,26.633,19.597,18.346,-1.23,22.227,37.399,67.007,22.678,-0.64,17.805,123.51,15.852,9.392,12.869,-46.878,24.186,18.253,14.91,-59.819
0.674511000000166,7.759,33.449,-195.6,7.11,25.876,5.539,53.083,-15.596,19.854,13.245,11.749,7.795,4.496,-7.376,13.495,23.53,52.595,7.286,-10.886,8.054,113.652,9.688,7.845,0.049,-62.713,13.916,9.525,12.846,-72.567
0.686644800000067,-11.204,21.12,-226.655,-9.291,-1.814,-14.959,45.858,-32.487,3.953,-4.187,-6.706,-6.558,-11.903,-27.349,-7.523,8.137,37.686,-10.652,-23.17,-8.348,100.219,-6.203,-5.995,-11.222,-86.217,-1.467,-4.317,-2.536,-104.77
0.686712600000192,-14.779,12.39,-245.384,-17.991,-7.448,-19.043,24.295,-25.282,7.023,-4.183,-8.748,-8.088,-11.891,-29.883,-10.589,5.567,44.308,-6.543,-25.196,-11.414,96.02,-9.783,-9.575,-6.6,-100.475,-3.515,-6.874,-22.002,-120.547
0.700637599999936,0.093,18.013,-244.626,-9.264,7.416,-0.068,13,-1.691,24.946,9.654,2.531,0.629,2.466,-14.996,2.742,13.758,52.973,4.734,-10.827,-0.132,110.269,7.645,4.779,1.603,-88.079,6.735,1.842,-16.344,-111.717
0.700705700000071,7.778,19.532,-257.19,-7.205,10.995,12.227,45.775,2.41,31.581,17.841,10.213,3.702,7.586,-14.981,5.813,18.355,45.748,1.143,-6.717,4.479,115.794,9.174,5.287,0.065,-73.134,8.777,4.402,-14.279,-129.024
0.715562500000033,-2.989,3.631,-283.572,-27.69,4.836,-2.13,62.123,-14.499,21.816,8.602,1.494,-2.961,-2.667,-29.823,-3.415,9.116,39.042,-9.616,-22.592,-7.308,99.284,-9.79,-10.088,-12.743,-81.258,-7.113,-5.849,-33.732,-161.17
0.715624899999966,-11.695,-5.082,-293.535,-38.421,1.245,-13.911,29.785,-23.194,12.573,-4.215,-10.803,-7.569,-11.374,-31.843,-8.022,0.91,42.077,-7.045,-28.205,-13.449,95.086,-10.805,-9.053,-13.243,-91.423,-15.303,-11.478,-36.772,-173.816
0.73061800000005,-6.048,5.169,-286.581,-25.063,1.757,-3.138,29.755,-16.511,15.122,-2.674,-5.669,-2.439,-6.239,-17.978,-1.866,8.593,50.232,7.307,-13.32,-0.627,108.311,6.112,6.837,10.337,-76.474,3.668,-0.708,-22.903,-167.495
0.734703900000113,-1.431,8.75,-285.27,-20.427,-1.319,-1.086,56.878,-11.883,19.717,3.989,2.021,2.687,1.451,-10.276,-0.84,13.708,56.841,13.447,-4.085,6.545,107.691,11.741,10.929,22.11,-52.832,14.935,6.465,-23.905,-154.52
0.746707499999957,-12.188,-6.628,-299.33,-37.313,-12.076,-20.552,39.403,-24.167,9.964,-7.286,-11.813,-6.025,-9.821,-18.975,-13.647,0.374,50.125,0.626,-16.888,-8.83,92.214,-1.591,-2.914,6.718,-62.513,-3.011,-7.886,-39.25,-157.951
0.746772100000271,-20.885,-20.966,-318.498,-51.108,-17.187,-30.778,21.945,-39.512,-5.416,-24.185,-24.097,-16.777,-27.229,-30.739,-23.879,-12.434,36.754,-11.158,-34.802,-22.142,83.412,-18.495,-15.719,-3.535,-92.164,-17.865,-22.735,-46.895,-188.02
0.760704799999985,-12.667,-18.383,-324.327,-48.495,-6.924,-19.989,22.947,-34.862,-3.361,-15.963,-15.363,-11.638,-20.542,-31.733,-17.195,-7.299,38.255,-7.561,-33.231,-14.947,87.94,-15.915,-12.117,4.154,-91.047,-10.675,-15.54,-43.262,-206.275
0.760772200000247,-1.384,-5.557,-316.83,-40.762,4.354,-6.136,10.117,-14.847,13.549,3.008,0.021,1.182,-3.615,-20.943,-1.809,3.98,49.487,2.693,-15.267,-1.1,96.561,3.569,1.215,13.371,-70.464,2.144,-0.156,-35.535,-186.088
0.775685000000067,-3.944,1.108,-314.977,-38.16,5.886,1.554,29.062,-5.61,23.269,8.64,7.194,6.304,-1.563,-12.212,4.853,8.586,55.073,6.789,-7.054,4.537,96.977,10.737,6.849,21.554,-65.783,9.314,2.918,-33.962,-170.021
0.775765400000182,-8.551,-3.504,-319.785,-40.171,2.807,-1.009,61.821,-14.826,18.123,5.558,3.6,3.224,-5.147,-17.323,0.237,4.992,51.432,1.659,-16.269,-0.591,87.658,-0.544,-2.892,19.996,-69.303,3.669,-4.769,-38.539,-184.195
0.790730199999871,-8.542,-14.771,-323.051,-44.741,-6.418,-13.303,52.537,-25.57,9.395,0.429,-8.699,-3.952,-6.679,-24.991,-8.984,-3.21,44.72,-5.003,-26.499,-9.812,77.837,-11.302,-15.184,3.582,-77.431,-14.265,-11.424,-46.697,-193.745
0.806627500000104,-7.509,-18.855,-329.388,-43.16,-14.608,-17.901,20.209,-24.007,7.849,-6.744,-12.276,-5.997,-11.795,-19.33,-12.049,-5.256,47.749,2.687,-26.472,-7.753,73.66,-10.266,-11.07,-0.008,-88.624,-17.325,-9.876,-53.311,-186.891
0.806692800000292,-1.866,-9.102,-332.645,-30.309,-8.958,-12.247,12.504,-15.786,12.452,-9.811,-4.067,0.156,-12.296,-9.065,-6.402,-0.64,58.46,14.98,-18.761,0.964,76.148,-0.01,1.748,18.948,-76.752,-2.963,-2.182,-46.085,-183.63
0.820813600000292,2.746,-4.482,-326.677,-31.815,2.322,-13.772,5.832,-18.332,8.853,-11.85,-4.063,-1.381,-10.234,-10.08,-1.272,-0.64,56.352,8.817,-18.23,-3.135,76.584,1.015,-0.303,24.052,-60.794,-3.472,1.407,-43.99,-185.496
0.835766300000159,-2.379,-17.285,-330.449,-54.837,1.807,-21.443,12.486,-33.171,0.135,-15.937,-11.231,-9.064,-17.909,-17.242,-6.907,-6.787,45.025,-3.487,-28.97,-11.841,66.262,-12.306,-13.622,3.536,-77.639,-18.838,-4.742,-62.389,-196.581
0.835829399999966,-8.525,-23.928,-341.389,-55.807,-6.392,-18.86,40.138,-37.236,1.672,-12.335,-12.757,-8.03,-20.965,-16.713,-15.097,-11.391,43.956,-0.922,-34.577,-11.83,57.486,-18.442,-17.195,-6.714,-91.394,-25.992,-11.398,-68.986,-219.951
0.835872500000278,-9.541,-15.195,-334.9,-31.673,-8.947,-12.181,20.63,-26.953,5.769,-7.712,-11.207,-7.51,-14.796,-19.258,-14.057,-12.916,46.473,3.177,-31.981,-11.818,61.015,-15.349,-15.128,0.465,-79.52,-26.478,-10.874,-59.696,-218.706
0.850921799999924,-11.068,-17.741,-326.368,-33.178,-7.401,-15.755,-11.666,-25.901,-3.459,-17.95,-14.27,-13.65,-19.904,-33.071,-14.555,-15.977,39.767,-4.511,-39.633,-18.978,58.392,-20.457,-21.261,-6.196,-92.76,-35.161,-11.888,-70.907,-188.774
0.8509853999999,-8.496,-28.994,-331.677,-48.002,-10.468,-21.375,21.134,-32.023,-7.554,-25.617,-19.379,-12.099,-28.594,-34.575,-20.688,-20.06,36.141,-8.092,-45.229,-21.521,51.162,-25.047,-23.289,-15.923,-124.943,-38.712,-19.048,-81.594,-186.024
0.867733000000044,-2.852,-20.768,-321.612,-32.072,-7.383,-15.718,53.9,-23.282,5.774,-12.783,-13.212,-3.378,-16.27,-14.048,-12.983,-14.404,46.863,3.187,-31.864,-10.228,56.234,-11.19,-8.921,0.487,-111.498,-23.304,-11.344,-61.533,-203.768
0.867800200000147,-10.533,-10.501,-302.847,-19.233,2.87,-9.042,28.231,-13.012,14.99,-4.061,-2.44,-2.35,-7.032,-7.886,0.35,-5.168,52.452,10.868,-22.61,-1.509,61.3,-0.42,1.334,10.732,-78.599,-10.985,4.549,-51.737,-198.441
0.881965399999899,-20.257,-19.2,-312.79,-36.12,-1.743,-14.156,-4.073,-16.585,5.753,-15.328,-11.659,-11.569,-24.443,-28.37,-8.36,-13.36,37.03,-1.95,-34.883,-13.803,50.481,-13.228,-11.987,-9.771,-71.348,-22.757,-2.628,-69.617,-194.657
0.88203169999997,-13.577,-22.767,-327.334,-36.083,-11.988,-18.753,12.838,-20.155,-1.937,-22.485,-23.943,-16.681,-33.128,-35.514,-20.134,-24.617,29.821,-10.658,-39.971,-23.523,42.233,-21.411,-21.197,-12.323,-103.552,-31.956,-13.896,-66.985,-203.684
0.895860500000254,-3.829,-5.326,-309.076,-11.969,-1.73,-8.488,45.613,-18.086,7.799,-9.143,-7.013,-5.906,-14.652,-17.548,-8.331,-10.248,47.209,7.284,-27.124,-6.081,51.413,-4.484,-4.269,12.281,-97.301,-13.993,5.073,-39.254,-190.672
0.895921199999975,-3.825,2.364,-294.935,-12.982,7.494,-2.844,22.001,-18.58,14.451,-2.986,5.802,2.297,-9.002,-10.871,-2.687,-0.504,53.31,12.912,-23.51,1.61,53.923,1.156,4.956,12.268,-64.416,-4.245,16.338,-32.555,-176.649
0.910958100000244,-4.334,-14.544,-315.645,-34.998,-4.809,-17.186,-9.784,-27.783,0.604,-18.864,-12.647,-7.439,-24.362,-28.79,-15.492,-16.385,34.813,-9.643,-35.782,-14.786,39.524,-15.751,-12.467,-9.773,-83.819,-23.196,-2.633,-53.527,-191.842
0.911022799999955,-2.793,-20.165,-332.235,-34.963,-6.341,-22.804,23.013,-31.853,-4.52,-22.432,-15.196,-9.481,-21.776,-35.934,-11.891,-17.393,35.803,-6.559,-35.234,-12.722,36.411,-14.198,-15.528,-10.788,-104.74,-28.296,-3.143,-60.645,-196.773
0.92766470000015,-3.302,0.347,-311.923,-16.997,9.034,-3.314,40.409,-16.452,14.44,0.132,8.898,8.459,-1.262,-14.893,6.052,2.604,56.26,23.161,-17.268,9.32,50.207,7.845,6.516,4.08,-79.019,-4.19,21.451,-37.019,-180.695
0.927730299999894,-3.299,12.13,-291.631,-11.857,10.562,7.961,8.093,-3.628,21.598,8.842,10.938,8.451,-1.261,-7.706,5.534,2.089,54.667,18.015,-13.152,7.774,49.644,10.399,8.559,7.149,-78.94,5.036,25.528,-19.563,-180.002
0.941004199999952,-2.271,1.872,-304.659,-22.604,2.355,-4.343,8.085,-15.92,7.232,-7.049,-2.393,-7.951,-18.166,-27.678,-3.181,-11.745,38.73,-4.032,-27.484,-7.091,33.713,-3.444,-5.794,-2.592,-104.989,-8.801,13.719,-32.351,-186.994
0.941083700000036,1.83,-1.204,-316.65,-21.556,6.451,-5.363,40.864,-18.466,6.712,-6.529,4.27,-1.283,-12.512,-29.7,3.994,-5.586,40.741,4.169,-25.407,0.089,34.704,1.682,2.409,-4.638,-85.417,-6.743,18.316,-41.54,-184.246
0.956033700000262,4.39,5.457,-305.063,-4.116,14.641,10.524,8.548,4.094,20.538,9.359,13.999,10.501,4.407,-14.813,10.65,6.203,48.897,12.361,-11.037,12.384,44.915,14.488,15.726,2.539,-65.351,5.047,28.032,-32.79,-182.012
0.956101000000217,-1.25,-3.257,-305.27,-6.674,13.602,5.39,15.712,0.504,16.931,0.128,5.276,0.757,-5.332,-23.508,0.394,-1.488,41.164,-4.557,-18.711,2.125,34.624,6.277,4.952,-1.05,-97.561,-3.155,21.344,-36.855,-184.904
0.970971600000212,-6.884,-16.574,-323.92,-30.233,6.416,-14.595,48.484,-28.186,4.107,-16.779,-5.488,-7.441,-22.745,-37.317,-6.779,-15.319,31.901,-11.725,-32.524,-9.66,18.708,-7.049,-7.861,-14.881,-108.734,-18.521,9.54,-51.675,-193.428
0.985992500000066,-7.902,-14.508,-331.281,-33.789,0.774,-13.556,19.746,-28.67,8.713,-11.639,-5.482,-3.335,-17.599,-31.644,-3.186,-13.254,34.43,-1.467,-25.832,-6.064,16.128,-5.505,-4.779,-17.94,-75.838,-22.089,9.018,-51.111,-206.555
0.989918600000237,-10.968,-13.469,-329.412,-20.948,2.31,-4.321,-12.549,-12.247,15.365,-4.967,-2.915,-2.819,-11.434,-31.1,-5.232,-8.63,37.47,1.608,-21.195,-4.009,14.062,-4.987,-1.188,-15.361,-72.688,-21.042,12.595,-47.986,-201.738
1.00296780000008,-6.859,-14.48,-328.058,-17.341,6.919,-6.366,16.153,-13.26,10.738,-8.548,0.162,-2.304,-12.447,-32.093,-6.764,-11.183,35.895,-1.467,-27.322,-5.542,10.462,-4.982,-0.162,-13.808,-103.866,-14.874,15.656,-46.914,-183.093
1.00304009999991,8.005,1.928,-314.41,-10.663,12.035,0.301,48.412,-10.685,15.851,-0.855,8.358,5.383,-3.725,-17.717,4.001,-6.049,42.52,0.584,-19.61,4.71,17.112,6.806,5.473,-4.573,-97.102,-0.002,23.837,-29.448,-184.447
1.01608170000009,10.559,18.832,-292.579,-0.919,18.683,17.719,16.088,3.671,27.618,11.953,15.01,9.988,3.963,-12.064,11.682,3.179,51.699,6.731,-11.906,11.878,22.218,11.922,7.005,1.067,-67.804,6.658,31.498,-14.05,-185.287
1.01614930000005,4.401,18.301,-282.553,-2.967,22.763,20.263,40.663,5.204,24.004,12.966,17.044,7.929,0.885,-16.662,10.133,2.151,50.622,10.822,-17.017,8.792,17.072,7.299,5.461,-2.52,-68.248,3.578,33.004,-17.622,-159.998
1.03001339999992,9.519,18.795,-281.245,1.134,22.74,15.119,73.41,0.076,21.931,11.929,17.027,7.921,1.909,-13.572,12.172,1.124,48.01,12.861,-12.901,11.857,15.006,16.001,12.115,1.068,-73.303,7.673,34.507,-12.481,-151.641
1.03007170000001,12.071,19.801,-281.989,10.867,19.131,16.129,51.82,1.1,30.618,11.917,15.473,10.474,4.469,-16.12,13.697,4.197,49.499,13.36,-5.204,14.919,13.967,23.67,18.763,7.215,-64.521,16.374,37.035,-4.784,-169.933
1.04503190000014,4.887,13.633,-287.854,6.758,19.112,16.113,19.492,2.636,29.563,12.417,17.507,11.489,3.952,-21.739,11.634,5.217,49.962,12.322,-7.248,14.904,9.342,20.06,15.671,8.745,-81.362,13.284,38.534,-18.099,-159.004
1.04913859999988,9.493,15.669,-289.616,4.189,25.753,15.584,21.522,3.146,27.997,14.454,21.588,11.477,8.559,-14.033,14.184,8.798,51.961,12.822,-4.167,21.037,7.283,22.601,14.118,13.347,-105.872,9.172,39.52,-24.741,-140.402
1.06109259999994,18.705,14.629,-285.74,4.698,21.116,9.421,43.53,-1.468,28.993,8.804,12.345,8.392,3.427,-14.531,11.096,4.179,46.274,4.613,-7.236,13.844,1.128,17.456,11.542,5.649,-88.347,6.089,33.333,-19.081,-167.414
1.06116090000023,7.415,-0.243,-287.504,-11.189,4.189,-3.908,53.22,-12.225,17.693,-2.476,0.037,1.211,-9.896,-31.935,-3.26,-9.146,32.908,-9.224,-26.185,-6.15,-12.705,-2.029,-0.252,-14.849,-66.742,-8.262,23.566,-26.234,-193.887
1.07526060000009,-1.814,2.831,-289.265,-13.227,6.234,2.243,40.872,-6.065,20.237,5.211,8.746,2.747,-0.153,-28.317,-3.769,-4.013,36.973,-3.067,-22.572,0.516,-12.693,-1.003,-0.764,-12.785,-71.798,-10.815,26.104,-26.72,-174.738
1.07532609999998,9.971,21.784,-280.267,11.377,22.622,23.758,16.24,13.921,41.734,21.6,24.107,14.527,19.315,-10.87,13.654,11.872,53.33,12.305,-0.52,20.495,-1.921,18.466,13.581,5.158,-68.653,6.614,35.812,-14.398,-157.144
1.0901530000001,16.109,15.102,-282.548,8.804,18.501,19.123,6.49,5.198,30.421,12.869,15.886,10.926,7.513,-17.519,15.689,5.713,46.104,3.583,-10.254,9.204,-7.555,17.423,11.006,6.178,-70.633,6.608,34.751,-23.605,-166.721
1.0902288000002,3.797,-3.869,-300.709,-17.332,6.187,-9.073,19.803,-25.546,-1.372,-10.71,-1.036,-7.015,-16.573,-36.969,-0.72,-9.15,28.64,-11.277,-30.736,-9.76,-22.404,1.524,-3.862,-3.05,-97.715,-10.305,26.52,-40.488,-176.288
1.10517410000011,0.208,3.308,-299.383,-10.655,16.427,-10.088,52.571,-29.619,5.802,-8.137,4.6,-2.397,-11.434,-32.834,0.305,-1.969,35.783,-1.532,-19.434,2.032,-17.259,6.133,4.851,-0.998,-92.494,-5.684,31.104,-30.714,-175.6
1.10917760000029,15.577,23.797,-277.567,16.508,36.39,16.562,85.306,-5.511,34.485,19.023,26.625,19.634,12.656,-9.747,25.408,18.526,58.289,19.986,5.688,24.572,-1.36,30.205,28.925,20.008,-59.614,17.376,50.028,-7.629,-163.641
1.12109020000025,23.758,28.896,-274.728,17.004,37.379,24.23,59.093,6.79,38.549,28.225,31.721,22.176,20.328,0.509,32.555,22.606,64.379,29.7,13.367,25.572,-3.408,38.372,32.482,35.357,-58.53,26.58,55.614,0.575,-149.645
1.12115730000005,6.828,12.473,-292.896,-5.555,14.8,3.713,26.759,-6.537,19.043,4.119,10.173,4.223,-0.697,-17.423,4.857,3.115,46.383,13.789,-4.577,6.591,-24.409,15.792,12.982,14.317,-90.747,7.598,36.09,-15.819,-161.791
1.13522650000004,-9.06,-6.495,-303.874,-17.332,-1.609,-9.61,18.023,-20.875,6.728,-13.304,-6.744,-6.027,-17.09,-34.824,-14.103,-11.232,30.455,-10.815,-23.528,-4.686,-36.68,-4.204,-0.351,-10.8,-99.365,-14.439,21.71,-39.369,-178.023
1.15018959999998,6.318,-1.365,-294.861,-3.482,12.225,0.133,50.793,-14.194,16.968,2.079,6.071,3.713,-1.703,-23.518,4.867,0.562,41.696,-3.12,-11.209,6.077,-25.885,7.584,7.846,3.043,-78.773,-3.666,33.471,-36.768,-161.451
1.1652739000001,20.144,14.006,-280.221,13.939,34.242,13.453,66.111,2.726,31.295,19.495,22.971,17.541,16.229,-2.49,26.891,14.906,60.097,20.449,9.807,19.903,-12.027,25.507,20.646,20.971,-66.912,17.855,48.807,-16.239,-148.482
1.16533549999986,5.779,14.504,-280.966,8.29,32.158,11.39,57.848,3.748,29.727,15.377,20.386,15.474,10.577,-3,21.741,11.305,56.963,14.281,0.576,17.834,-15.088,21.383,18.576,14.29,-75.042,12.201,47.221,-10.075,-168.313
1.16537730000027,-0.887,8.342,-295.542,-2.477,19.319,2.67,54.204,-6.502,23.038,6.653,11.657,6.237,2.37,-16.829,7.375,3.609,47.172,-0.078,-15.307,10.131,-25.32,9.578,8.824,7.615,-81.114,2.455,38.465,-18.262,-174.293
1.18098180000015,3.725,3.21,-305.492,-7.085,13.664,-2.968,62.859,-14.692,13.793,1.011,5.497,2.645,-4.805,-22.96,3.269,-4.592,44.051,7.607,-13.754,4.486,-30.417,3.421,3.692,0.436,-76.422,1.428,32.791,-28.49,-162.848
1.18104630000016,-11.648,-8.064,-307.236,-18.349,9.039,-12.699,60.235,-26.461,0.459,-8.724,-1.681,-1.968,-18.632,-26.011,0.704,-12.272,40.421,8.112,-13.228,-3.716,-34.998,0.344,2.151,-9.811,-80.957,-10.356,28.147,-35.634,-174.98
1.19534190000013,-22.395,-13.691,-304.88,-28.576,1.346,-21.396,31.485,-33.094,-2.103,-15.376,-5.265,-5.553,-21.175,-33.157,-5.444,-10.21,37.307,-2.143,-16.289,-4.736,-42.135,2.393,2.149,-3.654,-97.27,-14.444,25.045,-39.184,-186.076
1.19540499999994,-6.491,-13.165,-300.476,-31.622,-3.266,-21.374,7.375,-29.475,1.998,-16.385,-5.26,-1.449,-18.08,-38.759,-5.951,-9.175,34.196,-4.702,-16.785,-1.658,-44.654,3.927,1.635,1.473,-106.394,-6.233,25.532,-50.416,-176.156
1.21035470000015,2.737,-17.763,-301.713,-34.152,-0.702,-17.255,14.028,-31.495,-2.615,-14.319,-6.279,-1.447,-20.111,-35.647,-3.384,-13.264,30.575,-4.185,-19.33,-5.755,-44.61,0.337,-0.416,-9.799,-103.214,-13.911,28.068,-57.026,-186.738
1.21042339999985,-4.95,-8.011,-300.386,-22.334,9.545,-6.479,45.265,-33,1.998,-3.034,2.949,2.653,-9.333,-23.828,4.817,-3.517,39.254,3.504,-13.675,1.423,-43.028,5.972,4.707,-4.154,-92.352,-13.385,34.7,-38.013,-202.433
1.22542590000012,-1.871,14.538,-281.131,-0.795,18.757,8.897,78.007,-20.672,17.878,10.289,17.29,17.507,7.583,-9.46,17.619,10.831,53.559,18.869,0.683,18.328,-36.325,21.336,17.51,15.83,-80.477,10.707,45.936,-19.02,-175.591
1.22549830000025,10.938,15.036,-269.579,-1.819,13.615,7.863,77.417,-13.479,16.835,9.254,16.248,17.49,1.94,-8.426,16.065,7.234,49.92,14.752,1.195,17.285,-34.752,22.851,19.03,17.864,-77.322,15.307,51.526,-24.636,-145.701
1.24233270000013,14.513,6.312,-283.654,-9.502,8.991,0.171,45.064,-12.953,11.183,6.171,10.085,5.689,-5.234,-19.176,6.827,3.128,41.673,1.93,-2.905,9.583,-40.353,19.242,12.35,14.772,-78.782,7.607,46.864,-24.099,-158.363
1.24240060000011,7.327,20.65,-289.006,7.926,21.79,12.466,33.748,-1.157,20.906,14.874,18.784,11.319,6.042,-19.669,14.505,9.785,47.267,10.125,5.808,16.746,-38.263,28.444,19.51,23.466,-81.265,19.895,49.891,-5.12,-171.013
1.2558113,6.295,29.851,-271.81,24.824,31.502,22.187,66.502,3.455,25.496,19.47,24.4,15.918,7.572,-15.551,21.663,7.214,49.781,16.262,5.802,17.754,-34.126,33.027,27.688,28.054,-83.745,24.998,58.55,-2.041,-161.108
1.25588870000001,9.362,12.915,-268.465,13.529,21.736,6.284,58.238,-10.893,13.687,5.106,9.007,2.07,-7.804,-26.293,10.371,-4.064,37.436,1.901,-11.623,3.904,-45.875,16.088,10.754,15.73,-79.563,7.042,47.733,-25.093,-163.508
1.27036910000015,-4.992,-4.004,-290.226,-8.514,6.346,-16.264,25.905,-26.251,-0.159,-15.392,-6.372,-5.617,-21.117,-37.026,0.114,-13.282,26.128,-10.396,-23.906,-5.834,-60.686,-3.396,-8.724,-3.753,-84.094,-9.871,29.242,-45.56,-185.886
1.27043210000011,-21.381,-9.123,-306.329,-13.628,-4.419,-25.469,58.667,-38.52,-8.356,-22.036,-8.927,-4.587,-26.219,-35.964,-6.034,-17.367,28.663,-8.849,-23.882,-8.39,-63.187,-4.417,-7.691,-10.409,-101.941,-17.546,28.7,-48.076,-200.045
1.28536699999995,-9.576,-8.602,-300.387,-0.807,-4.927,-19.809,91.396,-45.142,-5.786,-13.305,-4.307,-4.07,-19.532,-29.78,-8.589,-12.739,39.393,-1.667,-18.223,-2.234,-56.976,4.809,0.001,1.384,-94.666,-13.43,34.819,-37.269,-188.062
1.28543029999992,8.364,-2.445,-292.915,6.366,5.324,-8.006,59.029,-34.851,2.417,-4.582,2.357,0.033,-8.754,-22.066,-0.384,-6.066,42.939,1.92,-14.619,5.453,-52.821,5.316,0.001,5.993,-76.641,-4.707,36.834,-28.523,-166.869
1.30164120000018,0.671,-1.418,-297.233,-0.813,7.368,-11.584,26.694,-28.668,-3.221,-10.726,-1.744,-2.016,-16.43,-26.142,1.153,-13.745,32.65,-9.865,-23.313,-3.261,-57.379,-2.886,-5.122,-0.16,-104.229,-8.801,39.359,-29.519,-166.19
1.30170720000024,-7.526,-5.003,-293.349,-3.886,2.237,-19.769,28.717,-36.324,-12.951,-16.863,-9.426,-9.187,-26.148,-39.949,-6.02,-19.366,24.933,-18.564,-26.876,-10.43,-61.932,-1.346,-3.067,10.086,-127.691,-10.841,38.295,-32.563,-173.708
1.31559220000008,3.752,-0.387,-275.125,3.803,10.944,-5.917,57.89,-29.628,-1.155,-4.038,4.415,3.63,-10.24,-31.199,5.769,-5.515,35.667,-4.713,-10.968,6.998,-54.186,13,8.719,25.958,-94.775,4.026,41.842,-30.481,-160.727
1.31567290000021,9.896,4.224,-270.752,5.848,22.204,5.872,56.295,-13.717,16.264,8.774,18.243,15.41,6.164,-12.725,18.571,2.688,46.902,7.075,-3.272,14.676,-53.107,16.06,11.784,18.247,-62.917,6.584,48.461,-27.889,-153.394
1.33047720000013,-2.922,-3.977,-286.362,-3.379,13.473,-4.38,45.48,-15.24,9.588,0.056,4.393,1.05,-5.113,-21.422,4.72,-11.147,39.17,-0.105,-18.126,-3.269,-65.861,1.7,-1.548,5.421,-95.13,-9.304,38.166,-35.034,-167.585
1.33053830000017,-11.116,-12.682,-292.224,-11.06,4.238,-12.573,44.41,-25.471,-4.766,-13.264,-8.419,-9.71,-21.501,-37.794,-9.117,-24.456,24.786,-8.302,-30.403,-13,-72.968,-6.499,-8.206,3.879,-127.31,-16.467,25.832,-46.269,-176.639
1.34554179999986,-5.469,-12.67,-294.493,-11.562,3.209,-14.609,42.829,-31.593,-6.811,-15.813,-6.362,-8.676,-25.066,-40.318,-6.546,-25.456,19.126,-14.441,-30.373,-9.913,-73.407,-5.98,-7.174,-0.224,-114.375,-16.963,32.979,-48.785,-185.684
1.3605407,-5.464,-12.657,-304.957,-10.013,-3.454,-19.718,45.348,-34.123,-7.829,-16.821,-9.942,-11.228,-24.016,-45.4,-9.613,-24.918,20.132,-17.5,-32.392,-12.977,-76.408,-8.536,-13.314,-3.81,-107.601,-25.143,37.557,-48.224,-191.134
1.36471089999986,-13.655,-14.694,-297.48,-7.442,-4.988,-14.575,60.671,-26.916,-7.821,-13.731,-8.907,-6.606,-18.869,-41.257,-11.653,-20.795,24.722,-7.749,-30.31,-9.89,-76.331,-5.966,-14.325,6.953,-125.424,-24.093,31.371,-48.688,-169.938
1.3774741000002,-10.568,-10.068,-277.202,-1.799,4.751,-7.9,73.931,-19.717,0.896,-6.545,0.836,0.06,-11.678,-25.846,-3.445,-17.188,31.358,-0.057,-20.034,-1.171,-75.23,3.262,-6.627,13.093,-119.151,-12.286,33.902,-39.418,-157.985
1.37754010000026,-5.434,-4.423,-281.536,-1.285,1.16,-13.528,70.271,-23.796,1.408,-11.149,-5.313,-9.674,-15.765,-27.87,-6.003,-21.782,28.252,-7.741,-24.624,-8.855,-79.766,-4.938,-10.718,1.81,-88.293,-15.348,34.38,-28.107,-186.516
1.39072910000004,-12.089,-10.054,-297.648,-11.017,-11.136,-18.125,68.663,-29.408,-6.791,-17.798,-16.066,-15.299,-24.971,-42.186,-17.78,-26.883,17.978,-17.98,-38.944,-19.604,-80.198,-18.766,-19.929,-3.828,-92.303,-27.628,25.636,-36.276,-198.625
1.39079670000001,-14.126,-16.191,-293.252,-19.203,-2.416,-14.521,78.329,-30.403,-4.222,-10.095,-5.804,-6.063,-21.36,-41.632,-11.614,-22.245,16.935,-18.474,-32.245,-8.826,-72.433,-7.988,-12.737,9.496,-124.487,-20.94,28.172,-52.121,-170.25
1.40571839999984,-2.329,-5.929,-274.516,-11.499,17.566,-8.359,65.955,-25.762,3.979,-0.864,5.473,0.091,-10.58,-30.319,7.865,-12.489,28.189,-8.209,-14.795,6.552,-66.213,8.926,0.596,21.27,-120.776,-5.55,39.415,-47.971,-152.661
1.40578540000024,3.309,10.983,-263.995,9.517,23.184,0.871,37.2,-12.416,7.049,0.674,6.492,4.702,-6.983,-20.555,15.03,-6.841,40.457,4.094,-13.243,9.107,-62.049,7.892,4.181,20.736,-87.867,-1.446,44.499,-27.943,-155.07
1.42070090000016,-5.916,14.558,-266.292,16.167,15.989,4.969,44.847,-9.842,10.628,2.723,7.51,8.283,-5.439,-20.535,9.379,-10.421,39.904,4.603,-17.328,6.536,-63.524,3.274,-0.434,19.691,-83.169,-2.469,42.405,-20.743,-155.939
1.42477170000029,-12.57,3.273,-271.662,-5.366,9.313,-4.258,69.905,-24.689,4.982,-0.354,3.916,3.152,-5.946,-28.199,4.247,-12.972,30.13,-2.062,-18.335,2.431,-71.145,4.807,-3.507,20.696,-109.726,-2.979,39.801,-31.48,-162.443
1.43655089999993,-6.922,-3.903,-274.976,-20.73,10.328,-15.524,60.102,-34.398,-4.757,-8.551,-1.723,-0.95,-12.6,-35.855,7.316,-12.447,24.977,-6.158,-20.879,-0.645,-75.684,3.266,-2.991,14.527,-124.473,-7.587,39.249,-34.01,-178.675
1.43661599999996,-3.329,-2.874,-284.435,-13.024,10.318,-16.533,44.672,-34.364,-5.777,-12.128,-2.746,-3.51,-19.76,-42.479,4.747,-19.094,20.853,-15.886,-23.932,-3.718,-77.145,-1.349,-8.111,8.877,-125.885,-11.678,39.722,-26.804,-183.107
1.45080050000024,-12.035,-3.384,-286.712,-8.401,0.574,-12.418,64.608,-35.354,-6.796,-12.116,-5.305,-6.581,-22.814,-44.998,-4.991,-24.198,13.66,-22.018,-30.568,-8.837,-79.63,-5.958,-16.3,14.504,-127.296,-13.203,36.096,-35.999,-161.919
1.45086690000016,-14.584,-4.917,-270.544,-14.028,-1.989,-9.332,73.252,-32.245,-6.789,-10.567,-4.787,-4.525,-21.766,-40.343,-5.499,-19.051,16.208,-13.799,-34.636,-8.829,-76.989,-9.026,-13.722,16.026,-115.898,-15.751,35.035,-50.82,-143.314
1.46574640000017,-5.348,-4.4,-268.224,-16.063,5.698,-11.884,40.904,-26.065,-1.659,-9.532,-3.245,-3.496,-21.745,-38.253,-0.882,-18.519,22.34,-11.736,-27.941,-6.258,-75.887,-7.48,-8.585,3.715,-95.29,-16.248,38.074,-44.621,-166.737
1.4658058,-9.441,-10.031,-291.01,-21.682,1.594,-21.094,27.03,-29.625,-8.317,-17.719,-14,-14.251,-29.92,-43.338,-11.64,-27.21,15.145,-19.921,-29.962,-13.424,-85.033,-7.472,-14.725,-2.949,-104.416,-15.207,30.864,-29.72,-198.333
1.48077050000029,-24.289,-18.218,-294.305,-28.833,-13.777,-28.757,59.791,-38.304,-17.018,-26.411,-22.696,-19.359,-34.501,-46.368,-26.485,-31.794,8.47,-17.852,-45.301,-22.12,-89.046,-13.613,-19.321,6.788,-132.489,-20.827,21.099,-35.325,-181.741
1.48471610000024,-18.629,-16.15,-274.03,-25.73,-13.763,-21.044,76.125,-34.68,-5.218,-17.163,-11.914,-10.119,-25.245,-40.174,-20.823,-29.713,19.22,-10.15,-42.182,-16.463,-80.76,-16.673,-14.691,14.466,-126.209,-23.368,26.713,-48.098,-151.333
1.49779070000022,-1.192,-4.351,-263.51,-16.483,3.669,-5.141,43.774,-17.227,4.009,-1.776,0.905,-3.961,-14.973,-32.449,-2.872,-21.998,28.934,-9.627,-27.283,-5.175,-72.483,-7.435,-8.016,14.964,-106.615,-12.586,36.933,-38.828,-160.916
1.49785580000025,-5.289,0.776,-266.833,-11.343,7.764,-4.112,24.262,-12.087,-2.655,-4.848,-3.707,-9.08,-20.594,-39.077,-0.82,-19.927,22.758,-14.228,-31.867,-7.732,-72.922,-2.304,-8.008,16.486,-119.316,-5.913,35.871,-21.371,-182.272
1.51090180000028,-21.678,-8.446,-277.325,-20.041,-9.662,-19.989,57.026,-31.03,-12.387,-22.262,-18.047,-16.755,-35.43,-54.407,-16.188,-31.178,10.952,-24.46,-47.716,-21.044,-80.022,-15.11,-18.758,6.223,-132.516,-16.154,27.638,-34.157,-177.479
1.51097089999985,-21.144,-18.684,-281.658,-31.804,-18.874,-30.728,70.801,-43.294,-19.547,-28.387,-22.128,-18.788,-35.907,-53.84,-22.832,-34.733,10.941,-25.973,-46.644,-22.048,-78.917,-22.267,-22.838,-6.591,-114.965,-22.285,25.562,-57.177,-159.37
1.5259030000002,-8.315,-13.542,-272.155,-22.551,-7.072,-23.525,71.242,-40.689,-17.478,-20.674,-13.909,-11.597,-23.576,-35.856,-11.026,-23.427,25.275,-10.577,-30.204,-8.193,-67.567,-8.412,-11.032,2.637,-106.141,-17.14,31.684,-51.484,-157.674
1.54088409999986,-8.819,-9.942,-277.518,-14.331,-3.991,-19.403,89.102,-43.21,-11.313,-18.605,-13.895,-9.536,-24.064,-30.697,-7.429,-23.916,29.86,-5.444,-26.587,-6.648,-69.549,-4.305,-9.996,10.832,-122.941,-18.66,30.627,-42.723,-180.058
1.54094239999995,-16.495,-20.178,-300.294,-32.248,-12.184,-26.555,68.521,-41.63,-11.814,-21.147,-20.029,-15.674,-29.163,-41.425,-19.204,-29.528,21.121,-18.246,-38.856,-15.863,-78.701,-18.133,-21.769,-4.036,-138.188,-26.326,20.351,-56.001,-198.321
1.55673569999999,-9.306,-19.646,-295.896,-36.314,-4.488,-21.918,36.177,-24.17,-4.117,-10.88,-11.812,-11.048,-17.351,-39.846,-16.111,-22.838,23.661,-18.74,-37.28,-11.749,-67.864,-15.041,-19.698,-6.594,-139.586,-20.152,24.941,-58.506,-184.803
1.55681249999998,0.95,-1.183,-272.546,-14.761,9.349,-5.502,48.948,-17.998,10.232,2.963,-0.529,0.234,-7.6,-28.536,-0.214,-17.18,32.859,-9.5,-23.411,-1.491,-57.038,-0.169,-10.97,7.245,-131.25,-8.861,39.773,-45.64,-160.539
1.57106999999996,-3.662,3.941,-269.199,-10.135,7.803,0.651,77.076,-23.616,6.123,3.472,-2.066,-2.328,-13.228,-31.581,-3.8,-18.187,28.216,-12.052,-26.461,-3.026,-64.153,-3.755,-10.959,2.115,-118.311,-10.901,40.758,-46.619,-155.256
1.57113560000016,-7.757,-4.772,-275.078,-18.322,2.16,-4.985,78.024,-23.592,-2.08,-2.679,-5.65,-10.522,-20.899,-41.796,-15.067,-19.706,22.04,-17.163,-35.144,-10.708,-67.675,-15.535,-12.997,-9.67,-120.754,-19.599,29.959,-52.208,-167.908
1.58595629999991,-3.138,-4.767,-274.291,-13.181,3.182,-7.542,82.044,-26.642,-2.59,-7.287,-7.693,-12.049,-26.514,-42.266,-11.978,-26.859,22.018,-17.146,-37.67,-17.357,-64.021,-15.519,-19.644,-6.074,-141.638,-24.19,26.342,-46.008,-181.06
1.58601399999998,-4.672,-0.152,-274.529,-11.63,3.691,-7.534,80.937,-27.64,-5.662,-10.353,-11.784,-11.012,-25.975,-39.662,-6.843,-28.881,17.897,-20.715,-40.706,-17.852,-61.908,-10.893,-24.747,-5.044,-140.472,-23.654,31.439,-39.814,-178.83
1.60097200000018,-8.766,-1.689,-274.254,-17.254,3.688,-7.527,61.389,-18.903,-6.168,-10.343,-10.235,-8.952,-20.826,-42.697,-5.811,-20.655,15.83,-22.743,-38.104,-10.15,-55.186,-7.296,-14.989,-10.162,-111.13,-19.532,34.994,-43.873,-166.868
1.60102899999993,-6.196,-6.81,-272.443,-17.749,2.659,-10.081,46.983,-22.983,-4.625,-10.845,-7.151,-8.943,-23.879,-47.265,-5.293,-25.245,18.888,-19.134,-30.894,-9.115,-50.008,-5.239,-9.851,-8.102,-107.432,-19,32.91,-48.44,-165.677
1.61687889999985,-3.628,-5.779,-271.146,-18.244,3.169,-11.608,42.325,-29.108,-5.645,-11.347,-10.73,-10.983,-23.855,-46.705,-6.825,-29.319,22.455,-12.455,-32.4,-12.18,-52.007,-4.209,-15.988,-3.484,-129.354,-20.006,32.365,-45.83,-168.585
1.61694669999997,-7.21,-1.162,-264.727,-16.689,4.703,-10.059,60.213,-19.345,-0.004,-8.774,-9.183,-8.411,-16.659,-41.535,-4.769,-18.531,28.581,-8.344,-33.904,-4.483,-48.369,-2.668,-14.948,-5.017,-126.151,-15.887,34.381,-40.661,-162.781
1.63142760000028,-12.839,-7.821,-265.487,-18.209,-2.474,-16.709,92.941,-25.985,-5.127,-13.888,-8.661,-8.914,-24.839,-38.42,-5.276,-22.611,29.064,-11.922,-32.333,-4.991,-48.32,-6.252,-13.908,-12.184,-112.193,-17.408,28.199,-46.768,-155.958
1.63149980000026,-13.85,-20.108,-277.517,-29.461,-8.107,-29.5,92.848,-46.452,-22.541,-26.169,-18.386,-16.59,-35.573,-37.357,-14.492,-34.884,22.888,-16.521,-34.35,-16.256,-54.42,-12.393,-20.042,-21.394,-119.765,-25.588,22.536,-57.992,-154.777
1.64605849999998,-11.275,-18.551,-279.801,-31.994,0.61,-27.934,71.751,-46.405,-21.493,-25.631,-19.393,-16.061,-27.852,-34.246,-11.404,-25.627,26.963,-12.918,-36.365,-13.679,-51.291,-11.868,-20.534,-24.446,-125.793,-28.636,28.149,-54.86,-165.893
1.64612299999999,-12.801,-11.361,-272.861,-25.302,4.196,-21.758,69.117,-39.186,-12.763,-19.97,-10.152,-10.41,-24.751,-36.261,-2.683,-20.991,31.547,-11.881,-36.841,-7.517,-46.629,-8.783,-19.489,-22.885,-123.618,-27.583,28.633,-44.047,-183.658
1.66100520000009,-14.325,-6.226,-272.076,-21.178,0.093,-18.662,49.58,-35.049,-15.311,-18.925,-7.58,-9.375,-24.726,-36.737,-4.218,-25.581,26.905,-14.43,-33.218,-9.047,-48.12,-3.651,-16.908,-17.226,-124.519,-21.407,29.116,-35.806,-173.229
1.67508159999989,-10.724,3.514,-266.168,-13.472,9.315,-8.397,17.768,-21.181,-7.099,-11.222,-2.962,-5.779,-11.894,-25.429,0.91,-15.309,29.952,-9.805,-24.988,-3.914,-44.485,4.037,-7.67,-7.988,-119.271,-10.115,40.358,-29.622,-143.854
1.67906660000017,-9.177,4.023,-253.095,-12.434,14.941,-3.778,35.168,-18.599,0.08,-5.575,1.652,-2.187,-12.906,-25.916,3.983,-13.244,33.508,-10.308,-27.012,-2.886,-42.904,1.472,-9.199,-9.517,-115.566,-10.617,39.805,-34.716,-141.661
1.67911790000016,-8.143,-4.69,-252.329,-24.205,7.241,-8.385,67.921,-32.925,-10.166,-9.156,-1.936,-6.284,-21.09,-38.185,-2.681,-22.965,27.327,-15.42,-31.596,-6.982,-45.423,-2.628,-14.825,-17.704,-117.5,-16.755,30.544,-38.267,-156.376
1.6908997999999,-1.987,2.999,-258.224,-24.18,10.308,-3.766,83.735,-31.867,-7.082,-6.073,2.165,-4.74,-11.335,-33.537,5.006,-14.233,26.787,-7.208,-20.294,1.222,-37.18,8.133,-3.027,-14.1,-111.747,-8.029,39.735,-25.934,-154.683
1.69096910000007,-2.497,9.656,-258.991,-17.496,15.933,-3.25,71.356,-25.175,2.147,-1.968,6.773,0.387,-11.324,-27.355,11.149,-10.12,28.297,-5.664,-16.687,3.27,-33.557,12.736,0.05,-11.012,-108.561,-2.897,45.843,-23.858,-148.38
1.70518010000023,-5.569,-0.6,-262.83,-22.602,8.745,-6.833,49.255,-22.076,-1.954,-1.966,1.131,-0.125,-17.973,-31.939,-1.158,-19.331,25.195,-13.343,-26.404,-4.417,-39.159,4.014,-12.246,-16.637,-109.989,-10.579,36.576,-36.13,-149.769
1.70524830000022,3.146,3.499,-269.74,-17.456,13.859,10.592,51.255,-6.173,8.806,9.306,8.302,7.56,0.488,-25.247,4.991,-10.603,33.879,-2.571,-18.181,7.37,-32.46,11.182,-6.086,-9.96,-103.219,-6.982,42.174,-27.897,-156.279
1.72018930000013,5.192,10.156,-275.105,-11.803,20.505,14.168,78.868,-5.142,16.994,12.883,12.393,8.577,4.586,-22.148,14.72,-7.006,36.919,3.067,-12.015,11.461,-30.378,17.318,-0.957,-6.876,-114.387,-1.34,47.768,-18.647,-165.857
1.73514299999988,-11.207,-9.322,-275.343,-29.722,-1.032,-17.609,69.568,-33.826,-11.199,-12.233,-12.723,-14.486,-26.157,-41.593,-9.373,-31.59,16.902,-24.601,-34.032,-14.166,-48.791,-4.728,-20.423,-25.825,-139.376,-19.27,28.764,-41.683,-163.642
1.73919650000016,-16.319,-19.047,-269.944,-41.476,-11.79,-25.276,37.223,-37.891,-22.971,-22.979,-21.419,-21.644,-33.815,-46.675,-19.098,-36.681,9.201,-35.847,-43.732,-20.812,-50.279,-14.97,-27.575,-31.947,-138.724,-30.521,19.514,-55.473,-151.695
1.75221099999999,-2.982,-1.609,-263.527,-33.237,9.227,2.926,28.989,-8.651,5.741,1.635,4.217,2.456,-7.654,-27.673,3.463,-15.128,28.147,-11.22,-26.27,-0.298,-30.248,4.001,-10.642,-16.033,-128.339,-13.072,36.401,-33.389,-153.08
1.75227949999999,4.193,10.175,-262.751,-25.007,16.902,13.169,61.747,-4.544,16.494,12.904,12.922,10.139,1.063,-18.936,8.07,-9.99,36.828,-0.451,-15.998,2.776,-25.095,12.194,-1.409,-10.894,-116.94,-1.276,43.537,-19.011,-156.001
1.76527280000028,0.602,6.067,-261.463,-16.785,3.565,0.86,90.887,-24.52,-0.941,-4.015,-3.484,-5.241,-12.77,-29.163,-3.721,-21.763,26.545,-11.721,-21.617,-5.424,-32.755,3.472,-4.482,-17.031,-87.622,-8.447,35.809,-26.164,-148.16
1.76535259999991,-5.033,-2.136,-263.251,-20.354,-3.099,-8.362,58.521,-28.081,-7.6,-13.745,-10.653,-8.822,-20.954,-40.917,-7.304,-26.352,17.809,-17.857,-30.817,-6.956,-34.771,-2.679,-13.699,-20.088,-89.583,-15.611,30.137,-34.847,-154.16
1.7802587000001,-7.078,-9.819,-271.185,-36.728,-2.071,-9.378,26.187,-22.418,-5.031,-8.096,-8.593,-4.714,-16.835,-41.901,-10.37,-22.227,18.304,-16.815,-34.372,-8.485,-33.712,-5.75,-20.345,-22.629,-121.769,-16.107,30.62,-42.497,-169.887
1.78031809999993,-2.46,-8.784,-275.524,-40.79,-2.581,-7.832,58.949,-29.055,-5.026,-6.038,-4.486,-5.222,-10.158,-35.199,-8.823,-18.618,21.871,-12.699,-26.141,-5.403,-32.141,-0.621,-10.591,-15.946,-133.943,-11.481,34.687,-47.577,-167.668
1.79541040000004,-1.433,-7.751,-273.2,-40.749,-2.066,-13.459,91.677,-39.272,-7.583,-11.668,-4.482,-6.241,-14.759,-37.725,-5.228,-23.211,19.288,-12.174,-24.066,-2.836,-34.158,6.039,-3.92,-7.734,-107.681,-10.957,34.653,-44.968,-163.914
1.80038100000002,-8.604,-13.891,-273.951,-48.393,-0.015,-17.544,59.31,-36.159,-10.649,-13.705,-7.039,-8.797,-22.428,-44.86,-8.296,-27.798,15.683,-20.871,-32.238,-7.444,-39.247,0.398,-12.626,-13.873,-103.987,-17.094,26.933,-44.923,-174.509
1.81314490000023,-4.497,-5.168,-272.653,-36.049,10.231,-0.621,26.976,-17.168,0.632,-3.445,3.214,-2.128,-11.648,-33.544,-0.604,-15.475,26.425,-14.19,-26.058,-0.777,-33.572,3.471,-8.515,-13.347,-104.395,-11.953,31.517,-38.218,-168.699
1.82535600000028,7.803,14.305,-261.109,-19.619,21.492,12.188,59.736,-4.855,12.415,5.267,15.507,7.096,0.147,-19.166,10.156,-3.676,36.133,2.218,-11.175,12.544,-26.879,18.837,3.277,-0.526,-84.311,3.428,45.318,-20.762,-140.353
1.82542130000002,3.697,3.532,-259.311,-32.407,12.249,-5.755,74.533,-24.318,-6.553,-8.57,-0.903,-4.694,-15.222,-30.93,-2.662,-16.48,21.24,-12.642,-20.898,-1.301,-39.66,7.548,-7.485,-6.673,-85.251,-4.773,35.027,-26.889,-134.577
1.8254621000001,-10.139,-19.013,-272.884,-42.621,-4.157,-23.168,52.942,-45.811,-24.989,-25.98,-20.882,-19.034,-34.675,-49.342,-13.93,-34.395,4.825,-35.683,-40.345,-19.23,-51.403,-15.002,-21.31,-21.524,-112.318,-26.797,18.085,-52.989,-158.009
1.8403902,-6.543,-8.747,-266.463,-28.234,3.531,-11.362,85.677,-32.957,-7.546,-15.196,-9.078,-6.208,-22.345,-42.633,-4.695,-26.163,15.578,-21.302,-33.132,-6.916,-39.569,-4.74,-10.53,-12.793,-111.181,-19.086,29.338,-46.276,-166.048
1.84045500000002,8.833,11.754,-243.143,-17.447,19.409,6.58,89.177,-10.895,9.88,3.775,8.35,9.168,-0.805,-24.659,4.019,-6.67,31.444,-3.35,-13.631,9.485,-25.697,15.244,4.338,2.589,-85.967,2.45,43.653,-18.053,-151.537
1.85535979999986,5.238,2.008,-248.535,-27.163,7.607,0.938,56.813,-15.495,-1.913,-2.889,-0.88,0.449,-7.977,-27.708,-1.108,-12.811,24.24,-14.618,-19.253,-2.307,-36.43,7.545,-1.814,-1,-87.93,-6.261,30.29,-26.232,-150.361
1.85943290000023,-18.846,-24.634,-275.439,-52.239,-14.43,-23.653,46.51,-37.509,-21.891,-27.477,-22.909,-17.482,-32.56,-50.222,-16.989,-35.852,6.285,-28.948,-43.312,-24.334,-56.885,-14.492,-20.256,-20.466,-111.921,-31.358,9.767,-58.481,-164.555
1.87230700000009,-32.147,-34.343,-281.311,-67.556,-13.391,-35.925,41.852,-45.156,-28.017,-37.696,-33.132,-24.124,-39.699,-58.369,-28.242,-43.5,0.644,-32.505,-50.954,-29.945,-59.902,-21.65,-27.408,-32.741,-109.76,-36.962,5.147,-68.669,-170.539
1.8723715000001,-17.77,-18.94,-266.686,-49.046,2.504,-18.983,51.544,-31.79,-14.669,-22.801,-19.779,-12.317,-26.852,-42.429,-14.894,-32.186,12.426,-24.788,-34.509,-15.059,-46.01,-6.771,-15.085,-18.876,-91.207,-23.093,15.388,-44.522,-167.294
1.88540550000016,-0.846,-2.527,-255.66,-27.992,10.186,-4.107,84.281,-25.611,-2.871,-8.946,-2.853,0.503,-15.042,-29.067,1.515,-20.371,27.783,-8.882,-21.154,-2.236,-37.255,5.531,-6.361,-3.488,-95.727,-9.75,27.155,-29.108,-161.491
1.9005830000001,-11.091,-9.697,-257.454,-39.235,4.028,-14.861,94.442,-39.93,-12.602,-16.622,-8.485,-4.621,-19.638,-34.673,-6.171,-21.887,24.681,-9.897,-28.818,-9.918,-43.878,-4.721,-17.625,-15.78,-111,-15.888,22.005,-39.837,-158.768
1.90065110000023,-22.351,-18.909,-265.393,-50.979,-2.123,-21.507,62.073,-43.989,-18.225,-23.265,-16.674,-10.251,-24.229,-40.786,-12.825,-29.038,14.923,-20.646,-35.961,-15.544,-46.395,-11.376,-21.194,-24.473,-102.692,-26.118,15.323,-44.921,-162.708
1.91545670000005,-6.959,-5.57,-260.005,-38.632,2.49,-8.165,70.72,-26.526,-3.862,-11.459,-1.8,-0.507,-13.446,-31.524,-2.566,-21.836,26.691,-9.354,-22.605,-2.208,-34.054,2.98,-7.852,-6.518,-86.196,-12.772,27.091,-28.482,-155.885
1.91552000000002,2.269,5.194,-243.351,-27.323,6.585,-0.985,103.437,-20.864,-0.272,-4.787,4.862,3.592,-7.285,-24.832,3.072,-12.081,35.374,0.901,-13.874,4.966,-29.409,9.124,-5.795,1.173,-96.356,1.073,32.699,-21.281,-136.774
1.93224929999997,-10.541,1.603,-234.911,-24.222,4.53,-2.008,71.058,-24.942,-8.981,-12.467,-4.877,-3.072,-15.987,-29.418,0.507,-19.241,25.092,-10.371,-23.081,-3.235,-35.015,2.455,-13.474,-7.537,-112.141,-7.637,24.982,-29.457,-136.125
1.93231710000009,-12.067,0.065,-239.799,-25.734,5.037,-4.055,62.278,-20.818,-6.41,-13.479,-4.872,-3.581,-17.508,-30.413,0.507,-25.369,25.067,-10.36,-24.083,-3.232,-34.467,3.99,-11.924,-8.042,-99.221,-12.24,29.055,-28.915,-158.018
1.94554139999991,-6.42,-6.596,-252.367,-43.127,1.446,-14.298,94.491,-28.994,-8.966,-14.49,-6.404,-7.164,-16.466,-30.383,-4.105,-23.295,28.116,-5.227,-21.497,-4.766,-37.507,-1.137,-12.424,-13.67,-92.974,-11.203,28.514,-36.058,-167.594
1.94560899999988,-15.123,-18.884,-262.873,-54.355,-8.289,-22.993,69.293,-42.798,-21.252,-25.747,-19.718,-18.94,-29.257,-42.648,-14.859,-33.005,13.743,-21.615,-33.771,-16.544,-48.74,-12.919,-21.121,-25.439,-112.861,-22.975,13.116,-53.953,-155.131
1.96053560000018,-15.62,-13.23,-259.024,-40.98,-6.232,-16.31,44.633,-33.021,-18.157,-27.258,-16.624,-19.433,-33.326,-49.777,-17.406,-39.632,8.606,-28.254,-38.348,-16.015,-48.179,-8.296,-21.1,-21.315,-108.137,-23.465,13.615,-45.702,-147.291
1.9606002999999,-6.895,-2.971,-253.13,-37.866,0.947,-9.121,49.712,-18.644,-10.966,-17.497,-5.849,-9.167,-22.535,-44.605,-11.241,-30.371,16.282,-13.369,-28.576,-6.778,-42.495,-4.189,-17.493,-16.171,-81.902,-14.22,23.848,-26.189,-155.341
1.97549729999992,-10.987,-8.603,-255.438,-52.685,-6.226,-13.21,55.81,-26.822,-14.029,-15.942,-11.479,-9.158,-19.95,-41.486,-10.717,-31.878,14.729,-16.429,-32.133,-10.357,-46.551,-10.845,-19.524,-20.253,-93.09,-20.353,19.726,-31.798,-155.186
1.97555580000017,-14.562,-14.742,-254.67,-50.07,-9.806,-16.271,88.541,-39.603,-12.991,-17.975,-14.029,-14.785,-24.029,-39.908,-15.83,-38.506,12.153,-27.683,-38.761,-15.982,-48.554,-8.785,-21.554,-16.134,-119.637,-24.431,17.144,-44.061,-144.784
1.99131870000019,-15.059,-19.338,-254.416,-47.459,-5.698,-21.378,95.113,-46.735,-20.662,-24.105,-14.527,-18.356,-29.128,-47.04,-18.375,-35.394,9.579,-26.119,-37.186,-19.552,-47.481,-10.313,-26.143,-19.192,-122.079,-22.357,17.127,-49.653,-161.033
1.99138390000007,-19.143,-25.467,-260.821,-65.854,-12.352,-26.992,62.742,-50.275,-39.085,-37.401,-25.271,-23.973,-40.882,-61.338,-20.918,-40.481,-0.164,-29.167,-40.222,-24.144,-52.556,-22.085,-30.728,-32.493,-128.617,-31.044,9.425,-55.751,-183.414
2.00596700000006,-8.365,-13.658,-251.851,-59.128,-10.803,-14.157,59.093,-34.855,-28.287,-28.654,-17.049,-18.826,-34.181,-48.981,-14.75,-39.928,8.545,-22.99,-32.497,-11.824,-48.405,-11.305,-20.451,-18.628,-124.902,-23.841,17.101,-41.35,-159.152
2.00603570000021,7.012,10.946,-229.57,-26.282,9.7,7.374,91.822,-16.89,0.43,-0.961,8.584,1.173,-6.995,-19.73,2.171,-17.859,32.103,1.624,-7.362,9.705,-31.963,13.809,-3.524,9.568,-91.99,3.847,37.064,-12.62,-126.717
2.02059650000001,0.345,8.886,-231.902,-31.891,12.252,2.756,98.903,-25.582,-3.669,-3.009,6.013,3.221,-5.451,-24.321,3.194,-15.792,30.021,3.672,-4.793,5.596,-30.394,11.234,-1.472,9.558,-74.479,4.356,34.465,-15.169,-139.398
2.02066319999994,-7.34,-15.201,-256.773,-63.622,-5.691,-17.227,66.528,-40.926,-23.133,-25.548,-16.022,-15.225,-27.987,-47.351,-12.691,-37.293,12.573,-16.312,-26.305,-12.34,-45.733,-4.659,-14.278,-6.845,-106.68,-15.628,18.037,-43.843,-155.653
2.03557520000004,-4.258,-22.358,-265.226,-60.997,-10.808,-16.697,48.019,-30.639,-21.06,-22.449,-17.543,-17.772,-31.033,-47.816,-14.728,-38.793,12.56,-17.833,-29.865,-12.328,-47.737,-6.191,-20.411,-10.937,-123.992,-18.687,17.506,-48.41,-153.96
2.05069140000023,-5.791,-6.454,-249.591,-39.419,-2.088,-1.824,66.926,-13.189,-6.182,-7.057,-5.23,-6.995,-17.169,-39.571,-6.004,-29.02,17.158,-15.766,-20.614,-3.606,-34.881,-1.574,-11.682,-2.729,-101.839,-12.52,25.686,-28.381,-159.442
2.05505429999994,-2.711,2.261,-241.145,-42.453,4.061,0.74,91.962,-17.275,-2.59,-9.099,-4.2,-9.55,-17.152,-42.605,-8.559,-33.09,12.018,-23.434,-22.13,-5.139,-35.871,-0.548,-8.596,4.958,-87.905,-9.946,26.685,-24.255,-160.819
2.05510490000006,0.365,-11.573,-255.76,-62.903,-1.066,-12.581,92.383,-34.164,-17.444,-20.873,-14.954,-18.25,-30.455,-47.686,-15.211,-39.204,6.883,-22.899,-28.255,-14.868,-48.13,-3.109,-19.346,-3.244,-103.186,-14.035,18.461,-44.21,-155.535
2.06751620000023,-14.492,-24.369,-270.362,-76.673,-15.409,-25.376,75.384,-42.839,-29.21,-28.024,-22.112,-18.744,-35.548,-45.589,-17.757,-40.702,10.975,-15.191,-25.153,-17.415,-48.595,-6.179,-21.888,-11.95,-131.772,-22.73,12.807,-52.875,-166.138
2.08074239999996,-19.088,-17.685,-264.456,-74.034,-14.882,-23.814,91.702,-43.308,-18.934,-23.386,-11.331,-12.577,-21.68,-28.125,-14.153,-34.001,27.358,-1.856,-13.857,-4.59,-38.812,2.024,-9.059,2.919,-136.763,-13.486,20.991,-37.966,-171.607
2.08080770000015,-0.626,-7.933,-258.044,-61.153,2.04,-12.007,93.66,-38.142,-8.157,-10.555,-0.049,-4.368,-7.313,-15.289,-3.381,-23.209,39.113,13.515,-6.159,6.686,-34.163,11.755,-5.976,13.675,-106.4,3.434,29.167,-26.144,-159.14
2.09575989999985,5.01,-9.462,-259.835,-52.895,4.599,-4.823,61.291,-29.907,-13.784,-7.47,-5.172,-4.363,-12.942,-28.082,-0.303,-27.797,30.365,5.817,-11.788,-3.567,-36.69,4.059,-14.679,1.878,-83.752,-6.303,23.503,-32.778,-148.735
2.0958255999999,-5.241,-8.941,-247.792,-53.354,-1.553,-4.818,54.57,-27.828,-16.332,-12.073,-8.753,-11.019,-21.638,-41.373,-7.475,-35.966,20.088,-10.583,-18.436,-13.297,-38.19,-2.093,-14.152,2.388,-94.427,-16.543,21.43,-39.918,-139.365
2.11074129999997,-8.822,-0.735,-234.736,-50.739,4.084,-7.887,87.303,-26.775,-12.217,-12.574,-4.646,-10.496,-18.542,-36.209,-6.955,-30.807,22.63,-6.986,-12.783,-5.087,-36.615,7.643,-7.478,18.268,-99.456,-1.157,28.581,-34.755,-138.201
2.11492700000008,-5.227,1.315,-245.26,-45.053,3.567,-14.027,89.265,-26.748,-16.816,-17.172,-10.789,-10.485,-19.036,-34.636,-1.825,-30.263,20.558,-4.93,-10.208,-3.033,-39.652,10.197,-7.983,15.688,-84.499,3.455,27.015,-22.937,-154.457
2.12761619999992,-3.173,-0.223,-252.7,-45.52,-5.146,-16.574,121.963,-37.992,-19.873,-23.302,-15.389,-15.598,-23.116,-36.138,-5.922,-37.406,16.439,-13.122,-15.833,-9.177,-44.736,3.015,-12.073,7.475,-78.267,-5.77,21.353,-18.303,-146.617
2.12767949999989,-8.293,-1.247,-237.59,-49.573,2.544,-7.336,154.629,-42.053,-10.631,-13.033,-4.103,-9.434,-14.383,-28.417,-6.941,-31.22,23.083,-6.449,-14.281,-3.021,-39.568,3.012,-12.061,17.202,-89.46,-2.179,24.918,-24.433,-120.855
2.14083250000021,-12.383,-5.345,-233.254,-50.036,12.276,2.405,122.199,-23.055,1.162,1.325,3.074,-0.716,-6.684,-27.364,0.238,-27.603,24.596,0.73,-9.143,2.618,-36.455,4.033,-11.024,22.82,-101.666,-1.152,26.43,-32.605,-134.055
2.14090020000003,-7.248,-10.975,-249.414,-53.06,1.505,-5.794,89.801,-18.934,-4.474,-7.898,-9.225,-8.912,-18.461,-38.608,-4.373,-37.822,14.326,-13.615,-16.819,-10.705,-45.127,-3.143,-18.698,8.452,-114.884,-12.934,17.182,-42.306,-163.122
2.15576180000016,-13.388,-15.574,-256.85,-65.302,-12.329,-22.695,96.371,-40.432,-23.425,-26.333,-22.023,-21.198,-33.811,-46.254,-18.2,-43.931,9.188,-24.36,-29.097,-20.94,-49.693,-10.825,-27.388,-4.364,-120.405,-19.068,9.992,-51.486,-160.91
2.15582320000021,-26.695,-11.973,-245.834,-68.311,-6.681,-22.16,69.123,-34.756,-22.889,-23.233,-14.316,-16.567,-27.118,-41.084,-15.108,-37.74,15.327,-11.016,-21.384,-13.747,-41.446,-6.203,-20.189,5.374,-105.939,-11.877,18.691,-39.139,-152.04
2.17081349999989,-15.397,-2.739,-235.855,-55.947,3.059,-8.817,73.152,-15.254,-5.448,-7.841,-1.494,-5.791,-11.721,-32.846,-0.236,-28.481,22.484,-0.246,-4.968,-5.024,-32.696,6.611,-7.361,18.689,-92.001,-0.082,29.431,-18.095,-152.912
2.17478840000012,-4.111,-8.372,-245.865,-56.916,-4.116,-13.932,105.867,-34.706,-13.127,-12.956,-7.641,-12.958,-19.394,-38.449,-1.773,-30.501,18.875,-12.029,-11.623,-11.679,-31.126,4.043,-12.989,8.936,-108.815,-4.18,22.742,-28.835,-157.882
2.18669210000007,-18.964,-19.122,-261.501,-70.691,-13.334,-27.75,109.347,-56.701,-30.02,-28.825,-20.441,-25.24,-34.744,-49.681,-14.579,-42.766,10.147,-20.214,-26.981,-20.377,-34.681,-9.281,-24.759,-5.929,-133.297,-18.521,13.498,-46.737,-168.995
2.18677079999998,-20.482,-12.443,-257.141,-67.546,-8.197,-22.087,76.962,-44.861,-20.769,-24.185,-18.371,-18.555,-30.098,-45.021,-16.101,-43.236,8.6,-11.997,-23.368,-17.795,-35.159,-7.223,-23.71,-0.8,-128.041,-16.453,17.582,-34.908,-171.388
2.20091180000009,-6.117,-6.795,-252.273,-57.745,-3.578,-11.306,83.545,-37.131,-15.625,-15.964,-14.254,-11.364,-22.896,-40.365,-11.987,-37.045,11.665,-10.448,-17.709,-13.166,-31.537,-3.117,-20.1,5.86,-99.224,-10.801,17.565,-27.188,-161.995
2.20097859999987,-7.135,-8.837,-251.508,-58.2,-4.087,-8.734,113.176,-38.631,-19.195,-12.874,-11.166,-12.89,-19.799,-37.763,-6.852,-37.008,19.338,-10.437,-12.568,-9.054,-25.87,-4.139,-14.957,5.855,-77.095,-11.303,15.498,-30.235,-155.173
2.21591260000014,-8.153,2.442,-227.691,-54.043,1.553,2.546,107.939,-22.711,-0.221,4.045,2.165,-3.143,-3.386,-21.332,3.401,-27.749,33.151,6.991,2.813,3.25,-14.574,11.235,-0.597,21.218,-72.407,3.565,29.315,-17.909,-136.575
2.21597419999989,-3.534,9.612,-215.167,-48.353,2.576,7.667,116.541,-16.541,7.976,10.189,4.212,1.983,1.741,-17.724,6.472,-22.086,34.143,11.083,4.348,5.296,-11.485,18.908,1.965,32.467,-89.753,12.783,34.409,-17.379,-120.556
2.23095730000023,-6.604,-3.205,-244.666,-52.404,-8.185,-7.198,110.276,-28.307,-11.499,-10.314,-10.649,-13.9,-19.265,-39.736,-3.781,-39.482,19.251,-11.982,-14.612,-11.103,-22.232,0.446,-13.406,19.115,-111.693,-4.136,19.005,-30.681,-142.977
2.23508760000004,-5.573,-8.325,-254.155,-52.863,-11.251,-8.728,86.088,-21.106,-13.025,-13.377,-12.688,-20.034,-28.468,-45.331,-11.974,-45.591,15.646,-23.241,-18.184,-15.191,-23.747,-4.677,-16.979,8.337,-107.483,-10.791,14.888,-24.503,-160.253
2.2478414000002,-5.055,-6.268,-235.458,-51.786,-8.678,1.527,107.518,-14.425,-3.278,-3.118,-10.113,-13.354,-22.292,-39.138,-12.474,-34.787,18.704,-19.631,-12.53,-10.052,-17.063,5.061,-10.814,11.915,-83.809,-4.633,18.459,-26.015,-141.65
2.24790960000018,-13.247,-11.384,-245.469,-61.98,-13.793,-8.721,124.829,-31.829,-13.521,-13.873,-17.275,-17.952,-27.392,-51.394,-12.974,-41.924,9.464,-27.296,-19.69,-17.215,-19.608,-0.579,-19.513,7.293,-80.139,-11.801,12.293,-41.359,-146.119
2.26099909999994,-9.135,-11.373,-260.593,-68.578,-16.34,-19.47,92.429,-38.97,-19.655,-20.007,-18.795,-22.544,-30.439,-55.442,-12.961,-50.079,6.893,-31.368,-24.281,-23.345,-21.125,-6.726,-26.665,-1.936,-100.551,-15.375,8.694,-32.608,-170.563
2.26106609999988,-7.077,-12.386,-253.16,-65.948,-16.836,-16.377,68.771,-32.783,-16.049,-13.327,-18.264,-17.911,-24.773,-43.091,-16.022,-43.369,15.083,-22.627,-21.183,-21.272,-17.006,-5.183,-22.028,-1.934,-112.746,-13.31,8.686,-31.551,-160.147
2.27597539999988,-20.39,-18.009,-256.493,-66.907,-20.918,-18.922,75.874,-36.849,-19.619,-17.412,-22.857,-19.43,-25.773,-40.998,-21.129,-44.35,16.093,-18.506,-23.723,-19.714,-16.476,-6.714,-23.543,0.629,-110.584,-20.982,2.017,-52.524,-145.13
2.29102330000023,-11.66,-9.282,-258.798,-64.279,-15.262,-20.44,93.217,-40.398,-19.087,-18.419,-16.686,-18.898,-23.698,-37.371,-18.034,-46.868,15.052,-17.463,-21.65,-15.596,-11.849,-3.634,-24.032,4.727,-110.986,-17.887,4.576,-37.615,-151.644
2.29108189999988,8.332,3.023,-237.022,-57.554,-5.513,-13.76,125.911,-37.796,-13.433,-11.741,-8.985,-11.707,-18.039,-30.674,-9.819,-41.185,16.061,-15.396,-14.969,-11.482,-2.103,3.03,-14.274,14.968,-108.826,-0.45,14.306,-10.937,-140.734
2.30709470000011,-0.386,7.118,-220.903,-51.349,-2.433,-8.623,139.105,-35.197,-11.883,-8.655,-7.439,-9.646,-19.558,-32.692,-7.76,-37.558,17.07,-13.331,-10.855,-7.372,4.559,7.637,-4.526,29.298,-87.712,6.21,15.316,-14,-116.515
2.30716200000006,-9.607,14.283,-216.584,-36.953,4.229,0.607,110.277,-21.842,-2.137,2.112,0.253,-6.05,-11.853,-23.438,-4.166,-30.348,24.738,-3.072,-2.135,2.881,11.214,17.876,0.602,35.929,-65.083,7.741,16.325,-11.937,-113.837
2.32014780000009,0.136,10.683,-216.88,-31.281,5.25,5.217,98.896,-16.697,1.964,6.208,1.79,-4.507,-6.206,-19.316,-1.601,-27.756,26.762,0.005,-2.133,-0.195,11.203,12.735,-4.522,27.184,-73.727,4.659,14.772,-6.802,-125.506
2.32022920000009,-0.376,-6.234,-230.495,-53.279,-8.076,-10.669,110.58,-34.099,-14.432,-11.217,-13.069,-15.774,-22.082,-38.765,-9.284,-43.61,14.952,-14.852,-17.5,-14.027,3.507,-4.696,-15.788,16.398,-94.146,-9.69,5.023,-24.726,-135.115
2.33504720000019,-4.986,-1.105,-235.388,-60.91,-6.018,-16.294,99.199,-34.577,-17.491,-13.767,-13.568,-17.295,-26.158,-39.238,-11.836,-44.591,19.036,-10.739,-13.896,-7.353,9.651,4.53,-10.137,25.091,-87.904,-7.119,9.117,-24.701,-133.443
2.33510530000012,1.166,11.704,-224.906,-38.308,7.308,-0.396,85.78,-15.587,-0.568,0.591,-0.747,-5.495,-8.201,-19.731,-4.139,-29.689,30.8,6.691,1.487,1.876,20.4,17.846,1.656,34.287,-75.521,4.671,17.817,-9.307,-127.674
2.35006229999999,-1.397,-0.091,-235.44,-32.634,0.64,-0.908,106.698,-18.645,-1.079,-2.483,-4.844,-8.563,-10.242,-26.372,-4.648,-36.832,22.06,-3.05,-8.249,-11.959,13.72,-1.128,-9.616,21.445,-86.716,-8.653,2.942,-22.105,-140.354
2.35013389999995,-12.154,-8.8,-247.5,-43.872,-6.533,-9.104,121.961,-28.36,-11.325,-6.579,-13.549,-15.727,-21.503,-36.591,-9.254,-46.529,15.378,-14.318,-18.999,-16.045,8.583,-10.348,-19.852,14.251,-94.314,-17.866,-6.282,-34.379,-156.095
2.36703940000007,-15.215,-2.643,-230.858,-41.267,0.134,-1.41,103.396,-22.697,-6.19,1.625,-7.388,-9.051,-14.309,-28.358,-8.22,-37.261,24.584,-4.057,-10.271,-5.271,15.747,6.056,-9.586,23.971,-86.023,-4.016,5.507,-22.049,-144.156
2.3671045000001,-14.688,-8.788,-226.017,-43.275,-7.039,-1.921,98.169,-27.797,-6.184,-2.988,-5.843,-10.579,-12.758,-33.965,-10.773,-39.273,17.899,-9.689,-13.846,-9.876,13.682,2.464,-9.577,22.922,-90.035,-6.061,3.965,-21.514,-130.692
2.38120849999996,-9.038,-14.415,-243.721,-55.527,-14.716,-14.727,122.662,-40.064,-16.936,-11.694,-13.01,-16.716,-22.479,-43.152,-11.787,-47.943,10.709,-21.974,-22.542,-16.526,11.619,-9.322,-18.277,14.703,-95.58,-17.838,-4.236,-26.616,-136.709
2.39523169999984,-3.393,-2.617,-238.355,-51.885,-2.406,-8.565,111.781,-30.291,-12.821,-6.047,-7.361,-8.502,-17.845,-29.277,-5.115,-38.161,25.043,-4.021,-7.15,-5.239,21.853,4.52,-9.549,23.909,-85.751,-6.55,6.014,-15.319,-131.961
2.39529979999998,-10.562,0.459,-225.309,-41.075,-0.867,1.178,79.394,-17.965,-5.636,-5.016,-2.743,-6.957,-13.729,-23.1,-5.622,-34.025,30.141,7.766,0.029,-0.111,23.881,11.175,-2.879,34.644,-90.276,3.191,8.57,-17.353,-116.972
2.39534290000029,-17.212,-11.837,-234.305,-44.62,-14.186,-10.094,102.88,-28.193,-14.339,-13.721,-16.06,-20.27,-25.498,-40.495,-13.301,-47.823,13.205,-14.784,-19.438,-12.918,14.123,-7.791,-16.709,25.388,-101.969,-10.133,-3.734,-38.852,-121.978
2.41024509999988,-11.559,-16.948,-237.657,-53.284,-16.733,-18.281,135.565,-39.436,-20.473,-15.756,-22.192,-22.811,-31.108,-48.139,-14.313,-55.972,3.97,-29.626,-30.69,-21.102,11.547,-16.493,-27.451,6.919,-88.547,-21.905,-6.292,-44.449,-140.3
2.41031100000009,-13.084,-10.271,-227.173,-51.182,-13.13,-6.48,112.888,-26.589,-10.718,-9.593,-10.387,-13.054,-21.343,-38.87,-12.761,-49.768,10.626,-18.838,-21.95,-17.495,16.147,-7.255,-22.812,5.376,-79.749,-18.297,-1.163,-31.084,-142.721
2.4271291,-18.194,-5.138,-230.02,-39.86,-10.556,-1.35,83.574,-12.217,-3.023,-5.485,-6.278,-10.992,-16.711,-34.732,-12.749,-43.571,14.201,-13.696,-17.317,-13.891,18.692,-4.173,-15.105,19.715,-90.94,-11.107,-1.162,-22.344,-136.43
2.42719609999995,-11.516,-8.719,-245.159,-40.845,-6.959,-11.595,93.736,-21.427,-11.729,-10.602,-16.006,-18.153,-24.379,-46.481,-14.273,-51.724,5.478,-27.002,-28.058,-21.562,17.136,-10.317,-19.188,17.646,-89.312,-14.17,-4.747,-26.932,-146.54
2.44027700000015,-7.918,-11.272,-251.574,-51.562,-10.026,-14.657,99.278,-31.139,-19.402,-15.715,-20.088,-20.185,-30.502,-55.656,-17.845,-59.869,-2.724,-37.734,-36.227,-30.25,12.508,-14.917,-29.928,3.796,-93.834,-22.865,-9.353,-30.491,-159.714
2.4552248,-14.058,-2.551,-236.977,-42.801,-11.553,-2.347,105.839,-22.399,-8.112,-2.891,-9.309,-10.943,-18.689,-44.842,-11.679,-45.465,4.963,-26.425,-23.383,-18.949,17.107,-6.193,-25.287,13.526,-112.183,-18.743,-3.708,-23.289,-138.037
2.45528939999986,-9.946,6.673,-218.81,-29.951,-3.857,5.852,113.93,-16.741,2.655,14.53,2.483,-2.735,-3.813,-33.014,0.116,-30.05,17.766,-10.005,-3.892,-0.487,29.897,8.67,-8.868,29.394,-92.603,-5.405,8.079,-18.142,-108.185
2.47036750000007,-0.714,1.543,-226.276,-43.241,-4.365,-0.301,86.151,-25.946,-5.545,6.319,-2.643,-8.368,-8.933,-37.592,-2.446,-36.168,13.649,-12.044,-4.913,-3.048,28.843,8.661,-7.834,24.754,-65.87,-4.887,6.534,-20.173,-122.421
2.47045440000011,-4.3,-7.168,-242.955,-57.03,-12.045,-10.547,63.524,-32.067,-16.81,-11.618,-14.935,-17.068,-21.731,-43.189,-10.641,-43.816,4.927,-21.254,-16.179,-14.315,19.08,-3.131,-15.511,23.704,-92.957,-13.079,-1.157,-20.153,-145.353
2.48533099999986,-10.955,-5.111,-237.077,-51.85,-7.935,-12.074,79.854,-32.035,-17.818,-12.119,-14.408,-16.027,-22.734,-40.585,-6.019,-39.674,7.996,-19.183,-14.626,-12.252,22.647,-1.59,-11.397,31.365,-112.331,-8.967,2.942,-17.059,-131.888
2.48929889999999,-0.698,5.652,-226.082,-51.286,1.807,-6.938,89.508,-31.491,-14.726,-8.008,-7.221,-11.912,-20.15,-36.446,-0.89,-36.56,13.111,-11.479,-9.488,-6.604,32.358,7.12,-4.726,29.285,-79.431,1.288,10.112,-10.894,-121.509
2.50126540000019,6.987,10.258,-233.028,-52.771,0.268,-5.907,102.226,-34.021,-15.224,-12.099,-9.263,-13.95,-22.691,-35.385,-4.475,-35.499,12.585,-9.419,-11.015,-8.647,28.74,4.552,-5.233,29.255,-54.761,-0.763,10.102,-5.248,-137.27
2.50133000000005,-6.852,-2.048,-236.381,-48.62,-13.564,-12.049,129.276,-40.647,-19.307,-15.161,-15.402,-20.083,-24.718,-38.423,-11.643,-37.001,11.036,-13.508,-14.078,-14.274,19.49,-2.625,-5.228,32.3,-74.687,-11.008,2.407,-11.391,-135.083
2.51537150000013,-17.604,-16.391,-230.509,-56.256,-19.186,-15.623,112.753,-41.119,-17.239,-11.559,-15.386,-21.088,-23.156,-41.458,-16.242,-37.476,8.463,-16.568,-17.65,-17.333,18.445,-3.647,-10.858,22.534,-91.006,-15.096,-3.743,-23.675,-119.579
2.51543619999984,-9.902,-19.448,-238.988,-69.52,-13.019,-13.046,80.365,-32.368,-9.537,-8.986,-13.834,-19.53,-21.084,-40.905,-14.689,-33.852,6.918,-17.576,-20.706,-18.853,18.427,-6.205,-21.094,7.654,-94.501,-20.204,-3.227,-32.36,-134.828
2.53041080000003,-9.892,-27.626,-262.315,-74.573,-19.666,-20.205,82.334,-35.922,-16.7,-18.711,-22.017,-24.633,-27.723,-47.524,-19.798,-38.429,2.812,-24.218,-27.858,-26.519,10.724,-17.47,-29.269,-2.087,-112.337,-31.966,-8.859,-49.234,-163.383
2.5304728000001,-23.202,-37.844,-268.713,-76.548,-31.942,-33.505,85.838,-44.595,-27.441,-29.451,-30.704,-26.658,-32.306,-51.575,-31.049,-43.514,-1.289,-28.293,-35.515,-31.615,7.639,-25.649,-32.826,-6.696,-132.205,-36.033,-17.047,-61.992,-169.367
2.54548389999991,-23.691,-29.609,-253.587,-70.324,-22.176,-24.762,58.599,-29.182,-16.655,-17.638,-24.014,-18.434,-22.027,-39.74,-25.894,-31.687,5.885,-18.018,-28.819,-21.337,17.366,-16.402,-29.207,-1.054,-130.023,-28.312,-8.833,-45.537,-166.124
2.54947080000011,-14.446,-19.334,-252.821,-62.569,-12.42,-10.393,74.935,-19.419,-10.491,-6.862,-15.281,-17.904,-17.907,-35.09,-14.085,-25.508,11.514,-16.976,-20.081,-16.705,20.422,-8.701,-23.543,4.583,-117.086,-25.722,-2.165,-33.708,-164.421
2.56236420000005,-15.968,-26.999,-264.351,-70.191,-21.629,-21.653,107.647,-43.99,-24.825,-22.225,-25.511,-26.083,-29.672,-45.301,-21.244,-35.216,1.769,-28.742,-30.307,-28.472,11.692,-21.5,-29.667,-6.693,-105.698,-34.406,-12.921,-51.093,-156.059
2.56243080000013,-21.588,-33.632,-254.353,-78.318,-22.12,-33.927,110.614,-55.729,-29.411,-29.887,-31.634,-23.495,-31.692,-46.28,-28.907,-33.132,-2.331,-26.151,-36.937,-30.492,9.119,-30.7,-39.883,-21.543,-94.834,-41.032,-17.006,-59.751,-152.83
2.57549789999985,-17.98,-27.451,-239.754,-70.555,-13.389,-23.647,78.228,-36.206,-22.209,-18.074,-23.405,-19.885,-25.512,-44.184,-22.73,-24.389,4.331,-20.49,-29.215,-24.314,12.696,-22.985,-35.233,-20.497,-103.448,-39.966,-9.305,-51.494,-154.214
2.57556299999987,-9.765,-19.739,-248.736,-63.312,-10.814,-15.426,72.002,-31.046,-21.675,-16.519,-21.332,-21.403,-27.024,-47.726,-16.048,-24.365,2.79,-26.105,-26.112,-26.339,14.733,-19.375,-26.488,-6.132,-128.448,-34.291,-5.709,-50.418,-144.838
2.59048609999991,-7.706,-16.133,-253.61,-65.298,-6.704,-16.948,100.107,-42.286,-22.165,-19.064,-21.823,-18.82,-25.46,-41.531,-12.958,-20.755,3.811,-22.492,-25.062,-23.751,14.718,-20.893,-25.949,-3.564,-126.27,-28.621,-3.142,-49.343,-143.668
2.59056770000006,-19.994,-19.19,-247.209,-65.745,-8.235,-17.443,91.297,-40.195,-23.68,-18.02,-20.265,-19.313,-24.922,-38.416,-18.58,-21.246,6.369,-18.884,-26.573,-23.215,8.043,-21.384,-32.583,-19.954,-103.602,-33.715,-5.7,-44.171,-159.406
2.60549750000018,-27.658,-21.22,-250.036,-61.068,-18.985,-22.549,58.931,-37.081,-29.292,-23.125,-26.392,-26.978,-33.606,-47.599,-27.783,-30.959,-2.346,-29.623,-34.744,-33.95,2.4,-27.511,-37.162,-26.082,-102.986,-41.879,-14.404,-45.151,-155.661
2.60963360000005,-15.335,-10.953,-245.175,-59.983,-16.404,-22.014,54.773,-40.117,-26.189,-21.053,-25.853,-24.39,-28.962,-44.477,-18.534,-22.219,-0.807,-26.52,-30.611,-29.818,7.008,-24.922,-28.415,-11.711,-109.543,-35.689,-8.754,-43.057,-131.939
2.62138140000025,-8.66,-5.307,-232.122,-62.484,-5.117,-10.721,87.506,-33.417,-13.867,-8.224,-11.995,-14.119,-15.613,-33.674,-5.708,-5.29,13.538,-8.563,-17.26,-14.931,12.124,-11.577,-18.141,-5.04,-102.261,-23.358,4.062,-36.354,-131.295
2.62144709999984,-14.799,-8.375,-235.988,-58.323,-7.161,-8.149,114.059,-27.236,-8.73,-6.167,-10.959,-13.081,-18.159,-35.178,-10.825,-8.871,14.549,-7.017,-17.243,-15.941,11.088,-11.053,-19.659,-11.694,-102.671,-19.748,2.009,-31.194,-149.606
2.63560370000005,-11.198,-7.855,-245.999,-53.654,-15.351,-15.313,108.822,-29.258,-12.82,-15.382,-19.657,-18.191,-26.338,-40.265,-15.937,-16.547,6.338,-16.744,-23.373,-22.073,8.515,-19.239,-23.738,-15.269,-109.229,-21.266,-3.116,-26.04,-150.994
2.65053280000029,-11.187,-11.433,-248.314,-64.359,-18.922,-20.421,77.462,-33.84,-21.004,-21.515,-20.662,-22.783,-32.459,-47.397,-17.458,-16.53,-0.841,-25.949,-28.473,-26.661,0.822,-21.781,-25.251,-20.377,-110.144,-26.88,-3.625,-30.625,-146.232
2.65059410000003,-26.033,-18.594,-249.603,-70.955,-19.415,-20.912,47.671,-37.392,-27.643,-22.005,-20.129,-23.273,-36.525,-54.522,-22.564,-18.051,-4.426,-28.484,-33.567,-32.782,-1.228,-24.321,-29.325,-25.992,-113.62,-29.927,-6.183,-40.328,-146.086
2.66559779999989,-20.371,-8.329,-237.57,-56.027,-12.223,-9.108,62.992,-30.182,-18.394,-12.762,-11.912,-13.003,-24.193,-38.586,-14.344,-9.836,9.411,-14.111,-21.751,-20.454,9.019,-16.1,-19.561,-16.232,-101.723,-19.138,0.995,-34.14,-134.157
2.66565889999993,3.728,8.073,-217.865,-43.163,-1.965,2.171,95.717,-19.394,-3.519,0.059,1.42,-2.232,-8.8,-17.543,-0.498,3.494,25.795,-1.802,-7.897,-5.065,14.133,-1.227,-6.734,-5.457,-77.543,-9.898,11.24,-22.835,-124.289
2.68155160000015,1.675,3.454,-225.844,-53.878,-4.012,-5.515,114.577,-28.083,-8.126,-4.04,-4.217,-6.84,-14.426,-27.259,-7.67,-2.145,16.548,-12.558,-19.672,-15.818,7.459,-7.885,-17.998,-14.161,-89.761,-18.597,6.618,-24.349,-139.021
2.68161779999991,-18.819,-10.381,-245.086,-72.78,-11.693,-17.805,82.187,-39.326,-21.95,-18.893,-21.631,-17.592,-27.219,-42.601,-19.957,-14.95,0.65,-27.915,-37.071,-30.659,0.279,-27.345,-33.349,-30.541,-121.947,-30.361,-3.122,-31.497,-157.325
2.69570669999985,-22.387,-18.568,-240.23,-77.318,-16.804,-22.398,67.76,-37.75,-22.44,-23.997,-28.269,-22.697,-32.315,-41.022,-23.011,-18.521,0.649,-28.4,-38.058,-32.165,-5.869,-32.953,-34.853,-36.146,-134.12,-35.966,-8.754,-41.199,-153.07
2.69576910000023,-16.729,-26.234,-234.354,-73.654,-23.96,-26.987,94.332,-42.835,-22.93,-26.535,-29.778,-26.261,-36.381,-40.981,-28.111,-19.015,1.161,-22.736,-38.533,-36.744,-11.498,-34.457,-38.404,-31.499,-129.888,-42.59,-15.918,-54.99,-141.646
2.71068199999991,-16.712,-28.769,-243.341,-76.655,-27.01,-22.861,61.962,-40.743,-27.006,-28.045,-28.211,-25.722,-35.32,-44.526,-28.595,-15.41,0.135,-18.102,-37.469,-34.146,-6.876,-33.91,-36.829,-25.832,-115.925,-42.036,-13.34,-56.985,-145.603
2.71074660000022,-13.109,-13.371,-240.024,-70.43,-12.126,-6.957,29.625,-19.698,-13.147,-12.135,-12.814,-13.401,-23.502,-36.285,-11.661,-2.075,9.869,-11.424,-21.55,-16.693,7.476,-16.97,-18.861,-19.658,-83.022,-23.55,1.018,-38.485,-156.215
2.72570429999996,-0.288,-0.55,-229.538,-54.991,5.305,1.759,62.383,-17.116,-0.326,3.246,0.519,-2.629,-11.183,-27.027,2.183,9.711,19.593,-2.191,-6.672,-6.942,18.227,-2.609,-10.133,-8.88,-75.766,-7.645,8.189,-21.54,-153.498
2.72576560000016,2.786,-10.283,-240.067,-66.719,-3.41,-8.488,85.887,-36.567,-13.645,-8.028,-7.166,-10.311,-15.783,-32.635,-6.528,2.528,11.888,-4.238,-13.838,-14.108,11.036,-10.803,-18.32,-5.797,-101.818,-14.81,0.496,-29.203,-141.561
2.74278690000028,-16.172,-27.692,-254.171,-92.267,-27.485,-25.386,53.526,-39.604,-26.439,-25.438,-25.602,-23.109,-34.722,-47.459,-27.014,-15.917,-2.98,-20.115,-34.828,-26.389,-7.93,-27.698,-25.474,-21.673,-95.569,-33.751,-11.8,-44.543,-146.03
2.74285250000003,-33.062,-33.812,-248.794,-89.613,-36.679,-29.972,70.378,-35.979,-23.851,-27.462,-35.31,-28.209,-42.372,-55.097,-38.258,-24.098,-8.101,-31.878,-46.577,-36.609,-16.119,-35.868,-33.133,-33.947,-80.104,-41.914,-19.985,-47.06,-158.18
2.75615419999986,-22.783,-28.142,-241.885,-77.741,-31.007,-25.331,103.095,-40.041,-23.828,-26.922,-31.689,-29.205,-35.67,-52.992,-33.096,-19.976,-7.068,-29.797,-41.407,-36.06,-10.98,-31.733,-34.637,-23.154,-106.664,-35.724,-17.916,-41.89,-153.923
2.75621940000019,-10.465,-20.43,-245.23,-80.737,-22.779,-24.793,78.402,-36.415,-24.828,-26.383,-24.485,-26.102,-35.122,-53.452,-23.842,-14.833,-6.548,-27.206,-32.656,-26.802,-8.408,-23.505,-22.819,-12.885,-116.803,-26.979,-10.725,-37.237,-152.232
2.77073010000004,-22.238,-22.971,-246.009,-84.755,-18.658,-30.404,46.048,-38.428,-26.853,-27.894,-28.559,-25.051,-39.697,-58.009,-27.404,-17.379,-8.591,-30.253,-38.259,-30.874,-11.985,-28.092,-23.821,-23.118,-97.731,-30.026,-15.838,-37.712,-163.351
2.77078849999998,-31.949,-32.169,-248.325,-84.67,-24.787,-37.033,58.809,-53.246,-37.072,-36.575,-36.727,-30.149,-40.682,-55.902,-34.549,-24.022,-10.632,-33.809,-49.492,-40.577,-15.047,-39.847,-38.654,-31.804,-112.49,-40.242,-25.556,-48.945,-158.577
2.78581230000009,-19.622,-23.94,-247.564,-73.314,-19.639,-28.799,58.238,-43.971,-28.326,-25.268,-23.37,-21.922,-29.883,-40.989,-22.219,-15.289,-0.887,-21.992,-36.634,-25.167,-8.884,-26.999,-28.882,-21.014,-120.063,-31.493,-14.772,-48.384,-137.413
2.7858725000001,-7.819,-5.473,-233.996,-58.384,1.386,-4.18,35.639,-18.312,-2.682,2.422,-1.83,-3.97,-9.361,-24.554,-3.241,6.756,17.044,2.109,-10.982,-3.113,5.981,-2.894,-8.873,-10.235,-87.155,-12.506,3.174,-28.868,-133.177
2.80292450000024,-17.545,-13.665,-235.812,-78.306,-7.325,-8.786,43.288,-28.54,-10.364,-8.339,-13.099,-14.212,-16.524,-30.165,-11.435,2.651,12.929,-1.479,-16.607,-15.917,0.34,-13.137,-20.135,-19.958,-84.506,-21.203,-6.563,-36.012,-150.463
2.80298970000013,-32.385,-40.803,-266.827,-108.966,-39.593,-41.053,49.904,-60.787,-40.58,-40.606,-41.775,-36.739,-48.783,-50.627,-32.94,-22.455,-7.064,-28.63,-41.181,-40.492,-24.251,-39.764,-41.632,-35.82,-116.697,-46.797,-30.123,-67.739,-171.829
2.81588680000004,-27.229,-39.738,-275.269,-94.512,-30.844,-44.086,30.387,-60.726,-40.539,-35.954,-38.66,-30.555,-50.271,-50.064,-27.784,-19.871,-6.032,-28.089,-39.09,-35.329,-23.202,-35.113,-35.955,-32.198,-130.925,-45.213,-27.531,-63.06,-176.268
2.83084529999996,-9.271,-10.497,-242.206,-66.241,1.974,-11.254,32.918,-30.951,-17.445,-6.205,-10.444,-12.081,-18.97,-33.62,-4.191,3.715,10.88,-3.471,-17.534,-15.313,0.899,-13.049,-15.426,-9.112,-98.006,-19.552,-5.987,-30.209,-150.477
2.83091409999997,-5.163,5.908,-220.447,-62.589,5.558,3.102,56.963,-14.527,-4.107,3.535,-0.187,-7.458,-11.266,-28.463,2.986,8.322,14.967,1.144,-12.906,-7.613,7.558,-5.864,-7.214,3.193,-65.121,-4.676,2.728,-14.81,-123.174
2.84580559999995,-15.404,-3.32,-236.108,-59.964,-9.304,-8.172,59.98,-21.172,-9.739,-4.665,-12.995,-13.598,-24.575,-35.095,-7.775,-1.42,5.731,-12.177,-23.139,-16.315,-5.257,-13.03,-15.916,-12.18,-50.199,-12.356,-7.52,-22.48,-133.809
2.84586609999997,-23.074,-19.71,-249.192,-66.052,-21.59,-18.922,66.068,-34.471,-27.147,-20.03,-28.863,-26.905,-31.723,-46.843,-22.625,-12.689,-4.521,-20.874,-33.875,-33.205,-16.522,-28.899,-29.732,-30.611,-81.399,-30.787,-21.858,-37.826,-156.217
2.86079569999993,-26.124,-27.375,-240.746,-87.503,-33.352,-28.125,79.322,-43.146,-31.731,-27.694,-30.371,-31.489,-36.814,-52.944,-30.799,-18.312,-5.029,-20.341,-34.865,-37.27,-18.043,-33.993,-31.24,-23.92,-111.032,-35.879,-25.422,-47.523,-146.839
2.86456810000027,-20.975,-18.639,-229.747,-82.292,-26.146,-20.924,55.676,-34.393,-17.867,-14.346,-18.558,-18.137,-31.142,-44.182,-21.034,-9.072,4.198,-12.636,-22.535,-19.302,-8.291,-15.516,-18.401,-8.527,-92.99,-19.449,-15.15,-34.667,-124.151
2.87679130000015,-9.171,-2.738,-225.931,-57.619,-5.115,-1.436,46.911,-17.965,-10.677,-2.037,-8.806,-10.434,-17.791,-38.502,-5.644,0.158,6.243,-9.038,-14.828,-9.037,0.939,-5.766,-11.21,-8.006,-75.478,-7.647,-6.426,-13.628,-126.076
2.87685180000017,-9.674,-0.174,-224.68,-61.148,-6.647,-5.021,79.652,-21.533,-18.863,-11.256,-13.408,-18.109,-24.433,-48.197,-8.2,-7.526,-1.96,-19.275,-25.572,-23.372,-2.648,-20.618,-19.396,-17.22,-85.137,-18.397,-11.543,-15.151,-140.807
2.89086989999987,-26.058,-16.056,-230.091,-76.456,-25.596,-21.409,85.208,-37.393,-27.553,-22.516,-24.665,-25.263,-39.778,-54.297,-22.024,-15.204,-9.131,-32.063,-36.305,-34.107,-12.379,-28.794,-29.11,-23.35,-96.322,-30.674,-22.802,-34.604,-147.326
2.89093430000003,-29.619,-26.798,-243.693,-73.818,-32.742,-21.9,52.847,-36.331,-28.038,-22.493,-28.739,-25.75,-36.152,-49.119,-26.1,-14.676,-10.146,-29.469,-33.194,-28.438,-14.928,-24.154,-28.569,-23.327,-109.034,-28.082,-25.341,-44.303,-144.617
2.90580869999985,-14.732,-14.988,-242.425,-66.572,-21.439,-12.657,44.598,-23.487,-15.715,-11.2,-17.439,-18.039,-25.357,-40.873,-18.902,-10.051,-0.914,-11.509,-22.403,-21.237,-7.229,-19.519,-20.343,-16.131,-97.654,-19.345,-11.995,-31.451,-132.689
2.9058742000002,-3.959,1.933,-216.055,-61.895,-9.634,0.676,30.208,-13.218,-1.867,4.693,-4.102,-6.238,-16.623,-33.148,-8.125,1.743,11.894,-0.227,-11.622,-11.994,2,-9.254,-10.077,-6.381,-64.769,-10.616,0.312,-8.878,-120.773
2.9208509,-5.492,5.005,-200.469,-52.099,-7.576,10.409,22.494,-6.032,-1.353,9.811,0.513,0.428,-8.409,-27.992,-0.432,10.962,15.981,-0.227,-3.926,-2.761,6.609,2.539,-1.87,-0.227,-53.945,-1.896,-0.713,0.352,-117.066
2.92494380000016,-8.56,-3.197,-216.663,-49.997,-9.617,1.177,55.259,-14.223,-6.987,2.629,-3.074,-1.622,-10.962,-24.89,-1.456,6.853,15.452,2.847,-3.922,-5.832,7.627,-1.05,-2.892,-0.227,-86.167,-2.919,-4.81,-11.943,-116.949
2.9366258,-15.724,-17.538,-237.451,-65.829,-13.706,-17.267,67.499,-40.849,-19.275,-10.181,-15.878,-14.94,-26.321,-35.111,-10.164,-5.962,7.24,-7.402,-19.287,-21.708,-2.115,-19.492,-18.259,-14.571,-97.864,-21.872,-13.003,-31.911,-130.152
2.93669490000002,-23.905,-29.304,-242.336,-80.62,-22.914,-24.935,35.156,-55.152,-35.137,-24.003,-29.182,-28.758,-39.614,-54.544,-22.449,-17.226,-9.673,-34.547,-37.711,-32.957,-15.945,-31.768,-33.097,-33,-102.377,-37.731,-26.822,-42.638,-154.101
2.95094879999988,-14.66,-18.004,-232.36,-69.781,-23.403,-15.688,36.658,-35.117,-24.344,-14.246,-17.882,-17.458,-29.329,-47.317,-20.89,-10.549,-3.516,-25.803,-25.89,-21.653,-6.708,-19.441,-22.818,-24.258,-108.934,-25.911,-18.598,-28.763,-149.848
2.95101840000007,5.335,3.531,-214.709,-51.78,-9.035,4.308,69.409,-6.905,5.907,12.921,6.726,2.027,-2.659,-21.654,-0.889,11.491,21.078,7.011,0.776,0.91,14.816,4.145,-0.766,1.382,-87.821,-0.269,2.937,-5.68,-118.96
2.96597530000008,8.916,1.991,-216.544,-56.852,-3.903,9.939,47.31,-6.386,5.389,12.396,6.72,-4.123,-1.632,-22.145,6.797,13.528,20.545,0.856,-5.373,-1.14,11.215,2.604,-4.864,1.893,-85.684,0.243,-0.652,-7.724,-112.693
2.96604030000026,-5.438,-13.893,-237.332,-69.603,-13.121,-6.977,74.928,-28.921,-18.695,-9.134,-11.73,-17.438,-26.733,-39.541,-11.141,-6.978,1.569,-27.834,-30.47,-24.193,-5.19,-20.965,-24.839,-17.577,-117.873,-21.274,-17.557,-29.746,-136.147
2.98103979999996,-15.678,-21.564,-248.365,-72.095,-23.866,-23.364,107.64,-44.262,-27.898,-18.858,-24.014,-22.032,-37.465,-49.748,-27.011,-16.192,-5.605,-30.88,-37.1,-34.927,-9.283,-32.215,-30.449,-27.293,-118.78,-31.499,-22.663,-39.45,-155.478
2.99771330000021,-13.101,-21.03,-241.457,-75.096,-26.916,-23.853,75.257,-34.996,-22.747,-19.352,-25.015,-26.108,-32.817,-52.26,-23.398,-14.639,0.036,-25.214,-28.866,-28.232,-7.737,-24.498,-23.247,-24.192,-85.874,-25.32,-23.665,-35.312,-152.249
2.99777780000022,-5.403,-13.324,-228.92,-69.386,-16.643,-11.534,42.907,-12.931,-12.478,-8.062,-11.67,-17.885,-25.612,-36.326,-10.055,-10.014,13.356,-15.967,-15.517,-16.933,-4.143,-12.178,-14.514,-13.921,-81.689,-15.56,-20.055,-29.641,-135.703
2.99782300000015,-11.546,-9.212,-230.74,-55.996,-8.43,-3.326,75.651,-13.431,-10.416,0.656,-7.047,-11.207,-19.951,-27.068,-6.971,-5.905,15.392,-7.754,-13.965,-17.941,-2.09,-14.728,-15.012,-12.883,-109.784,-16.057,-17.986,-31.148,-135.055
3.0109824000001,-25.367,-17.4,-249.977,-62.6,-21.741,-20.228,108.363,-43.644,-27.312,-18.813,-25.483,-26.565,-34.788,-47.533,-20.284,-16.658,-4.091,-23.116,-32.394,-33.292,-11.821,-29.57,-29.342,-30.288,-115.822,-30.386,-30.263,-40.339,-154.387
3.02602430000024,-16.632,-12.772,-244.092,-64.587,-22.744,-25.844,77.517,-46.674,-27.285,-22.892,-22.896,-24.49,-39.364,-43.387,-18.727,-17.666,-0.501,-23.605,-29.8,-28.135,-5.662,-20.319,-23.165,-24.11,-88.042,-25.744,-24.597,-32.101,-145.012
3.02609010000015,5.414,9.27,-211.06,-35.833,-1.204,5.945,45.164,-13.839,0.919,8.894,5.816,1.15,-7.561,-11.068,7.42,6.431,25.115,7.157,-2.105,-3.004,17.398,5.829,4.523,8.701,-70.023,1.946,-1.007,-6.454,-112.079
3.04104340000003,-0.227,3.113,-210.849,-34.26,-5.814,12.599,13.355,-5.116,0.406,6.323,-0.337,-5.511,-7.041,-25.402,4.851,2.326,13.307,-2.584,-11.837,-11.71,7.646,-4.935,-5.727,4.082,-97.618,-3.691,-12.276,-15.157,-122.213
3.04110360000004,-17.645,-24.042,-242.914,-66.502,-30.911,-17.127,18.977,-37.387,-26.747,-22.372,-26.977,-30.608,-39.31,-57.652,-24.356,-26.366,-17.445,-34.857,-42.051,-37.826,-15.927,-31.57,-37.997,-28.198,-128.771,-35.451,-38.392,-44.855,-154.366
3.05692320000026,-10.455,-19.407,-243.695,-64.898,-20.122,-13.524,51.746,-39.398,-18.011,-11.591,-15.679,-20.844,-28.512,-42.737,-15.11,-15.581,-6.669,-20.989,-27.665,-23.444,-0.03,-16.681,-24.127,-19.46,-114.297,-24.657,-25.546,-37.126,-150.626
3.05699340000001,3.9,3.154,-217.836,-32.046,5.514,13.13,80.384,-13.231,8.647,11.986,7.39,1.206,4.304,-15.542,14.107,11.074,19.465,10.282,0.54,3.219,21.999,8.438,7.148,12.835,-83.957,4.569,-5.028,-14.035,-118.2
3.07020340000008,2.359,1.613,-211.471,-27.403,0.385,12.604,48.028,-7.583,9.151,12.487,6.87,0.693,-0.311,-13.478,9.994,6.965,19.958,4.637,-0.485,0.142,15.83,6.381,4.067,16.408,-72.602,0.979,-10.658,-12.996,-105.786
3.07026989999986,-0.717,-5.048,-212.796,-39.671,-5.251,9.006,15.705,-4.501,3.507,12.986,4.302,-4.431,-7.483,-19.099,0.251,1.323,11.741,-3.565,-6.12,-6.518,13.252,1.763,-5.671,9.219,-72.017,-8.244,-15.771,-10.934,-112.852
3.08511309999994,-1.229,1.617,-211.047,-37.582,9.099,14.632,48.477,0.114,6.577,10.412,3.785,-4.427,-3.889,-28.814,8.447,3.37,8.143,-5.611,-8.676,-8.561,15.288,0.225,-4.128,8.186,-78.093,-6.699,-13.706,-7.337,-118.375
3.08517519999987,-9.937,-1.459,-215.959,-33.958,5.504,2.322,81.216,-19.354,-3.676,-5.992,-4.415,-11.082,-16.693,-38.007,1.266,-6.879,1.475,-19.437,-21.475,-20.335,2.977,-10.022,-11.296,3.567,-86.724,-15.914,-20.864,-21.674,-116.207
3.10011900000018,-20.685,-18.876,-222.915,-43.658,-19.092,-15.099,54.495,-37.778,-19.041,-14.696,-15.682,-21.83,-27.435,-36.944,-17.178,-14.044,-2.625,-19.418,-28.625,-27.487,-6.247,-18.209,-20.507,-5.146,-91.248,-25.632,-30.065,-33.948,-122.239
3.10017719999996,-19.64,-25.004,-228.327,-55.397,-25.221,-17.645,22.165,-31.592,-19.535,-14.681,-20.789,-23.857,-26.383,-37.42,-17.161,-14.03,-0.061,-8.64,-25.523,-24.386,-3.167,-18.703,-20.486,-12.826,-97.305,-24.581,-33.109,-29.303,-140.047
3.1170732999999,-9.374,-15.758,-223.488,-56.879,-13.413,-11.48,52.369,-25.413,-13.367,-13.129,-13.596,-16.149,-22.258,-36.87,-6.385,-12.479,3.013,-12.217,-21.399,-18.726,2.472,-14.585,-15.855,-6.665,-100.794,-20.971,-27.952,-21.077,-134.784
3.11714770000026,-4.754,-10.107,-211.482,-48.625,-13.399,-1.735,77.419,-24.363,-8.231,-4.919,-4.361,-10.497,-13.526,-28.636,-3.817,-4.27,6.084,-11.181,-14.205,-12.047,7.08,-6.374,-8.667,11.272,-96.082,-12.753,-18.703,-20.544,-110.571
3.13060700000005,-11.409,-16.757,-219.467,-43.966,-22.607,-3.27,45.067,-22.802,-9.247,-4.914,-11.529,-14.585,-18.124,-31.169,-9.449,-4.266,6.078,-3.485,-17.777,-14.597,2.974,-9.441,-10.707,6.65,-88.814,-15.302,-21.758,-30.769,-119.17
3.13066979999985,-19.082,-24.424,-233.08,-47.508,-24.122,-18.123,27.091,-31.488,-19.484,-19.254,-25.35,-22.255,-38.085,-41.384,-20.198,-17.582,0.437,-13.727,-32.104,-26.877,-6.25,-23.264,-23.504,-18.46,-84.114,-34.242,-36.081,-41.497,-141.592
3.14520670000002,-19.576,-21.838,-222.601,-50.022,-23.073,-20.155,52.679,-34.53,-22.539,-20.772,-23.787,-24.794,-38.047,-40.318,-23.251,-19.613,-4.687,-23.448,-31.56,-28.387,-5.219,-22.729,-22.968,-17.416,-91.202,-33.183,-35.02,-34.795,-128.643
3.14527080000016,-11.871,-6.96,-207.009,-42.287,-18.439,-0.667,52.626,-14.516,-6.122,-3.332,-7.882,-16.06,-18.542,-30.544,-8.371,-6.786,1.465,-11.641,-19.233,-16.576,7.594,-4.775,-7.064,8.729,-101.357,-5.997,-16.03,-17.342,-108.534
3.16020849999995,-0.077,6.88,-202.191,-28.925,-5.613,13.166,64.357,-3.23,7.204,10.503,4.934,-3.749,-9.302,-24.366,4.957,1.93,13.247,-0.359,-9.992,-7.85,18.857,9.062,1.14,18.454,-86.399,6.304,-7.305,-3.493,-113.549
3.16027350000013,1.973,4.823,-200.964,-29.921,-0.997,7.518,91.445,-19.109,-2.025,8.443,1.855,-5.282,-11.854,-26.903,0.854,1.928,10.672,-2.92,-6.908,-8.867,16.789,4.442,-6.033,4.091,-67.869,-7.022,-12.42,-4.514,-118.046
3.17531400000007,-7.251,-2.354,-206.911,-41.674,-11.242,-2.224,59.078,-27.799,-14.318,-1.811,-7.369,-15.011,-17.99,-35.585,-7.856,-3.709,0.415,-5.991,-14.074,-16.03,9.087,-8.37,-12.175,-3.086,-79.072,-15.724,-17.019,-19.878,-107.682
3.19034620000002,-9.805,-1.327,-212.34,-43.169,-15.329,-4.783,26.743,-20.599,-14.304,-7.957,-8.898,-14.996,-22.07,-34.525,-5.799,-7.292,2.464,-5.472,-21.232,-16.527,7.029,-8.874,-10.626,8.7,-90.264,-11.61,-17.002,-24.982,-103.988
3.19041190000007,-3.135,-0.813,-212.127,-41.589,-9.166,-8.877,58.48,-25.189,-15.827,-9.486,-11.451,-12.931,-22.048,-27.318,-3.744,-4.21,5.536,-6.492,-18.649,-13.436,3.948,-3.742,-10.615,10.741,-85.563,-10.574,-15.448,-15.223,-115.155
3.2052564999999,-1.083,-9.009,-220.112,-48.207,-13.767,-15.528,91.209,-35.41,-21.958,-12.55,-16.562,-17.529,-23.051,-30.365,-11.937,-5.743,1.432,-9.047,-20.167,-17.521,-3.74,-10.398,-15.728,-8.225,-88.039,-19.273,-18.506,-19.306,-127.847
3.20531299999993,-0.057,-10.537,-226.552,-47.135,-17.852,-7.828,94.192,-27.69,-13.74,-5.878,-8.349,-15.975,-19.954,-32.383,-12.438,-7.787,3.992,-8.013,-23.733,-16.479,-1.175,-13.462,-12.638,-12.315,-93.074,-20.278,-22.074,-28.508,-132.842
3.22031909999987,7.628,0.232,-216.591,-36.841,-5.027,7.549,107.417,-16.391,0.107,11.034,2.93,-3.663,-8.151,-24.666,3.456,1.955,12.697,-2.882,-13.976,-5.192,12.146,0.896,-2.379,8.189,-94.006,-2.839,-11.806,-16.184,-127.074
3.22037769999997,14.28,9.965,-205.104,-34.755,3.175,10.103,114.995,-16.375,-0.406,14.097,4.977,1.976,-4.556,-22.593,12.162,7.076,11.66,-0.83,-7.302,-2.113,15.208,7.043,3.258,18.94,-96.473,7.41,1.526,-1.311,-112.09
3.23534289999998,11.192,5.857,-202.85,-38.819,-5.025,3.433,82.604,-16.871,-8.602,3.324,1.385,-8.272,-14.798,-31.792,0.367,-3.177,-0.135,-10.051,-15.491,-10.308,2.385,-4.747,-3.405,5.088,-90.229,-7.967,-7.185,-8.482,-106.855
3.23933519999991,-0.602,-10.03,-209.307,-45.952,-15.778,-4.767,83.546,-24.026,-16.791,-6.413,-12.448,-20.56,-26.566,-43.03,-15.515,-12.908,-11.406,-21.311,-22.648,-20.544,-8.376,-13.452,-14.672,-9.261,-87.065,-22.304,-22.547,-25.38,-125.704
3.25132770000027,-8.799,-17.193,-217.807,-54.616,-19.861,-8.861,110.615,-34.249,-20.36,-11.017,-16.534,-17.977,-27.564,-42.475,-12.938,-9.821,-8.833,-13.605,-16.478,-18.474,-2.22,-4.729,-11.584,-1.055,-99.785,-12.547,-17.401,-30.99,-136.336
3.25139549999994,-0.081,-4.368,-217.077,-49.438,-10.619,0.37,78.741,-21.919,-9.581,-0.248,3.975,-3.615,-13.704,-26.551,3.981,4.533,8.082,7.413,-3.654,-0.525,8.541,12.182,4.309,19.438,-95.587,3.859,-1.502,-18.664,-118.269
3.26539279999997,7.604,2.297,-211.737,-37.093,2.199,8.054,71.49,-8.577,-1.375,11.536,11.143,1,-3.957,-16.278,9.612,11.189,13.71,11.504,-2.113,2.55,6.483,10.633,5.33,20.956,-73.975,2.318,-1.501,-8.911,-108.417
3.26545870000018,-1.625,-7.439,-211.525,-42.179,-3.951,-1.688,104.206,-19.327,-11.107,-0.259,-6.287,-9.248,-12.15,-25.996,-0.643,-1.63,3.962,-1.828,-15.431,-14.359,-2.233,-9.87,-11.582,7.615,-80.048,-15.103,-15.331,-19.148,-120.604
3.28046919999997,-3.673,-8.969,-211.313,-50.846,-10.095,-5.785,71.827,-23.406,-12.633,-7.431,-8.33,-11.8,-16.748,-32.118,-4.229,-10.338,0.372,-5.412,-20.026,-15.881,0.331,-12.934,-13.62,9.144,-94.313,-22.26,-18.39,-23.74,-125.094
3.28053640000007,5.552,-0.763,-213.151,-43.111,-0.863,3.443,39.48,-14.161,-4.936,4.36,0.9,-4.616,-10.584,-27.475,0.898,-2.13,2.933,-0.796,-10.785,-5.107,5.966,0.911,-1.311,16.819,-77.312,-9.942,-7.101,-10.908,-117.797
3.2954494999999,0.424,-3.836,-217.549,-36.92,-0.862,0.878,72.228,-26.442,-12.103,2.818,-4.224,-5.124,-12.623,-28.984,-0.639,-1.616,0.881,-3.869,-9.749,-8.688,3.399,1.423,2.277,15.778,-65.452,-3.784,-6.069,-8.848,-107.945
3.29954840000028,-5.212,-6.906,-209.647,-41.494,-8.034,-4.246,104.943,-32.564,-12.091,-1.795,-2.683,-6.655,-10.561,-27.931,-0.126,-4.176,2.929,-5.402,-11.789,-10.216,3.907,-1.653,0.225,19.861,-85.879,-6.342,-13.235,-17.036,-95.542
3.31173080000008,4.527,2.835,-195.092,-40.428,3.245,12.664,72.563,-3.842,9.95,15.625,11.665,3.085,4.307,-14.583,11.144,8.636,13.172,4.337,-3.58,0.552,12.613,9.108,3.811,29.575,-91.941,2.886,-1.951,-11.384,-97.496
3.31180230000018,7.596,5.906,-196.434,-36.289,9.902,22.385,63.781,7.433,14.039,20.22,10.628,4.619,4.815,-13.031,14.719,12.726,13.159,6.895,-2.552,-0.473,11.576,12.685,5.344,25.447,-73.406,5.444,7.272,-5.225,-115.329
3.32557080000015,-0.608,-3.322,-208.021,-39.839,-3.428,4.944,96.505,-16.141,-4.931,0.22,-2.702,-8.193,-12.096,-26.338,1.385,-2.656,0.338,-5.92,-12.283,-11.231,-0.219,-1.16,-3.37,12.613,-80.505,-13.004,-9.641,-16.49,-121.361
3.32564030000003,-3.169,-5.88,-207.813,-41.336,-10.597,-2.745,93.335,-20.735,-8,-2.854,-5.773,-12.284,-16.183,-29.386,-7.838,-6.24,-1.711,-8.476,-16.369,-11.732,-3.805,-8.844,-10.027,8.502,-109.626,-20.676,-18.853,-25.183,-110.994
3.34047330000021,-2.654,3.347,-200.945,-36.684,-5.976,8.528,92.729,-8.932,-0.307,5.346,-3.206,-8.173,-13.093,-24.746,-1.683,-0.086,4.951,2.804,-14.304,-9.671,-0.727,-7.298,-8.992,12.592,-105.93,-12.458,-10.125,-15.424,-109.858
3.34053249999988,-9.311,0.27,-215.089,-41.77,-11.605,-1.726,101.346,-23.267,-12.602,-9.517,-13.449,-18.411,-25.375,-35.479,-3.218,-9.819,-7.862,-7.958,-25.048,-20.42,-7.387,-14.463,-12.569,11.043,-75.598,-19.618,-17.287,-12.847,-122.556
3.35552300000018,-20.06,-20.222,-239.464,-61.196,-29.012,-29.389,68.969,-48.859,-34.619,-29.999,-29.317,-32.225,-41.743,-54.911,-20.633,-25.179,-29.371,-34.59,-40.904,-34.232,-21.724,-27.769,-22.291,0.786,-76.547,-34.455,-30.59,-33.327,-130.63
3.35957020000023,-14.405,-21.227,-232.565,-66.77,-28.471,-25.774,50.457,-45.224,-29.461,-20.748,-22.115,-22.971,-32.992,-54.344,-22.149,-18.494,-19.608,-27.895,-33.691,-26.513,-22.214,-18.007,-17.145,4.883,-98.5,-28.786,-21.85,-42.515,-121.79
3.37255559999994,10.2,4.41,-203.643,-43.137,-3.851,4.478,67.825,-19.564,-3.304,5.401,3.01,-1.943,-9.393,-32.773,-1.635,2.017,4.49,1.334,-10.091,-3.432,-5.286,6.602,1.827,26.908,-90.716,-9.289,-6.459,-20.443,-108.349
3.37262099999998,14.801,12.602,-197.804,-27.213,4.862,11.646,69.294,-12.884,-1.251,10.518,8.13,0.62,-4.773,-23.006,8.1,8.163,5.51,2.358,-2.909,3.743,0.867,10.181,7.973,34.053,-70.133,3.528,-3.891,-6.59,-110.289
3.38561070000014,-6.731,-2.78,-210.414,-43.579,-14.098,-7.321,71.274,-34.901,-20.205,-3.325,-7.248,-10.651,-18.088,-31.693,-3.691,-1.579,-4.741,-9.94,-12.64,-5.482,-11.429,-0.587,-0.744,23.261,-77.236,-1.086,-10.035,-18.879,-120.938
3.40058480000016,-12.872,-9.437,-216.864,-60.954,-23.306,-18.584,66.08,-48.698,-20.185,-8.444,-11.339,-12.69,-19.095,-31.661,-10.859,-5.676,-4.737,-4.295,-16.726,-10.087,-18.078,-2.636,-8.94,19.139,-93.552,-11.844,-17.197,-27.57,-124.403
3.40065120000008,-0.563,-6.353,-217.159,-58.332,-18.16,-11.394,49.107,-38.915,-11.968,-1.776,-4.155,-6.529,-11.391,-21.895,-4.701,-1.06,-1.146,0.32,-15.172,-5.466,-13.961,-3.146,-9.444,20.657,-96.02,-12.344,-17.692,-21.907,-125.303
3.41565639999999,4.56,-5.322,-213.356,-52.126,-14.555,-3.185,60.841,-34.266,-16.055,1.812,-2.102,-4.474,-12.404,-18.8,1.452,2.015,3.978,-1.729,-11.058,-0.338,-9.849,-2.118,-2.774,22.685,-90.801,-5.672,-9.99,-15.737,-128.252
3.41572270000006,8.142,1.343,-208.532,-52.073,-8.905,-1.133,70.514,-33.719,-13.989,1.81,-1.075,-4.982,-14.441,-21.855,1.962,3.55,6.536,5.445,-4.9,0.687,-8.302,6.081,4.401,27.273,-80.976,-2.08,-6.906,-7.012,-125.05
3.43151940000007,9.671,7.489,-209.348,-50.997,-5.31,-1.644,62.759,-23.439,-8.34,0.271,0.975,-9.075,-14.939,-26.444,-0.601,1.497,0.894,7.489,-7.456,-2.387,-10.855,6.075,2.347,27.758,-75.26,-1.053,-9.973,-1.882,-116.215
3.43158720000019,3.001,-0.203,-207.089,-48.897,-13.502,-5.228,87.799,-21.367,-14.479,-4.34,-6.198,-15.726,-22.609,-32.565,-7.773,-6.189,-4.742,-3.277,-16.158,-7.508,-16.992,-1.616,-4.827,24.144,-83.894,-6.175,-12.525,-12.638,-109.439
3.44574499999999,-0.076,-12.498,-207.907,-51.409,-19.636,-9.834,100.007,-28.518,-17.026,-9.458,-17.463,-20.833,-28.222,-39.705,-14.937,-11.818,-10.885,-11.983,-21.265,-14.161,-21.074,-7.762,-8.409,21.046,-86.372,-14.366,-17.635,-30.044,-115.477
3.44581169999992,-1.1,-14.023,-220.506,-54.944,-18.592,-8.287,67.632,-19.267,-10.349,-10.473,-15.396,-21.837,-25.632,-44.788,-16.459,-10.781,-19.583,-19.144,-24.83,-17.733,-20.54,-11.34,-8.4,18.976,-85.261,-14.352,-23.765,-32.064,-128.682
3.46076050000011,-2.124,-6.324,-218.237,-49.254,-15.499,-2.131,83.958,-6.441,-4.704,-3.291,-4.622,-14.643,-19.458,-39.62,-8.246,-6.672,-15.465,-18.612,-22.756,-12.08,-15.397,-4.669,-4.806,24.08,-93.372,-8.702,-17.081,-20.248,-131.627
3.46082789999991,10.174,-0.682,-201.625,-38.958,-5.75,2.482,116.662,-10.533,1.449,6.446,-1.031,-3.87,-11.242,-29.334,0.472,1.019,-1.618,-6.81,-11.975,-2.334,-9.234,5.582,0.835,31.228,-84.57,-4.083,-5.281,-11.519,-124.835
3.47573390000025,15.286,-3.243,-202.96,-38.919,4.502,5.553,102.2,-12.571,5.033,9.514,2.556,-2.841,-4.059,-24.182,0.983,7.678,0.433,-2.193,-6.327,-0.282,-10.249,3.527,1.858,28.636,-61.431,-1.005,-8.35,-15.094,-119.587
3.47579519999999,-0.61,-8.875,-210.954,-52.2,-1.138,5.035,69.823,-8.46,-1.119,6.43,3.066,-8.474,-9.178,-23.133,-2.604,3.06,-3.153,-6.289,-13.493,-4.893,-14.85,-2.624,-3.267,21.435,-70.591,-5.102,-17.563,-24.812,-116.394
3.49164860000019,-9.319,-14.502,-211.768,-65.98,-13.432,-4.191,51.822,-17.161,-11.877,-2.797,-9.745,-14.101,-19.415,-29.258,-6.7,-7.19,-4.175,-6.283,-21.164,-8.986,-20.47,-6.208,-8.386,16.29,-92.55,-16.368,-20.107,-27.861,-119.864
3.49171380000007,-5.211,-16.024,-220.265,-69.501,-15.98,-13.409,74.312,-31.488,-18.012,-13.553,-16.908,-17.161,-22.469,-37.425,-11.304,-10.256,-4.683,-4.227,-19.606,-10.514,-24.036,-11.324,-8.89,12.176,-86.822,-16.864,-22.136,-21.173,-129.99
3.50619069999993,-4.181,-11.397,-225.68,-64.82,-12.378,-12.371,77.824,-35.043,-16.97,-9.953,-8.182,-14.07,-20.397,-30.216,-9.243,-4.611,0.957,1.925,-14.464,-8.454,-21.963,-8.239,-5.808,17.286,-81.612,-9.162,-23.139,-17.566,-129.86
3.52082449999989,-1.103,-7.8,-221.356,-62.194,-8.78,-10.309,60.84,-32.447,-12.854,-1.747,-5.612,-10.982,-19.352,-16.865,-3.086,-1.532,9.153,11.656,-14.449,-5.372,-19.379,-3.62,-3.753,25.466,-93.314,-8.641,-18.505,-24.721,-124.607
3.52088270000013,2.996,-7.792,-222.672,-65.206,-4.16,-13.885,85.37,-36,-12.841,-5.843,-7.655,-13.02,-16.771,-15.824,-4.62,-3.58,8.632,13.182,-15.972,-6.391,-21.409,-8.227,-5.798,21.854,-82.462,-13.243,-17.974,-29.307,-125.507
3.5209248000001,-1.618,-4.71,-222.961,-65.653,-3.644,-13.359,118.072,-39.55,-11.292,-6.862,-3.549,-11.982,-13.168,-16.32,-7.689,-3.576,10.16,12.144,-13.906,-7.409,-23.437,-7.707,-6.817,15.685,-61.375,-14.767,-23.591,-22.105,-128.455
3.53583860000026,-6.227,-3.169,-217.615,-59.952,-12.349,-7.198,98.486,-31.314,-6.157,0.317,-6.62,-11.458,-13.155,-17.841,-8.706,-3.573,9.637,7.521,-17.991,-9.451,-25.975,-6.162,-8.347,15.669,-81.806,-17.313,-23.055,-17.472,-132.938
3.53589869999996,-11.856,-9.313,-227.644,-60.404,-22.071,-8.728,66.112,-24.11,-9.225,-5.831,-17.371,-21.18,-21.851,-33.192,-16.382,-14.328,-8.303,-12.979,-32.318,-19.688,-33.633,-19.988,-16.023,12.067,-113.999,-22.419,-25.594,-23.603,-136.391
3.55182420000028,-20.041,-20.062,-241.761,-75.713,-25.123,-17.94,67.583,-30.234,-19.462,-18.12,-24.526,-28.844,-32.588,-48.528,-23.026,-24.559,-23.664,-29.36,-44.581,-32.476,-40.772,-31.751,-26.253,1.297,-110.812,-29.057,-35.302,-33.825,-135.23
3.55190119999997,-17.972,-27.215,-234.859,-84.859,-27.147,-24.582,100.303,-38.913,-20.467,-19.127,-28.088,-26.766,-34.605,-48.992,-22.49,-21.973,-18.517,-22.158,-44.024,-32.956,-39.194,-28.134,-28.276,-4.852,-94.307,-36.712,-37.828,-40.964,-135.095
3.5659768999999,-12.831,-23.601,-224.378,-74.528,-23.533,-21.996,101.228,-37.337,-15.836,-17.571,-24.474,-23.665,-31.496,-43.82,-21.956,-16.316,-11.326,-12.914,-36.807,-24.726,-36.594,-22.47,-21.588,-1.261,-99.336,-33.602,-34.204,-36.312,-135.472
3.58100409999997,-14.355,-11.282,-222.104,-62.67,-13.264,-15.827,68.851,-31.664,-19.406,-17.041,-17.277,-22.104,-32.489,-41.215,-18.347,-15.275,-14.389,-14.951,-34.209,-22.14,-40.656,-18.861,-15.931,4.888,-98.212,-22.81,-32.633,-25.517,-129.189
3.58106980000002,-11.779,-7.173,-215.734,-63.632,-14.787,-13.249,52.901,-28.559,-24.51,-14.975,-18.284,-19.521,-31.432,-42.711,-14.743,-12.698,-14.374,-14.936,-32.638,-20.068,-44.713,-14.744,-14.378,7.444,-78.646,-22.787,-27.99,-23.955,-126.498
3.59600069999988,-5.107,-10.752,-211.42,-59.47,-27.068,-11.699,85.635,-32.629,-18.85,-12.398,-16.217,-17.964,-23.716,-40.619,-17.802,-8.587,-7.188,-7.236,-24.408,-13.388,-43.132,-12.168,-9.241,11.535,-70.37,-24.301,-23.863,-25.468,-127.909
3.59606359999998,-3.053,-4.081,-214.283,-48.652,-21.918,-6.052,118.337,-31.571,-10.122,-5.726,-5.954,-13.336,-17.032,-30.332,-14.198,-8.066,-1.033,3.017,-14.138,-8.764,-35.404,-6.008,-1.035,20.233,-73.886,-14.03,-21.79,-16.221,-118.559
3.61102489999985,1.561,1.046,-215.093,-50.14,-8.064,-3.997,85.944,-23.855,-11.136,-3.671,-5.948,-10.761,-18.552,-29.277,-4.45,-8.57,-1.032,7.113,-13.611,-10.292,-22.049,-0.879,-0.521,26.361,-73.3,-7.356,-16.645,-9.032,-113.83
3.61516440000014,-1.002,-11.762,-218.464,-68.021,-16.765,-13.727,53.582,-31.004,-19.834,-14.426,-16.701,-18.947,-26.731,-43.08,-9.056,-12.148,-5.642,-4.677,-21.795,-13.356,-11.78,-9.075,-9.742,18.65,-78.862,-15.546,-19.703,-17.732,-127.036
3.6269083000002,-14.321,-24.046,-227.467,-80.761,-32.117,-22.422,86.316,-45.83,-24.425,-17.997,-19.758,-26.1,-29.778,-42.012,-17.244,-17.771,-9.222,-12.357,-28.433,-14.879,-5.621,-17.775,-15.88,6.848,-88.005,-23.215,-30.954,-28.473,-131.007
3.62697810000009,-12.257,-19.923,-226.727,-73.508,-26.45,-13.178,119.018,-35.538,-13.643,-6.196,-14.103,-18.39,-21.551,-27.113,-13.641,-14.68,-5.627,-2.099,-26.355,-12.815,-1.004,-14.171,-11.766,9.915,-84.33,-18.581,-27.337,-26.908,-119.606
3.64117440000018,0.563,-8.633,-213.693,-56.528,-13.616,1.18,117.874,-15.01,2.253,0.982,-8.966,-14.273,-13.845,-25.037,-10.041,-6.98,1.551,0.465,-22.23,-9.729,0.533,-9.546,-5.094,20.151,-78.611,-8.829,-13.989,-16.122,-119.998
3.64124219999985,-0.463,0.085,-202.209,-51.861,-11.553,3.74,105.461,-11.409,2.763,0.981,-7.42,-18.869,-15.368,-29.623,-7.982,-7.486,-0.5,-8.245,-23.745,-10.743,1.558,-8.512,-1.503,21.156,-76.483,-4.721,-13.463,-5.348,-125.514
3.65510270000004,-7.122,-5.038,-202.519,-62.567,-14.615,-1.899,85.376,-18.57,-7.999,-0.557,-9.462,-18.85,-18.426,-32.667,-3.875,-12.601,-10.233,-6.7,-27.307,-14.319,4.117,-10.553,-6.624,14.987,-74.357,-9.84,-18.573,-10.465,-115.142
3.65516200000002,-3.529,-20.915,-217.173,-73.775,-19.211,-10.606,86.315,-28.285,-13.626,-6.704,-12.526,-18.832,-19.945,-39.806,-8.995,-14.638,-11.247,-6.693,-26.768,-15.841,1.552,-14.128,-13.278,9.849,-81.455,-18.539,-21.115,-28.898,-112.465
3.6701293000001,3.647,-22.943,-229.251,-77.288,-21.241,-11.62,117.479,-27.232,-7.465,-6.185,-10.464,-19.837,-17.876,-37.717,-13.596,-12.574,-3.551,-11.809,-20.593,-9.678,2.063,-10.016,-8.141,10.351,-81.374,-17.496,-18.021,-29.381,-131.308
3.67407000000003,7.742,-10.625,-221.85,-73.112,-16.097,-2.387,97.894,-9.274,2.789,2.531,-4.818,-14.694,-11.71,-27.434,-6.41,-6.414,1.063,-1.039,-12.888,-2.496,8.721,-1.809,0.576,19.562,-60.8,-9.794,-10.318,-15.52,-136.812
3.68701850000025,3.123,-11.126,-219.579,-65.867,-16.081,-2.385,65.521,-9.777,-2.337,-1.57,-10.449,-15.192,-15.285,-32.017,-6.404,-7.944,-0.987,5.622,-14.925,-6.08,4.613,-6.93,-4.035,19.543,-59.202,-12.346,-14.406,-19.09,-123.868
3.68708920000017,-4.052,-19.312,-235.753,-65.801,-23.237,-16.215,98.243,-34.358,-18.728,-16.426,-22.222,-23.886,-27.565,-38.645,-16.644,-18.695,-5.085,-6.679,-25.668,-15.807,-5.125,-15.632,-13.253,7.74,-86.295,-20.018,-25.662,-32.391,-127.33
3.70021350000025,2.1,-15.194,-236.029,-69.833,-19.628,-15.174,122.735,-35.86,-17.685,-14.872,-19.638,-22.838,-26,-35.532,-15.09,-18.676,-6.617,-9.746,-25.642,-15.792,-2.046,-12.543,-11.19,8.757,-96.455,-17.949,-20.514,-30.822,-138.474
3.70027979999986,6.708,-3.908,-218.887,-63.104,-9.362,-0.814,90.337,-11.746,-0.249,-1.025,-9.372,-16.155,-16.24,-39.083,-4.317,-8.411,-3.536,-3.589,-15.371,-8.603,5.641,-5.358,-2.47,23.605,-85.088,-9.221,-10.247,-19.008,-133.724
3.7152202000002,-12.766,3.268,-212.521,-49.72,-7.303,5.847,89.222,-5.074,4.874,4.611,-6.289,-15.114,-13.663,-40.581,1.323,-4.817,-0.459,-3.585,-10.744,-4.496,11.783,1.307,4.192,32.803,-75.269,-1.015,-8.7,-6.694,-120.271
3.71528549999994,-35.295,6.851,-206.16,-43.011,-7.808,5.329,120.384,-11.729,-1.278,2.557,-1.16,-11.513,-13.649,-26.708,4.908,-3.787,2.103,3.078,-10.734,-2.443,17.918,6.429,8.799,34.82,-57.775,5.646,-5.617,-1.052,-105.293
3.73018980000006,-40.383,8.381,-191.097,-39.382,-2.165,3.786,92.599,-9.668,-2.301,1.018,2.428,-9.964,-13.635,-22.071,7.465,-3.783,3.638,7.174,-9.698,-2.953,14.827,4.373,7.766,29.662,-46.447,0.005,-3.562,-10.272,-92.38
3.73425619999989,-39.83,3.762,-198.591,-38.83,-3.187,-1.341,86.871,-14.782,-4.861,-2.569,-7.309,-18.663,-19.769,-35.368,0.285,-11.464,-5.587,-7.178,-16.349,-13.196,3.541,-4.34,-5.05,18.361,-73.553,-12.291,-11.243,-18.459,-105.608
3.74733220000007,-42.864,-8.025,-224.52,-55.185,-19.578,-9.024,119.572,-33.21,-13.053,-10.764,-18.06,-25.817,-27.947,-48.141,-15.085,-17.6,-20.951,-15.368,-29.14,-23.429,-1.585,-15.607,-16.316,12.708,-105.754,-17.914,-20.454,-20.49,-136.241
3.74739720000025,-42.309,-15.702,-225.32,-71.524,-28.78,-17.212,113.817,-36.763,-17.138,-14.851,-19.579,-25.279,-31.505,-47.58,-24.803,-18.095,-20.418,-8.692,-29.623,-22.381,-0.559,-19.177,-13.738,13.207,-100.526,-19.945,-22.483,-27.129,-135.08
3.76071499999989,-39.705,-13.124,-204.09,-64.28,-19.017,-17.707,81.428,-23.406,-11.998,-12.275,-18.022,-23.205,-27.375,-36.262,-22.217,-17.565,-8.102,-4.073,-16.274,-17.748,4.564,-9.424,-4.502,13.194,-67.637,-21.462,-18.874,-30.688,-111.379
3.77528910000001,-43.251,-12.599,-206.96,-58.068,-20.023,-16.152,90.055,-25.432,-14.547,-17.386,-20.566,-26.255,-27.86,-39.812,-26.293,-20.109,-9.631,-7.143,-17.282,-19.779,6.097,-8.902,-6.547,10.619,-59.373,-21.441,-19.88,-25.022,-115.878
3.77534980000019,-52.942,-17.709,-229.294,-65.694,-35.372,-24.845,81.768,-35.653,-26.316,-30.688,-29.767,-34.426,-42.176,-58.727,-40.612,-29.822,-22.941,-15.845,-33.146,-27.956,-1.594,-21.189,-15.25,5.485,-79.293,-26.542,-26.52,-23.972,-130.107
3.79031020000002,-54.938,-14.618,-219.331,-62.042,-34.825,-27.894,49.411,-27.933,-28.851,-33.732,-34.86,-36.441,-49.819,-55.595,-41.596,-33.379,-22.918,-19.415,-35.162,-29.465,-3.129,-20.143,-14.722,8.042,-81.263,-28.053,-22.395,-25.998,-115.12
3.79036750000023,-49.76,-15.628,-194.521,-58.394,-27.105,-21.719,76.514,-25.855,-25.749,-29.599,-31.751,-32.306,-43.621,-43.244,-36.431,-27.198,-17.26,-16.322,-31.541,-26.874,4.558,-13.975,-11.121,13.157,-63.251,-22.389,-18.274,-28.533,-107.32
3.80632990000004,-50.223,-27.395,-206.622,-71.144,-30.152,-26.308,109.225,-43.76,-29.309,-30.082,-31.207,-33.298,-44.602,-53.447,-38.444,-28.707,-21.853,-17.33,-35.608,-29.409,6.091,-20.621,-14.696,6.483,-64.725,-25.953,-24.916,-32.603,-123.607
3.80639370000017,-47.099,-19.171,-220.248,-61.339,-17.826,-21.158,103.481,-37.057,-18.521,-19.806,-24.004,-27.117,-38.41,-50.832,-29.696,-25.605,-17.221,-11.165,-24.814,-21.182,13.769,-11.891,-5.973,9.551,-68.246,-19.779,-15.669,-19.763,-118.872
3.82049340000003,-28.052,15.184,-211.597,-20.753,10.374,11.154,65.369,2.459,14.805,10.45,3.702,-4.015,-9.65,-27.167,-5.567,-4.552,4.326,11.392,5.964,7.029,39.349,18.862,19.646,34.119,-60.934,9.968,15.604,17.15,-93.024
3.83543379999992,-27.512,10.045,-208.824,-29.442,-5.006,8.581,50.959,-1.13,6.593,6.341,1.649,-8.11,-12.714,-32.775,-12.221,-6.597,0.223,6.258,0.834,4.46,35.724,12.696,9.893,31.011,-78.292,5.347,8.928,9.961,-100.103
3.85043159999987,-45.928,-21.728,-240.89,-61.688,-21.907,-21.653,23.243,-31.355,-15.955,-13.646,-20.382,-27.569,-35.756,-51.697,-28.091,-27.083,-18.732,-8.093,-16.073,-16.549,18.27,-8.322,-11.634,5.365,-110.489,-22.835,-13.622,-19.763,-123.569
3.85049440000012,-44.345,-23.243,-244.748,-64.7,-11.639,-19.07,15.023,-27.225,-7.742,-10.558,-17.288,-23.955,-28.547,-44.986,-23.964,-21.42,-12.054,4.723,-10.933,-13.971,23.887,-3.703,-4.45,3.823,-96.546,-21.275,-9.51,-23.842,-130.618
3.85053870000002,-29.443,-4.264,-222.474,-48.241,-7.016,-2.145,47.796,-8.243,5.586,1.748,-2.926,-12.148,-12.125,-30.084,-15.743,-6.542,5.377,15.989,4.447,0.9,35.134,10.133,8.874,14.577,-64.174,-7.422,1.77,-9.473,-120.753
3.86541160000024,-39.148,-13.994,-228.911,-49.218,-19.817,-15.975,80.536,-25.141,-7.74,-10.549,-15.731,-19.821,-24.408,-32.103,-25.461,-16.269,-2.825,0.091,-2.73,-9.347,24.852,-3.197,-4.967,3.292,-69.745,-22.784,-8.478,-16.124,-113.973
3.88148760000013,-54.478,-30.886,-246.101,-58.902,-24.408,-30.304,48.18,-46.632,-18.49,-25.396,-30.059,-29.535,-36.167,-43.854,-37.219,-29.573,-18.704,-12.204,-23.732,-24.195,14.581,-22.661,-18.282,-12.081,-87.606,-39.155,-21.277,-32.502,-126.666
3.88155460000007,-42.128,-17.023,-235.609,-49.11,-13.113,-13.879,15.856,-28.655,-4.127,-10.513,-16.197,-19.772,-22.811,-44.835,-29.497,-21.859,-13.05,-3.995,-18.585,-12.9,26.862,-9.831,-5.968,-1.31,-88.031,-26.308,-12.034,-21.711,-130.638
3.88159760000008,-22.106,10.147,-213.344,-24.982,4.831,8.676,43.505,2.112,14.32,14.088,3.799,-3.87,-3.833,-24.81,-8.975,-3.394,6.943,11.891,9.61,9.142,45.791,17.331,14.018,24.819,-76.16,-0.154,8.47,6.488,-97.72
3.89549149999993,-20.547,20.383,-208.007,-13.686,9.949,14.303,71.126,7.745,19.429,18.172,7.381,-0.792,0.782,-9.928,-0.257,7.368,15.133,21.613,18.822,17.843,51.38,20.388,18.614,35.04,-58.153,11.117,15.634,17.24,-78.667
3.89555530000007,-27.699,12.165,-215.484,-22.894,-1.331,6.091,65.932,-5.07,12.237,5.859,-0.311,-10.013,-6.903,-21.701,-7.942,-0.324,5.384,14.931,5.484,10.14,45.181,7.56,7.837,21.685,-59.119,-0.165,4.86,5.44,-107.277
3.91052600000012,-28.696,1.907,-215.781,-34.142,-1.33,-1.087,53.058,-11.725,4.54,0.73,-4.921,-13.589,-14.069,-37.049,-13.569,-12.107,-3.843,6.719,-0.67,0.396,46.161,4.478,0.657,9.368,-83.651,-9.898,-1.293,-1.226,-121.002
3.92549710000003,-21.495,12.151,-202.757,-30.009,13.016,9.16,46.857,-1.979,10.171,11.488,0.207,-5.379,-8.932,-32.913,-4.846,-7.484,1.284,14.909,4.966,3.982,60.459,12.671,7.829,17.044,-81.006,0.87,7.93,10.046,-96.291
3.92555820000007,-14.813,30.582,-193.845,-16.147,10.954,18.885,65.254,7.244,18.358,17.624,4.818,-0.25,-0.726,-19.048,1.819,2.258,12.554,25.141,13.671,14.224,68.596,21.367,18.579,26.248,-50.699,13.164,15.094,21.307,-84.924
3.94139059999998,-21.458,22.355,-203.898,-14.594,-1.353,4.009,95.927,-9.669,10.655,4.798,-0.31,-7.935,-4.311,-17.492,-8.942,-2.355,11.516,20.505,14.682,9.599,60.842,18.784,12.413,17.513,-53.722,2.905,6.37,16.675,-96.109
3.94145579999986,-29.634,0.815,-219.063,-27.899,-0.839,-11.876,68.166,-26.053,3.472,-2.891,-7.995,-15.611,-11.992,-27.721,-18.667,-10.55,3.308,13.824,4.421,-1.169,55.659,5.446,0.105,7.761,-83.382,-11.442,-4.395,5.387,-101.649
3.95564520000016,-23.456,4.401,-210.135,-30.945,6.334,1.968,35.823,-8.097,12.177,9.92,-2.351,-7.911,-7.369,-25.644,-6.353,-3.367,6.378,15.347,4.929,4.98,63.288,9.026,8.814,22.61,-84.323,-2.722,1.757,8.456,-90.789
3.95571240000027,-15.236,21.815,-188.92,-19.644,10.426,17.847,63.964,4.719,17.801,19.644,9.946,3.88,2.372,-11.274,6.974,7.395,15.594,19.943,19.268,15.733,74.495,26.436,24.687,39.494,-64.259,15.212,13.026,21.255,-73.279
3.97057100000029,-16.245,23.33,-192.317,-18.599,10.416,10.145,96.688,-18.852,10.098,14.501,9.937,1.827,-1.728,-11.775,1.844,5.85,13.529,20.435,19.249,13.668,77.494,26.922,20.052,30.745,-55.485,15.709,9.939,21.746,-77.305
3.97063119999984,-13.668,17.671,-204.42,-20.63,10.405,5.524,64.315,-20.37,12.65,14.486,7.365,-2.274,-5.825,-23.546,-0.72,2.771,9.929,19.39,13.594,14.167,73.318,20.747,15.933,21.493,-49.795,8.009,4.294,18.138,-96.695
3.98562489999995,-7.506,21.24,-193.97,-6.777,16.543,18.838,31.976,12.438,24.932,25.743,16.579,3.876,3.914,-21.473,11.064,10.453,12.993,21.932,21.266,20.3,71.708,27.899,25.139,31.718,-47.183,12.611,8.388,25.292,-86.864
3.98568139999998,-11.597,24.804,-188.14,-3.184,20.112,24.967,64.732,13.451,28.494,29.815,18.612,6.434,8.009,-12.742,12.59,15.053,16.566,28.058,21.757,17.719,72.149,27.871,21.528,34.247,-59.431,15.673,9.405,28.341,-68.334
4.00145729999986,-13.635,21.194,-201.272,-17.526,15.994,15.721,97.454,-18.838,22.83,24.15,10.396,1.817,3.903,-8.631,1.819,9.915,21.673,32.128,14.562,14.115,65.417,21.183,12.284,22.43,-70.13,9.509,4.272,20.116,-84.66
4.00152590000016,-7.474,19.635,-200.559,-15.459,19.564,13.144,65.082,-17.795,21.27,21.564,13.972,0.278,4.923,-7.086,1.817,7.343,25.237,30.047,20.183,17.687,61.253,24.748,16.883,17.797,-71.085,8.987,4.78,17.022,-100.969
4.01618000000008,-12.077,18.591,-193.186,-6.734,20.057,20.303,32.741,6.814,21.249,17.957,14.47,-3.821,0.82,-14.763,3.865,4.262,14.966,18.746,18.626,15.108,61.704,19.6,13.792,16.242,-80.235,8.978,1.701,14.443,-95.233
4.01626420000002,-24.36,11.913,-202.214,-21.072,8.253,15.672,52.688,-0.365,16.104,11.279,2.673,-9.452,-9.427,-24.482,-3.824,-2.914,4.705,10.53,2.214,5.871,54.982,5.748,0.458,4.443,-83.229,-0.252,-8.034,3.158,-100.773
4.03071640000007,-24.336,9.851,-200.987,-28.736,9.782,5.922,85.423,-12.66,13.014,12.292,5.232,-5.344,-7.881,-21.384,-1.771,0.162,9.823,15.131,3.748,6.89,52.366,9.328,4.556,-2.222,-68.289,-4.35,-8.026,-1.968,-109.381
4.03078230000028,-17.651,14.452,-191.052,-17.436,18.994,12.576,53.063,0.672,19.149,18.94,15.473,0.296,-1.213,-17.776,6.94,9.384,12.887,18.702,16.04,14.055,57.436,20.59,15.31,7.002,-70.27,3.851,-1.87,1.107,-92.878
4.04575759999989,-16.609,14.438,-201.107,-15.882,11.803,20.248,38.665,6.307,24.253,18.409,10.846,-4.315,-3.261,-21.345,3.347,7.325,8.263,15.097,13.463,11.48,55.842,18.008,11.197,14.68,-78.909,8.97,-2.893,1.106,-84.588
4.04583880000018,-19.154,14.936,-211.153,-18.94,7.692,9.47,71.414,-5.995,18.081,12.755,5.713,-5.847,-4.282,-22.348,0.782,0.145,8.255,14.057,6.277,5.32,52.2,12.354,7.087,8.005,-61.924,5.375,-3.403,5.204,-104.996
4.06160120000004,-20.672,19.532,-203.769,-12.773,13.32,1.775,61.609,-11.624,10.891,10.18,7.244,-2.768,-6.327,-24.375,3.855,0.658,8.759,15.068,6.27,4.803,51.123,11.317,7.08,2.874,-62.374,2.808,-1.862,14.42,-108.99
4.0616656000002,-12.967,23.611,-194.344,-11.223,10.745,12.532,50.789,-9.563,16.515,14.269,8.773,-2.765,-6.833,-22.814,2.314,3.218,12.337,20.688,11.387,11.97,51.584,19.503,10.659,13.63,-83.316,10.49,0.701,20.041,-82.241
