Timestamp,Cz,Fz,Fp1,F3,C1,C3,T7,C5,CP5,CP3,CP1,P1,P3,O1,CPz,Pz,Oz,O2,P4,P2,CP2,CP4,CP6,C6,T8,C4,C2,F4,Fp2
0.0,-104.476,-99.097,-171.679,-109.001,247.676,-137.604,-122.269,-102.244,-91.897,-106.641,-107.965,-101.464,-71.181,-65.6,-131.22,-122.15,-91.44,-116.907,-93.992,-98.005,-131.601,-105.729,-109.296,-115.978,-116.603,-90.383,-39.598,-129.17,-183.056
6.60000000607397e-05,-105.909,-101.56,-174.068,-117.089,243.842,-143.102,-114.975,-102.142,-94.879,-110.12,-111.444,-109.559,-73.671,-71.682,-134.162,-130.737,-94.423,-119.864,-99.533,-103.542,-140.691,-114.845,-114.822,-126.108,-118.023,-95.928,-42.12,-141.337,-190.045
0.013377700000091863,-103.241,-97.872,-173.894,-115.947,235.913,-139.885,-109.737,-107.675,-92.735,-109.498,-116.968,-112.011,-79.745,-76.221,-134.028,-131.631,-98.427,-120.257,-99.946,-102.414,-140.551,-117.291,-118.806,-121.371,-114.319,-95.319,-33.881,-136.585,-191.392
0.013445999999930791,-103.65,-97.774,-173.208,-108.146,227.993,-135.647,-111.164,-101.932,-91.105,-106.827,-116.851,-115.485,-81.715,-79.731,-132.87,-139.184,-104.988,-130.383,-105.482,-104.361,-141.947,-114.1,-118.687,-115.102,-109.594,-93.687,-26.675,-133.886,-190.176
0.028385399999933725,-105.083,-98.701,-173.547,-104.452,228.277,-138.585,-115.151,-90.56,-89.989,-107.232,-115.709,-120.493,-78.559,-78.627,-134.786,-144.168,-106.932,-136.912,-107.938,-105.793,-143.342,-114.498,-116.519,-119.086,-113.071,-94.618,-25.624,-142.974,-188.961
0.028448999999909574,-101.392,-98.09,-169.275,-102.811,230.61,-135.885,-112.474,-89.957,-85.801,-103.027,-111.495,-111.663,-72.845,-69.839,-132.09,-128.655,-96.579,-128.578,-97.071,-99.54,-135.002,-107.211,-111.279,-116.917,-115.007,-92.987,-17.401,-145.393,-189.285
0.043372399999952904,-102.828,-100.553,-168.081,-107.319,224.232,-133.7,-103.653,-96.014,-84.69,-98.313,-106.26,-102.33,-69.699,-65.671,-125.298,-119.817,-89.31,-121.79,-91.339,-95.342,-132.305,-102.493,-112.705,-113.726,-120.015,-90.332,-8.675,-150.37,-195.243
0.04499519999990298,-111.947,-110.187,-173.549,-117.457,212.737,-139.714,-107.648,-100.529,-91.778,-105.899,-114.351,-108.888,-73.727,-69.703,-129.783,-131.48,-96.393,-124.229,-101.494,-100.37,-139.345,-113.662,-125.912,-124.883,-135.264,-92.291,-10.715,-164.052,-202.732
0.05844729999989795,-116.445,-118.273,-176.961,-120.926,205.352,-140.599,-127.52,-107.601,-98.859,-113.99,-126.02,-116.463,-79.801,-72.195,-136.313,-136.472,-99.371,-124.618,-108.052,-105.905,-142.28,-117.647,-128.86,-131.419,-139.227,-94.248,-11.217,-164.913,-205.604
0.05851149999989502,-111.206,-113.544,-175.247,-118.244,203.097,-137.897,-130.466,-111.592,-96.71,-110.29,-119.234,-113.785,-74.598,-74.172,-133.103,-128.138,-94.661,-118.858,-103.846,-103.237,-140.088,-111.894,-121.559,-123.09,-129.866,-92.104,-3.521,-154.502,-203.861
0.07345799999984592,-105.972,-104.209,-173.023,-119.662,205.968,-137.759,-114.967,-105.333,-90.978,-103.52,-110.405,-108.549,-66.839,-74.61,-126.822,-126.473,-92.005,-114.128,-104.254,-101.085,-141.997,-119.466,-125.536,-123.992,-131.786,-96.111,-1.468,-150.761,-199.559
0.07352690000016082,-104.329,-106.154,-174.387,-120.055,204.738,-133.522,-110.753,-102.153,-87.813,-102.392,-113.369,-106.391,-67.797,-70.437,-127.72,-130.958,-91.913,-114.526,-112.347,-106.619,-145.442,-129.593,-134.632,-136.675,-142.412,-105.236,-7.614,-149.586,-199.359
0.08946070000001782,-103.712,-108.61,-178.823,-117.373,198.385,-131.34,-116.278,-104.613,-87.213,-103.826,-112.743,-108.334,-72.852,-68.318,-130.154,-129.802,-96.431,-114.412,-112.747,-106.0,-145.808,-127.414,-135.01,-137.563,-144.319,-105.131,-9.144,-145.85,-199.672
0.08953320000000531,-102.071,-101.841,-177.62,-118.281,197.674,-134.282,-115.137,-97.848,-86.614,-100.649,-107.507,-109.25,-71.755,-67.225,-124.901,-127.111,-101.458,-113.273,-99.826,-94.111,-139.515,-121.139,-128.727,-130.254,-140.076,-95.804,-0.425,-142.118,-189.739
0.10342020000007324,-94.797,-96.616,-170.27,-115.601,209.26,-127.488,-109.386,-89.553,-80.38,-92.863,-100.227,-98.895,-65.535,-62.034,-112.993,-115.2,-91.11,-110.085,-84.357,-85.308,-129.129,-106.161,-117.328,-125.0,-132.252,-88.536,12.895,-133.267,-176.741
0.10509360000014567,-81.894,-90.884,-166.513,-105.751,223.395,-115.577,-104.666,-86.902,-68.516,-82.524,-85.783,-82.914,-56.248,-57.362,-105.195,-95.105,-78.724,-98.705,-74.027,-79.587,-117.729,-85.05,-103.89,-113.604,-122.898,-78.714,23.641,-124.424,-175.54
0.1184069000000818,-79.251,-87.719,-172.495,-106.158,226.758,-116.486,-106.098,-84.254,-67.935,-78.343,-81.598,-79.245,-52.606,-57.817,-106.627,-92.449,-80.182,-91.434,-72.928,-75.921,-116.075,-82.916,-97.126,-103.757,-123.287,-70.95,26.179,-128.398,-184.586
0.13334820000000036,-87.369,-99.927,-181.544,-119.372,216.797,-124.567,-111.115,-89.805,-79.138,-84.925,-93.3,-88.387,-60.238,-60.833,-110.106,-106.188,-83.176,-99.539,-80.54,-83.018,-125.692,-95.641,-102.152,-110.826,-132.386,-79.076,9.759,-141.59,-194.647
0.1334059000000707,-89.843,-109.561,-182.899,-125.912,209.921,-127.516,-112.541,-97.4,-83.157,-88.426,-97.305,-92.397,-63.764,-60.259,-112.045,-108.644,-80.531,-101.489,-85.582,-87.545,-129.153,-101.18,-107.685,-122.498,-135.327,-88.219,-14.842,-150.157,-204.187
0.1484400999997888,-90.265,-105.865,-182.204,-122.2,205.1,-123.802,-118.064,-90.13,-80.0,-84.239,-96.183,-91.28,-61.139,-59.175,-114.495,-106.998,-83.524,-96.264,-87.546,-85.921,-129.024,-104.153,-111.164,-126.986,-133.143,-90.692,-21.999,-155.643,-211.667
0.14850429999978587,-102.983,-114.469,-189.706,-122.078,181.841,-119.068,-127.68,-90.552,-86.068,-89.79,-106.845,-102.972,-68.762,-68.337,-116.942,-121.236,-94.712,-105.902,-98.729,-95.056,-141.702,-120.443,-122.836,-136.081,-139.157,-100.848,-26.588,-171.369,-221.189
0.1634564999999384,-109.54,-124.088,-195.152,-124.005,162.191,-117.924,-121.404,-102.757,-90.593,-98.41,-112.374,-114.652,-75.866,-78.002,-117.85,-133.922,-101.789,-115.53,-108.364,-101.109,-148.221,-133.13,-133.471,-142.605,-145.166,-109.968,-58.837,-182.98,-227.116
0.1635203000000729,-94.061,-111.669,-185.223,-118.758,175.349,-112.683,-105.914,-92.408,-81.281,-89.09,-100.478,-102.755,-66.056,-72.289,-110.047,-123.542,-96.564,-106.193,-99.034,-87.176,-133.216,-122.238,-124.629,-132.216,-138.873,-102.174,-91.054,-171.014,-219.716
0.17846340000005512,-84.233,-107.971,-177.353,-113.516,181.834,-105.398,-106.833,-80.02,-75.052,-79.267,-92.693,-88.819,-58.305,-61.971,-100.716,-108.562,-88.271,-97.89,-88.177,-79.404,-127.447,-111.358,-117.332,-125.424,-134.635,-95.924,-101.209,-161.109,-210.275
0.17852959999981977,-94.907,-120.67,-185.885,-119.038,157.574,-110.416,-112.873,-98.383,-81.637,-90.971,-102.847,-95.903,-64.907,-65.495,-104.201,-112.039,-89.207,-99.329,-92.699,-85.985,-137.566,-119.443,-124.899,-131.958,-142.698,-99.414,-90.861,-168.121,-214.163
0.1934996999998475,-98.399,-117.476,-185.187,-125.579,153.83,-119.015,-109.174,-109.043,-86.678,-100.101,-108.892,-101.442,-66.379,-69.015,-109.22,-119.1,-91.68,-98.717,-93.119,-83.849,-134.867,-121.885,-122.725,-130.802,-142.555,-98.802,-94.869,-163.342,-211.388
0.19356370000014067,-89.591,-106.088,-167.583,-119.818,177.754,-113.26,-110.602,-94.59,-81.981,-90.267,-101.098,-93.656,-59.653,-62.286,-103.988,-112.833,-86.465,-97.081,-84.829,-79.667,-128.584,-112.03,-113.381,-124.011,-134.728,-94.093,-97.848,-148.834,-192.221
0.20897280000008323,-88.477,-103.42,-158.194,-110.989,182.7,-108.024,-118.176,-90.909,-78.825,-85.054,-98.436,-90.489,-56.519,-57.101,-99.273,-106.572,-83.817,-99.546,-86.793,-83.173,-130.505,-109.356,-116.341,-125.424,-137.155,-91.949,-85.967,-146.636,-181.782
0.20904289999998582,-90.438,-97.681,-158.036,-108.317,176.369,-110.477,-111.398,-97.99,-81.82,-91.117,-100.899,-91.423,-59.024,-59.093,-100.198,-109.54,-85.782,-97.909,-92.342,-82.578,-127.3,-112.321,-117.249,-123.761,-139.579,-90.833,-75.635,-142.903,-181.088
0.22353089999978693,-82.15,-88.362,-147.632,-101.036,183.878,-107.293,-95.917,-92.257,-82.25,-87.952,-93.625,-87.745,-59.477,-55.448,-97.537,-106.356,-79.036,-90.639,-86.614,-76.348,-122.05,-108.622,-109.96,-115.953,-130.218,-88.693,-71.461,-129.952,-169.124
0.22361330000012458,-73.871,-83.663,-135.701,-88.64,192.915,-100.526,-95.309,-84.993,-77.045,-78.642,-84.823,-82.022,-56.856,-50.269,-92.316,-98.565,-72.297,-83.888,-77.818,-75.247,-122.44,-101.853,-105.239,-111.739,-123.94,-85.018,-66.779,-124.699,-158.197
0.23857619999989765,-73.285,-79.993,-134.541,-84.452,200.407,-100.938,-105.972,-84.908,-72.357,-78.564,-85.762,-81.428,-57.312,-53.805,-92.224,-101.028,-77.348,-82.268,-78.253,-75.172,-120.269,-95.092,-98.986,-109.578,-119.205,-80.322,-62.613,-120.476,-157.526
0.23864060000005338,-75.261,-80.938,-136.455,-90.003,203.28,-104.423,-109.965,-86.36,-76.896,-83.096,-89.775,-87.494,-60.328,-59.899,-96.23,-107.587,-84.955,-86.284,-82.785,-76.121,-118.099,-95.509,-95.301,-106.394,-116.525,-76.656,-59.989,-118.819,-157.369
0.25354620000007344,-82.87,-88.029,-143.491,-100.672,188.22,-107.905,-111.392,-94.47,-85.016,-87.111,-96.858,-97.141,-63.854,-64.45,-102.281,-113.627,-88.457,-91.833,-85.777,-80.656,-125.153,-103.61,-101.354,-110.386,-125.117,-77.091,-60.441,-129.458,-163.359
0.2686322999998083,-93.546,-97.163,-158.205,-112.354,164.466,-112.92,-112.817,-103.597,-87.492,-95.221,-106.495,-105.24,-70.963,-72.583,-107.302,-125.297,-95.54,-96.352,-88.765,-85.698,-133.225,-110.679,-107.912,-122.059,-134.214,-85.724,-63.967,-141.624,-179.077
0.2686969000001227,-96.526,-105.262,-164.706,-115.316,148.932,-114.344,-105.532,-102.981,-86.892,-96.663,-108.437,-108.721,-77.039,-77.633,-107.195,-131.319,-101.593,-98.305,-91.75,-87.662,-135.653,-113.642,-110.366,-131.158,-136.641,-95.372,-60.317,-149.679,-186.07
0.2687384999999267,-93.356,-104.132,-159.931,-109.565,147.759,-110.131,-99.279,-96.218,-86.293,-88.369,-103.206,-105.026,-70.815,-73.457,-104.014,-124.015,-98.93,-97.182,-91.146,-85.012,-137.567,-116.602,-113.329,-131.54,-143.677,-94.764,-52.572,-154.653,-182.81
0.2835555999999997,-93.775,-99.93,-159.771,-108.431,165.029,-108.484,-106.864,-89.974,-81.084,-86.232,-98.492,-98.261,-61.01,-69.285,-103.91,-118.256,-97.294,-97.085,-91.567,-82.878,-138.454,-116.486,-112.191,-127.822,-148.656,-93.132,-56.106,-150.912,-180.066
0.28361379999978453,-94.193,-101.879,-166.783,-112.933,181.258,-114.011,-108.807,-88.86,-78.953,-91.268,-98.906,-96.626,-61.974,-66.654,-106.88,-117.113,-100.27,-96.475,-91.987,-83.308,-137.291,-112.271,-111.055,-128.206,-143.897,-96.113,-65.271,-147.175,-177.837
0.29862580000008165,-93.074,-101.777,-168.154,-114.869,181.077,-117.995,-99.989,-94.919,-82.461,-90.665,-101.881,-94.993,-62.424,-60.952,-106.773,-113.922,-95.047,-90.231,-86.772,-79.638,-137.154,-109.085,-114.017,-127.566,-145.29,-92.943,-64.181,-148.565,-176.634
0.3136223000001337,-98.104,-102.188,-166.449,-118.853,179.359,-117.365,-100.913,-101.484,-82.891,-89.549,-102.291,-90.799,-59.288,-58.33,-105.129,-113.808,-84.193,-83.481,-83.612,-76.997,-136.504,-107.439,-108.268,-123.852,-147.706,-88.239,-63.605,-146.367,-174.921
0.31368639999982406,-104.666,-109.258,-169.356,-126.931,180.716,-120.321,-109.009,-105.481,-84.345,-94.583,-103.726,-94.807,-63.327,-60.321,-108.61,-116.768,-86.158,-84.422,-86.09,-82.043,-136.368,-103.233,-99.963,-119.63,-138.849,-88.151,-69.689,-143.147,-173.209
0.3289964999999029,-102.0,-107.612,-168.162,-124.243,180.536,-123.787,-112.999,-105.375,-90.408,-97.562,-107.72,-100.347,-67.874,-63.846,-113.625,-116.139,-91.708,-86.387,-83.954,-81.961,-137.256,-98.006,-98.838,-113.362,-131.538,-84.477,-69.107,-141.467,-171.499
0.3290547000001425,-94.213,-98.795,-159.285,-114.385,185.991,-122.127,-116.472,-104.245,-92.879,-97.465,-104.539,-97.173,-68.319,-68.906,-110.437,-113.974,-87.517,-84.763,-77.21,-77.268,-136.094,-93.81,-94.129,-108.126,-128.845,-78.245,-60.841,-135.69,-164.667
0.34359589999985474,-93.095,-101.258,-155.539,-116.832,188.878,-124.054,-114.306,-108.239,-97.909,-100.953,-101.36,-98.101,-72.861,-69.349,-106.741,-115.909,-86.405,-83.654,-78.158,-79.24,-132.372,-90.13,-88.399,-105.456,-124.105,-78.166,-57.194,-130.943,-156.306
0.34365170000000944,-94.538,-101.669,-158.97,-123.375,185.103,-122.905,-108.044,-109.668,-101.91,-99.828,-106.894,-102.613,-74.325,-66.718,-107.658,-117.843,-92.467,-86.644,-81.154,-80.698,-131.215,-88.503,-90.872,-102.277,-122.956,-75.527,-54.575,-131.325,-158.199
0.3586420999999973,-90.858,-91.833,-160.348,-118.641,188.504,-115.61,-111.522,-101.874,-93.611,-93.068,-104.738,-98.925,-70.152,-69.725,-104.989,-115.675,-92.886,-87.07,-80.048,-77.543,-130.059,-89.951,-91.806,-101.15,-125.395,-71.353,-46.324,-130.169,-163.676
0.36046589999978096,-84.619,-89.18,-157.113,-109.301,194.976,-116.006,-118.071,-97.674,-89.419,-91.95,-94.387,-93.703,-71.107,-69.656,-100.273,-111.461,-89.72,-82.372,-80.48,-76.953,-126.343,-87.812,-91.202,-101.049,-125.27,-71.281,-40.13,-127.477,-159.414
0.3737077999999201,-82.998,-89.091,-152.858,-109.704,192.732,-119.477,-118.977,-103.211,-95.989,-95.445,-95.83,-94.121,-71.548,-62.926,-101.71,-112.887,-91.679,-81.777,-83.986,-79.95,-127.241,-87.724,-97.258,-99.411,-130.78,-71.722,-41.626,-122.227,-155.668
0.37377710000009756,-87.525,-91.051,-156.804,-118.815,191.002,-118.845,-123.981,-109.768,-96.406,-95.349,-104.443,-97.101,-69.427,-66.961,-107.756,-117.385,-96.198,-89.893,-88.513,-84.481,-132.237,-97.883,-104.333,-107.509,-141.92,-77.798,-46.196,-125.69,-164.734
0.38872760000003836,-92.561,-100.181,-167.405,-121.77,189.274,-121.8,-133.079,-112.732,-93.236,-93.717,-100.753,-97.516,-70.382,-74.579,-109.185,-115.73,-97.127,-90.827,-90.473,-86.446,-133.129,-102.908,-105.766,-120.209,-149.975,-84.893,-46.662,-139.397,-174.815
0.38879259999976057,-91.444,-100.081,-165.701,-111.403,186.523,-120.653,-132.433,-105.959,-88.019,-88.5,-93.48,-90.246,-62.115,-64.258,-101.904,-107.418,-89.857,-78.441,-85.26,-78.675,-129.41,-94.096,-102.586,-118.039,-149.825,-81.222,-42.517,-140.282,-172.591
0.40367990000004284,-88.279,-89.223,-154.264,-105.143,189.923,-110.287,-119.493,-97.656,-77.685,-82.776,-95.435,-83.496,-52.319,-53.948,-96.679,-102.699,-84.132,-73.24,-81.076,-72.961,-125.694,-90.928,-97.361,-112.798,-146.089,-77.554,-43.499,-131.945,-167.808
0.40373959999988074,-92.801,-94.769,-152.061,-113.235,185.122,-113.25,-104.517,-101.145,-83.243,-88.841,-103.025,-93.659,-62.513,-61.066,-103.754,-110.794,-90.708,-82.388,-85.093,-79.548,-127.106,-96.472,-98.288,-117.296,-144.918,-83.112,-52.677,-138.473,-171.226
0.4176708999998482,-100.905,-104.92,-153.446,-117.733,169.056,-122.871,-97.752,-107.192,-98.016,-96.949,-111.119,-107.397,-73.209,-68.178,-111.335,-124.515,-97.79,-85.379,-88.594,-86.641,-136.712,-98.425,-101.776,-119.228,-142.724,-84.054,-54.673,-144.995,-169.518
0.4193089999998847,-101.829,-97.643,-149.706,-109.418,168.374,-117.112,-101.241,-104.523,-90.234,-93.266,-112.032,-106.265,-69.037,-66.06,-109.687,-127.465,-94.106,-77.609,-84.92,-84.505,-139.137,-97.302,-96.039,-111.937,-131.31,-80.896,-46.934,-136.14,-158.59
0.43280349999986356,-96.092,-90.885,-145.97,-103.161,178.452,-112.385,-102.164,-99.295,-77.848,-87.025,-103.211,-99.499,-65.894,-63.945,-107.528,-119.652,-91.962,-75.482,-79.712,-79.809,-127.727,-90.545,-87.233,-103.115,-119.908,-77.741,-41.764,-129.857,-153.821
0.43286829999988186,-89.336,-91.819,-141.726,-104.082,183.397,-113.809,-97.451,-94.585,-82.893,-85.401,-93.886,-91.203,-65.828,-62.856,-103.322,-110.311,-90.846,-74.382,-76.046,-77.168,-119.915,-82.257,-88.171,-97.889,-117.739,-72.54,-36.087,-130.239,-155.204
0.44777579999981754,-85.66,-89.678,-142.609,-105.515,189.873,-108.06,-101.965,-93.978,-81.786,-81.217,-91.231,-81.89,-62.177,-58.695,-96.559,-105.59,-85.119,-66.623,-75.457,-75.554,-121.332,-84.224,-90.644,-100.865,-121.208,-72.468,-30.415,-131.133,-154.536
0.44783860000006825,-86.599,-89.076,-152.712,-106.434,189.683,-105.903,-114.158,-102.081,-74.019,-80.624,-91.652,-81.808,-63.651,-56.587,-95.438,-104.972,-83.497,-64.508,-77.431,-75.478,-118.137,-87.214,-90.041,-106.912,-125.697,-75.981,-33.971,-137.15,-160.017
0.463126099999954,-86.0,-92.061,-154.097,-106.84,181.809,-111.944,-111.482,-104.028,-80.605,-86.691,-94.634,-86.849,-67.174,-59.604,-98.928,-105.892,-86.488,-71.103,-79.403,-77.965,-114.945,-83.541,-91.488,-106.293,-127.621,-73.344,-35.986,-139.062,-166.005
0.4631857999997919,-85.402,-91.456,-145.233,-106.733,184.189,-114.394,-96.514,-97.264,-86.673,-90.19,-100.687,-90.861,-67.619,-62.106,-100.366,-110.909,-87.938,-75.643,-82.91,-81.473,-121.49,-88.58,-93.958,-105.162,-122.882,-74.295,-33.901,-128.677,-159.179
0.47772119999990537,-93.513,-94.439,-145.088,-108.676,183.492,-118.378,-95.905,-100.241,-85.561,-92.149,-108.271,-101.529,-72.162,-64.606,-106.414,-122.581,-95.535,-78.129,-92.561,-87.539,-132.127,-102.836,-100.012,-112.229,-126.346,-86.004,-42.576,-124.45,-154.409
0.4795430999997734,-102.641,-100.492,-150.066,-111.641,173.575,-121.334,-108.105,-108.338,-90.599,-95.643,-112.773,-110.649,-77.725,-70.176,-112.455,-132.705,-106.71,-85.735,-100.153,-96.161,-137.63,-108.881,-109.646,-119.289,-140.052,-92.066,-51.243,-132.01,-165.013
0.49283710000008796,-102.539,-102.953,-150.428,-112.554,180.061,-117.626,-110.046,-107.205,-91.02,-94.011,-111.636,-107.464,-78.672,-71.131,-111.83,-131.035,-103.017,-88.211,-98.516,-98.114,-133.906,-106.723,-110.561,-119.17,-142.473,-89.412,-48.118,-137.001,-172.533
0.5078072000001157,-101.924,-103.362,-151.302,-113.978,191.152,-118.533,-104.813,-102.487,-84.269,-89.818,-105.889,-101.721,-76.544,-65.424,-109.669,-121.17,-91.643,-79.926,-92.269,-88.794,-124.039,-99.444,-101.228,-117.514,-133.109,-86.249,-46.021,-137.376,-169.286
0.5078705000000809,-101.822,-103.259,-153.713,-115.401,186.35,-122.001,-108.806,-102.384,-85.722,-89.728,-102.197,-97.009,-70.832,-63.31,-108.535,-114.389,-88.99,-70.624,-85.005,-82.045,-118.791,-90.123,-96.516,-114.835,-129.39,-83.089,-45.462,-138.776,-169.117
0.5228302999998959,-96.085,-100.594,-155.608,-115.286,186.164,-118.805,-110.234,-105.356,-86.149,-87.077,-99.533,-89.739,-65.638,-63.759,-107.914,-109.664,-87.877,-66.455,-76.211,-79.402,-114.574,-82.348,-90.272,-103.449,-123.113,-76.346,-37.732,-137.1,-168.948
0.5228856999997333,-89.329,-97.42,-151.866,-114.146,198.785,-117.661,-100.903,-109.349,-81.964,-81.867,-94.823,-82.477,-61.987,-58.572,-106.269,-99.821,-80.616,-62.803,-67.425,-70.613,-99.603,-72.02,-75.325,-88.489,-108.645,-67.048,-28.473,-130.303,-161.094
0.5378273000001172,-85.141,-92.199,-145.054,-115.569,204.734,-120.105,-103.363,-108.727,-82.907,-82.81,-90.117,-78.809,-58.851,-54.415,-97.966,-88.962,-76.437,-59.154,-63.772,-64.395,-90.282,-62.214,-68.59,-83.789,-100.339,-59.296,-23.321,-125.562,-157.347
0.5378848999998809,-83.007,-89.546,-151.569,-124.675,203.505,-118.448,-116.58,-108.618,-82.824,-85.801,-92.076,-82.316,-61.353,-56.922,-95.306,-92.972,-80.972,-63.193,-68.319,-73.04,-97.876,-69.836,-76.206,-87.804,-101.264,-60.774,-22.273,-126.973,-163.337
0.5529124999998203,-89.583,-92.53,-166.275,-129.161,202.789,-119.867,-116.463,-115.17,-85.303,-86.74,-97.62,-90.431,-66.928,-58.402,-105.457,-106.711,-87.038,-69.277,-79.009,-82.7,-102.901,-84.111,-85.863,-92.327,-107.31,-66.861,-29.423,-130.945,-165.736
0.5529760999997961,-97.691,-91.925,-166.621,-121.859,207.709,-125.382,-117.371,-117.104,-93.414,-89.727,-101.621,-94.439,-64.299,-57.319,-112.012,-110.703,-85.927,-69.208,-85.59,-85.692,-101.774,-90.687,-92.95,-101.456,-114.887,-72.941,-36.054,-132.351,-167.619
0.5679239000000962,-97.081,-90.808,-162.868,-118.664,214.162,-127.818,-126.988,-112.888,-91.784,-91.686,-104.08,-95.369,-61.673,-56.749,-112.412,-110.592,-81.23,-67.602,-86.529,-89.704,-104.746,-97.768,-100.542,-112.626,-121.433,-80.553,-37.555,-136.317,-177.185
0.5679835000000821,-99.033,-97.378,-170.902,-124.18,212.923,-131.277,-121.738,-112.263,-87.594,-94.156,-111.661,-99.884,-70.321,-57.717,-118.447,-120.728,-85.247,-72.145,-92.078,-96.275,-108.739,-106.892,-108.126,-117.124,-125.41,-88.157,-42.64,-143.353,-181.107
0.5840131999998448,-108.155,-102.916,-174.317,-126.618,206.562,-137.293,-110.345,-113.688,-95.703,-100.722,-119.234,-105.932,-74.349,-63.295,-127.55,-131.365,-93.871,-77.196,-100.182,-101.814,-112.217,-112.421,-112.628,-117.007,-127.333,-91.143,-49.258,-143.21,-176.315
0.5840779000000111,-110.609,-102.3,-165.946,-124.954,202.77,-134.082,-114.846,-113.574,-95.095,-101.134,-119.115,-108.9,-70.688,-68.355,-128.96,-131.746,-97.364,-80.193,-100.595,-102.224,-112.617,-113.845,-113.028,-116.89,-124.645,-92.076,-48.696,-138.456,-173.577
0.5979714999998578,-109.474,-104.76,-159.632,-122.268,195.395,-125.751,-112.169,-110.387,-85.266,-91.811,-114.385,-107.254,-70.618,-65.725,-123.196,-127.516,-98.291,-81.137,-99.982,-96.487,-106.357,-113.731,-113.427,-115.748,-124.008,-93.009,-48.135,-143.44,-173.403
0.5980395999999928,-116.536,-111.315,-159.985,-123.682,190.076,-127.162,-102.323,-108.227,-89.279,-89.67,-114.783,-103.048,-69.522,-62.585,-120.511,-124.315,-99.729,-81.568,-100.394,-94.853,-103.176,-116.691,-117.412,-119.731,-132.08,-96.502,-53.722,-154.567,-177.328
0.6129888000000392,-122.055,-117.351,-162.387,-135.854,196.034,-134.207,-112.979,-112.729,-95.85,-94.191,-115.693,-102.433,-67.916,-66.109,-127.563,-122.654,-95.019,-81.487,-96.707,-99.369,-102.561,-118.112,-117.807,-122.685,-134.51,-98.455,-56.743,-159.024,-185.86
0.6283640000001469,-113.224,-117.234,-162.737,-138.28,203.522,-132.536,-125.674,-114.154,-92.168,-89.486,-108.405,-99.769,-69.897,-67.58,-125.386,-118.432,-88.776,-78.844,-87.902,-93.634,-90.163,-105.186,-106.419,-110.267,-122.592,-87.598,-50.026,-153.742,-183.113
0.6284645000000637,-104.914,-110.969,-163.599,-129.945,197.683,-128.305,-125.549,-107.38,-91.051,-84.786,-102.661,-93.009,-69.315,-64.438,-109.379,-112.166,-87.151,-76.716,-80.641,-83.295,-77.265,-90.736,-96.578,-97.349,-116.322,-73.678,-37.68,-145.903,-176.782
0.6285477000001265,-111.469,-114.956,-175.73,-138.524,180.58,-134.837,-128.497,-114.444,-100.182,-94.947,-112.292,-98.552,-72.32,-67.96,-110.294,-116.665,-90.65,-84.324,-84.147,-90.896,-83.335,-97.305,-104.679,-105.448,-128.501,-82.313,-38.667,-151.393,-190.95
0.6430928999998287,-123.653,-129.186,-191.948,-154.779,159.907,-144.436,-128.881,-136.872,-110.84,-106.123,-124.987,-113.822,-80.957,-75.064,-127.09,-131.405,-95.682,-96.022,-94.821,-102.588,-94.011,-111.04,-116.869,-122.761,-140.668,-97.6,-51.436,-169.684,-207.665
0.6431543999997302,-124.042,-129.569,-191.244,-155.137,150.525,-143.779,-120.042,-139.809,-107.143,-104.48,-122.813,-111.659,-78.826,-74.989,-124.914,-133.323,-93.025,-95.414,-94.726,-94.801,-86.744,-109.392,-114.191,-122.639,-136.429,-93.404,-49.848,-175.662,-203.871
0.6579913000000488,-113.159,-119.194,-182.856,-150.371,153.961,-134.926,-115.824,-122.25,-92.691,-98.74,-112.957,-99.252,-70.551,-69.279,-112.493,-121.407,-82.173,-89.171,-85.41,-86.509,-72.313,-101.598,-101.781,-108.684,-126.559,-82.552,-34.941,-160.63,-195.983
0.6729983999998694,-106.898,-116.0,-178.575,-146.634,149.196,-130.18,-114.171,-120.079,-91.061,-98.129,-111.819,-99.665,-69.968,-67.673,-114.942,-117.699,-77.993,-90.106,-84.3,-91.546,-69.679,-101.497,-101.68,-104.989,-122.334,-83.495,-31.32,-147.149,-188.614
0.6748070999997253,-110.89,-115.884,-165.588,-138.291,130.604,-129.538,-109.959,-128.156,-97.63,-98.543,-118.367,-103.664,-72.459,-67.093,-116.877,-124.754,-86.112,-88.992,-92.925,-94.528,-74.22,-109.592,-113.361,-111.544,-122.724,-88.022,-31.289,-145.465,-173.057
0.6881730000000061,-112.828,-109.621,-148.517,-131.492,115.104,-123.773,-110.361,-118.294,-89.336,-96.395,-118.761,-102.536,-73.924,-63.952,-108.563,-128.215,-92.685,-82.755,-97.443,-92.384,-71.072,-113.069,-118.371,-110.408,-125.162,-87.934,-18.962,-141.221,-160.588
0.6882353999999395,-105.031,-102.851,-147.344,-124.701,110.89,-110.842,-108.714,-104.343,-80.537,-91.688,-111.47,-101.921,-72.825,-64.4,-103.331,-125.525,-92.08,-83.697,-92.735,-91.78,-62.804,-109.37,-113.642,-104.662,-126.574,-85.284,-7.16,-128.785,-159.403
0.7035375999998905,-95.192,-98.138,-150.27,-115.867,111.292,-99.972,-101.433,-103.214,-85.068,-85.449,-105.211,-97.721,-66.605,-64.848,-101.179,-121.301,-89.427,-87.199,-85.47,-85.028,-59.667,-106.699,-108.917,-103.02,-120.812,-79.564,-2.03,-119.947,-156.682
0.7035971000000245,-88.437,-91.892,-143.46,-111.653,112.717,-98.335,-102.356,-104.135,-83.446,-80.753,-101.007,-92.5,-65.514,-62.222,-96.467,-116.057,-88.825,-77.378,-80.773,-76.746,-53.46,-101.469,-102.148,-96.257,-111.47,-72.312,5.657,-114.191,-151.915
0.7181602999999086,-79.639,-78.48,-139.218,-103.856,120.802,-95.163,-108.913,-100.445,-75.677,-78.623,-94.758,-92.407,-65.96,-63.184,-90.223,-108.769,-89.249,-66.03,-74.033,-73.595,-38.55,-88.56,-90.775,-82.841,-104.698,-66.092,11.799,-100.757,-146.64
0.7331080999997539,-70.338,-65.594,-139.591,-88.896,131.952,-87.383,-107.268,-91.635,-75.09,-75.47,-89.028,-88.216,-57.697,-64.658,-85.522,-101.487,-90.184,-69.038,-63.712,-66.349,-28.265,-80.787,-83.0,-75.074,-99.983,-61.415,17.422,-84.262,-140.345
0.7331659000001309,-64.12,-63.991,-140.988,-87.27,129.77,-82.173,-100.5,-80.785,-68.867,-68.222,-84.841,-79.931,-50.467,-59.47,-81.85,-94.214,-89.581,-74.604,-58.526,-57.061,-24.651,-79.169,-78.306,-73.462,-99.371,-55.718,31.237,-80.592,-141.229
0.7348286000001281,-58.42,-66.489,-142.384,-91.281,117.345,-76.455,-91.691,-78.143,-57.015,-60.47,-77.071,-76.265,-49.905,-57.361,-75.108,-87.972,-82.832,-67.87,-55.906,-54.443,-16.429,-72.942,-75.666,-73.388,-101.32,-53.613,46.575,-82.561,-149.285
0.7482959999997547,-58.874,-66.422,-142.242,-90.165,103.396,-69.207,-89.037,-84.725,-57.982,-58.872,-74.945,-75.677,-48.83,-61.915,-67.348,-90.445,-80.188,-61.654,-56.362,-56.438,-14.363,-77.992,-84.812,-80.487,-104.293,-60.22,49.602,-84.527,-152.722
0.7483643000000484,-74.184,-81.725,-151.833,-103.395,74.603,-72.724,-93.047,-91.3,-70.22,-69.059,-90.239,-85.335,-53.392,-66.976,-78.039,-104.187,-93.94,-70.814,-71.675,-66.627,-31.767,-102.505,-106.757,-98.85,-118.533,-76.553,40.331,-102.374,-162.815
0.7632826999997633,-95.627,-110.845,-174.223,-129.419,42.253,-85.459,-90.392,-102.48,-78.346,-87.433,-109.105,-106.254,-64.609,-73.057,-94.868,-122.526,-105.629,-82.014,-90.559,-81.418,-48.642,-120.333,-124.068,-118.219,-135.833,-93.383,26.459,-128.911,-186.219
0.7633456999997179,-103.728,-124.054,-184.807,-139.024,21.718,-92.545,-86.716,-113.648,-82.879,-95.543,-114.631,-115.369,-71.717,-74.52,-93.236,-136.236,-101.937,-81.42,-95.591,-81.849,-47.569,-125.336,-129.58,-126.81,-138.771,-100.974,20.285,-138.004,-197.816
0.7782391999999163,-98.502,-120.856,-182.061,-137.86,16.061,-90.916,-100.461,-114.559,-88.944,-94.423,-115.541,-111.156,-72.158,-72.397,-90.581,-138.149,-99.786,-80.826,-96.008,-76.644,-44.959,-128.284,-129.962,-123.609,-132.997,-99.336,23.338,-137.354,-191.982
0.7782981000000291,-93.792,-118.174,-181.879,-140.796,12.971,-87.239,-112.144,-117.518,-90.904,-97.402,-115.938,-110.02,-69.524,-75.91,-95.613,-130.326,-103.272,-82.282,-95.399,-78.104,-43.378,-123.545,-124.709,-115.288,-124.667,-92.064,32.024,-135.167,-189.229
0.7932442000001174,-90.112,-112.42,-177.086,-136.557,22.18,-87.664,-105.372,-121.499,-86.715,-97.817,-110.186,-106.836,-67.405,-74.81,-87.321,-123.023,-98.046,-74.515,-84.033,-74.44,-35.65,-112.151,-113.314,-103.902,-109.173,-81.726,56.583,-121.199,-183.917
0.7949278000000959,-82.85,-100.525,-166.663,-126.686,29.33,-87.576,-102.193,-112.668,-82.529,-88.498,-105.465,-100.069,-68.363,-68.075,-75.963,-118.802,-92.312,-67.268,-75.752,-64.631,-27.417,-102.817,-106.541,-94.065,-97.281,-74.985,88.802,-105.709,-168.876
0.8083130999998502,-73.033,-92.74,-162.91,-120.924,21.104,-80.316,-107.213,-103.334,-78.348,-81.749,-101.774,-97.92,-63.683,-72.105,-77.424,-110.486,-95.294,-71.812,-76.189,-61.493,-21.242,-96.055,-103.36,-89.36,-93.598,-73.373,98.959,-102.529,-161.022
0.8083771999999954,-63.226,-85.475,-158.649,-107.483,25.181,-71.015,-105.057,-98.108,-66.487,-70.909,-86.815,-86.551,-51.837,-72.546,-71.199,-97.056,-91.1,-68.666,-67.403,-54.771,-9.438,-89.298,-95.572,-85.172,-88.893,-68.176,95.274,-94.742,-157.275
0.8233463000001393,-54.966,-76.168,-149.781,-90.47,42.062,-65.308,-95.218,-87.764,-53.101,-54.444,-69.822,-67.509,-44.1,-60.178,-56.271,-83.639,-81.275,-58.351,-55.553,-43.958,-0.719,-82.549,-91.378,-82.525,-89.317,-62.473,106.449,-86.963,-151.995
0.8234248999997362,-56.961,-80.702,-151.168,-93.453,37.409,-60.12,-83.852,-84.09,-55.097,-54.902,-71.289,-66.417,-46.618,-60.63,-55.19,-79.969,-83.756,-62.391,-61.645,-47.5,-2.767,-84.004,-99.996,-94.226,-103.06,-69.582,113.515,-99.171,-160.552
0.838680999999724,-67.662,-97.528,-160.239,-107.192,16.88,-59.547,-83.768,-90.153,-65.288,-67.143,-81.464,-80.183,-52.719,-70.303,-59.745,-90.647,-90.332,-69.501,-71.83,-56.162,-7.888,-96.215,-111.167,-111.038,-118.838,-82.321,101.619,-118.54,-179.859
0.8532961000000796,-72.205,-104.602,-165.714,-114.257,5.08,-63.586,-95.98,-94.162,-68.296,-64.514,-82.919,-82.152,-53.691,-66.647,-60.198,-98.241,-87.68,-62.259,-69.196,-53.032,-12.491,-98.68,-112.08,-113.488,-123.842,-85.824,99.468,-126.106,-187.364
0.85334980000016,-68.035,-102.961,-169.134,-116.704,-6.196,-63.523,-98.958,-99.703,-66.179,-62.4,-80.787,-79.508,-54.149,-65.555,-61.162,-95.582,-86.055,-60.66,-66.566,-50.93,-14.527,-90.385,-108.894,-107.739,-121.157,-82.152,107.053,-127.005,-186.664
0.8551643999999214,-65.405,-105.419,-168.453,-117.612,-16.948,-62.435,-99.371,-105.238,-69.186,-72.072,-84.805,-84.552,-60.755,-74.711,-62.638,-98.56,-96.215,-72.383,-71.11,-56.002,-8.877,-91.831,-108.785,-105.07,-114.888,-77.459,105.409,-120.73,-180.33
0.8684269999998833,-64.315,-100.703,-160.6,-111.347,-16.419,-66.471,-113.616,-103.084,-73.728,-72.0,-87.282,-88.566,-64.28,-76.174,-62.063,-102.56,-102.267,-77.433,-70.526,-55.434,-3.745,-93.276,-103.041,-98.305,-104.527,-72.259,105.303,-106.777,-165.293
0.8834219000000303,-59.64,-86.258,-157.365,-105.088,-11.792,-64.867,-118.113,-102.981,-73.654,-66.804,-82.071,-87.453,-58.581,-73.536,-59.952,-98.871,-97.042,-74.794,-65.845,-51.28,-8.352,-84.986,-94.229,-90.522,-94.176,-69.113,111.346,-98.985,-157.955
0.8834824999999,-55.482,-82.073,-159.769,-107.032,-9.731,-61.216,-103.138,-111.075,-73.068,-70.324,-81.477,-86.341,-59.035,-73.462,-56.818,-98.26,-95.92,-75.232,-68.341,-52.765,-10.393,-84.389,-95.672,-89.407,-89.471,-69.044,109.185,-97.349,-160.871
0.8984832999999526,-61.574,-90.7,-160.634,-112.56,-10.746,-64.229,-99.449,-115.062,-78.631,-72.815,-86.006,-87.279,-65.123,-71.34,-58.81,-103.285,-101.972,-79.255,-76.982,-58.348,-8.846,-93.014,-105.822,-94.441,-93.993,-75.122,101.391,-98.277,-159.685
0.8985471000000871,-70.734,-93.171,-163.035,-112.96,-16.37,-66.726,-111.645,-113.41,-83.675,-74.791,-88.994,-90.778,-66.595,-73.317,-64.899,-106.255,-101.87,-81.225,-82.54,-64.95,-14.473,-98.044,-113.401,-103.568,-102.608,-83.244,96.167,-107.4,-161.063
0.9134556999997585,-70.151,-93.59,-166.458,-108.749,-15.842,-66.659,-115.12,-111.76,-82.567,-78.815,-91.467,-91.712,-66.528,-72.732,-66.371,-105.637,-92.546,-73.972,-80.408,-65.397,-18.557,-99.995,-112.775,-106.026,-105.067,-83.161,92.997,-110.879,-167.049
0.9135138000001461,-65.982,-100.157,-165.267,-112.226,-13.264,-70.691,-109.881,-111.136,-80.435,-75.15,-92.912,-84.448,-64.413,-60.876,-63.743,-99.896,-83.232,-63.652,-77.254,-57.647,-12.903,-94.26,-108.564,-96.698,-102.913,-78.979,94.953,-105.132,-166.882
0.9285463999999592,-69.502,-106.717,-166.639,-123.897,-27.596,-72.157,-112.845,-114.099,-79.842,-74.05,-91.795,-82.314,-60.25,-57.741,-63.167,-98.771,-81.1,-63.076,-79.738,-56.565,-8.791,-88.018,-108.968,-94.04,-103.834,-79.413,97.932,-109.126,-170.302
0.9286121999998613,-70.97,-105.585,-170.571,-123.261,-39.864,-68.499,-119.393,-113.472,-79.25,-78.587,-91.19,-86.842,-62.239,-64.856,-63.104,-102.771,-85.117,-67.623,-79.146,-60.607,-8.782,-88.954,-107.834,-99.069,-105.267,-76.259,96.297,-114.652,-175.254
0.9435193999997864,-62.702,-97.795,-164.765,-111.867,-31.627,-62.283,-111.589,-106.186,-72.511,-69.287,-87.001,-81.632,-59.103,-60.693,-59.455,-97.545,-83.495,-61.92,-68.309,-52.861,-5.188,-82.718,-101.066,-95.896,-102.088,-67.986,98.763,-103.779,-164.833
0.9435832999997729,-54.442,-91.55,-153.841,-107.656,-30.571,-52.487,-94.058,-101.982,-61.68,-59.484,-78.717,-72.842,-47.26,-54.484,-50.686,-88.226,-74.19,-56.223,-63.117,-43.587,-0.572,-71.876,-99.941,-90.677,-100.962,-67.406,97.127,-94.966,-155.959
0.9589046000000963,-54.388,-90.946,-151.638,-107.037,-40.786,-48.848,-93.964,-104.954,-59.569,-62.498,-77.101,-75.33,-49.262,-62.114,-48.074,-91.724,-78.727,-60.777,-67.153,-46.617,-0.571,-72.317,-103.939,-93.66,-102.91,-69.9,78.587,-95.896,-158.877
0.9589602000000923,-57.407,-88.293,-147.901,-101.294,-33.573,-52.898,-104.629,-104.336,-64.633,-61.923,-78.561,-80.89,-58.947,-70.249,-53.661,-96.755,-90.431,-64.303,-66.061,-48.62,-3.644,-73.781,-101.786,-94.079,-99.733,-67.269,62.114,-92.726,-152.058
0.9735624999998436,-53.251,-81.545,-138.531,-95.557,-23.806,-51.82,-98.377,-100.134,-66.105,-58.275,-74.384,-79.785,-56.327,-69.667,-50.534,-93.072,-86.754,-62.702,-65.995,-46.522,-1.079,-70.634,-100.66,-92.96,-95.535,-65.152,65.126,-90.584,-142.172
0.9736196999997446,-48.587,-81.976,-140.954,-94.95,-33.516,-48.182,-91.106,-101.058,-67.576,-61.291,-74.822,-79.705,-54.733,-67.548,-43.311,-94.516,-85.131,-66.737,-74.126,-50.062,1.996,-74.149,-107.219,-96.966,-98.001,-67.648,69.672,-93.567,-146.128
0.9885877000001528,-51.613,-84.455,-144.399,-95.367,-38.605,-49.159,-101.773,-103.006,-69.557,-59.18,-80.382,-81.162,-59.802,-69.017,-45.829,-100.057,-93.755,-71.794,-78.15,-54.11,-3.642,-82.784,-115.821,-103.016,-105.075,-72.192,60.38,-95.011,-149.056
0.988645699999779,-55.66,-79.76,-134.521,-87.075,-33.443,-46.548,-104.233,-94.706,-63.852,-55.535,-78.765,-80.569,-56.668,-68.948,-47.32,-98.42,-92.124,-68.136,-78.584,-53.544,-7.736,-87.312,-120.828,-107.524,-109.581,-76.218,58.271,-94.916,-143.272
1.0036242000001039,-52.53,-76.606,-126.702,-79.303,-38.021,-43.94,-90.809,-89.488,-59.69,-59.578,-77.15,-83.05,-54.562,-65.293,-44.199,-99.346,-87.933,-68.58,-82.092,-55.027,-5.167,-87.737,-118.146,-107.929,-109.471,-75.117,68.971,-93.284,-140.567
1.003690000000006,-54.014,-80.116,-131.698,-85.884,-49.766,-47.994,-89.181,-100.157,-66.803,-62.08,-82.708,-87.577,-61.168,-68.301,-49.278,-108.468,-97.579,-78.758,-82.522,-57.534,-8.236,-85.6,-114.954,-104.747,-108.85,-71.968,75.05,-91.653,-144.012
1.0186358000000837,-60.108,-81.573,-138.739,-93.482,-54.327,-50.508,-95.752,-108.767,-69.297,-60.993,-86.723,-87.49,-61.619,-76.942,-56.913,-109.897,-101.068,-79.191,-80.902,-57.988,-11.814,-83.466,-114.839,-102.593,-107.204,-72.408,74.462,-92.586,-148.479
1.018700699999954,-57.487,-76.88,-137.063,-88.266,-52.223,-45.334,-90.021,-99.949,-59.494,-58.883,-81.001,-81.767,-53.36,-74.304,-52.758,-102.102,-91.233,-66.817,-76.211,-52.295,-4.63,-77.747,-104.99,-97.88,-98.387,-70.799,81.56,-89.42,-145.769
1.0336111000001438,-47.183,-70.144,-130.266,-84.591,-54.733,-36.068,-83.783,-92.164,-50.213,-49.603,-70.674,-72.464,-49.721,-65.52,-40.922,-95.853,-87.556,-63.676,-64.864,-41.484,3.572,-66.398,-91.053,-86.511,-88.043,-62.531,97.36,-81.134,-137.426
1.0336727999997493,-44.062,-70.073,-131.161,-91.679,-67.486,-31.933,-91.384,-96.683,-52.212,-45.455,-68.042,-69.317,-50.695,-65.967,-34.733,-91.146,-91.054,-66.174,-59.164,-37.344,6.642,-57.623,-87.376,-79.765,-84.881,-56.321,115.706,-81.053,-136.264
1.0486820999999509,-49.141,-76.663,-140.251,-98.76,-77.664,-38.561,-98.465,-100.684,-60.357,-53.606,-74.634,-75.396,-52.182,-69.487,-38.797,-90.03,-91.988,-61.497,-62.178,-41.918,7.148,-55.516,-88.825,-82.246,-87.87,-58.314,125.324,-87.631,-140.226
1.0636684000000969,-51.653,-80.685,-143.697,-100.71,-67.34,-45.182,-101.44,-104.682,-65.932,-56.626,-76.096,-78.906,-55.716,-73.004,-43.369,-91.989,-93.433,-61.435,-61.091,-43.925,5.092,-57.509,-89.761,-88.824,-94.954,-62.354,112.391,-91.642,-143.16
1.0637298999999985,-45.966,-78.555,-141.504,-100.097,-56.002,-44.625,-109.536,-105.602,-65.354,-53.496,-71.409,-77.291,-58.222,-76.517,-41.277,-91.897,-96.926,-67.522,-62.567,-42.856,4.062,-58.477,-94.794,-92.321,-102.544,-63.829,93.835,-92.063,-148.14
1.0797383999997692,-43.359,-76.427,-140.338,-95.386,-67.217,-42.531,-114.037,-97.3,-61.19,-55.491,-71.85,-75.676,-55.602,-74.391,-38.161,-91.293,-99.902,-65.917,-67.116,-45.887,8.669,-58.418,-97.261,-90.692,-103.978,-62.228,100.402,-86.848,-145.943
1.079798799999935,-43.315,-73.277,-134.562,-90.168,-82.007,-39.927,-105.214,-96.69,-62.153,-57.485,-72.803,-74.576,-53.497,-71.756,-34.025,-89.665,-98.266,-62.265,-62.438,-45.842,10.197,-57.335,-95.115,-87.528,-100.288,-60.117,117.207,-79.076,-132.989
1.0937251000000288,-38.149,-70.13,-128.792,-90.078,-80.9,-34.764,-99.985,-104.278,-66.702,-55.891,-69.144,-73.989,-55.493,-74.245,-28.355,-87.014,-93.044,-62.715,-60.838,-40.16,8.65,-54.204,-93.483,-88.465,-100.188,-59.544,120.164,-75.923,-129.782
1.0937905000000683,-35.037,-71.597,-134.299,-96.648,-79.282,-31.143,-102.959,-101.1,-63.049,-53.273,-64.976,-73.403,-53.9,-72.634,-27.815,-86.927,-89.877,-63.165,-66.925,-39.096,7.616,-53.637,-93.901,-91.45,-101.625,-59.997,120.044,-77.384,-136.312
1.1087326000001667,-42.687,-78.698,-141.337,-102.186,-83.302,-30.6,-98.245,-93.314,-54.789,-47.585,-64.399,-72.305,-48.723,-68.975,-32.91,-89.401,-90.812,-66.175,-64.297,-45.204,2.486,-57.17,-94.832,-92.896,-104.597,-65.06,120.948,-84.992,-139.25
1.1104449999997996,-51.865,-86.303,-141.195,-99.523,-85.267,-32.618,-91.487,-94.758,-57.296,-48.049,-70.483,-74.794,-51.236,-69.931,-36.976,-93.41,-93.795,-68.158,-64.745,-47.72,-3.664,-60.699,-99.348,-97.926,-110.64,-71.655,115.192,-99.764,-146.283
1.1228009999999813,-58.474,-90.828,-141.566,-97.886,-93.891,-37.196,-93.957,-97.224,-62.874,-53.637,-78.097,-80.867,-57.333,-70.886,-38.988,-101.514,-97.287,-67.578,-78.0,-49.21,-7.759,-64.737,-106.933,-106.025,-116.165,-75.169,113.54,-110.935,-156.383
1.1228676999999152,-60.977,-88.688,-142.45,-102.399,-103.531,-36.135,-101.036,-101.738,-59.225,-52.559,-78.019,-81.299,-55.738,-71.327,-36.9,-106.536,-100.264,-70.072,-78.434,-53.771,-10.825,-67.233,-110.925,-108.48,-116.561,-77.143,118.037,-110.824,-154.69
1.1378841999999167,-54.768,-83.988,-140.258,-98.711,-99.329,-33.025,-107.082,-107.272,-55.58,-51.481,-76.404,-80.193,-55.17,-73.305,-35.326,-104.892,-100.676,-68.977,-69.647,-52.181,-11.839,-65.117,-107.228,-103.761,-113.883,-75.017,121.505,-105.077,-150.949
1.1379511000000093,-50.102,-83.392,-138.581,-93.489,-100.767,-40.164,-112.098,-105.627,-68.332,-59.115,-82.987,-88.309,-63.312,-77.33,-40.414,-110.935,-105.186,-66.859,-74.188,-49.567,-14.901,-65.052,-106.096,-101.608,-113.257,-72.381,127.532,-104.972,-153.872
1.1528150999997706,-55.175,-84.333,-133.831,-95.444,-115.523,-49.345,-110.449,-108.083,-80.046,-65.715,-85.466,-94.369,-66.835,-81.864,-42.935,-119.533,-112.253,-72.94,-79.237,-55.665,-18.985,-66.011,-112.137,-103.043,-113.143,-76.919,134.576,-107.429,-150.132
1.1528755999997884,-53.583,-77.589,-116.791,-87.152,-113.871,-40.074,-106.753,-111.561,-67.159,-61.039,-78.208,-87.614,-59.083,-81.269,-37.769,-114.803,-108.555,-72.355,-72.497,-55.609,-15.892,-62.359,-108.951,-99.866,-106.882,-77.354,139.053,-98.612,-134.1
1.167876399999841,-41.747,-65.216,-95.67,-70.159,-101.974,-25.177,-104.597,-98.642,-53.259,-50.219,-71.47,-78.817,-52.364,-71.967,-32.608,-104.442,-99.737,-63.573,-67.302,-44.283,-10.241,-56.149,-98.084,-92.082,-92.943,-64.469,150.697,-84.169,-115.523
1.169834499999979,-36.069,-58.491,-76.619,-66.502,-103.921,-25.665,-96.295,-84.199,-57.817,-44.021,-66.788,-78.226,-49.238,-66.772,-28.989,-102.288,-101.687,-66.071,-65.698,-43.214,-9.206,-54.556,-94.912,-84.305,-84.653,-58.769,165.915,-75.888,-95.427
1.1828927000001386,-35.009,-55.358,-49.39,-61.825,-100.231,-27.688,-88.514,-84.627,-57.759,-43.977,-63.135,-78.66,-48.164,-68.242,-25.374,-102.186,-102.61,-73.177,-67.169,-50.343,-8.172,-53.989,-95.842,-77.049,-84.569,-61.785,173.434,-68.127,-71.766
1.1829586999997446,-33.437,-50.692,-20.139,-49.98,-92.958,-20.488,-90.987,-85.567,-50.529,-45.983,-66.658,-77.557,-50.678,-66.637,-23.812,-103.621,-94.822,-72.592,-73.762,-49.78,-8.676,-53.423,-94.209,-77.484,-85.509,-59.161,175.822,-64.473,-53.251
1.1979060999997273,-39.551,-54.74,-16.02,-57.103,-107.21,-24.054,-95.507,-89.068,-56.114,-51.06,-72.226,-81.066,-54.725,-69.131,-27.374,-108.64,-98.314,-77.13,-76.249,-48.706,-15.327,-56.956,-98.213,-87.14,-91.059,-62.688,174.109,-77.729,-54.222
1.197973599999841,-48.221,-68.005,-23.177,-73.439,-118.886,-35.813,-101.559,-98.712,-60.668,-55.62,-72.666,-85.083,-57.232,-76.747,-33.494,-108.531,-105.9,-85.762,-73.612,-50.707,-19.411,-59.973,-103.238,-91.664,-101.726,-70.31,165.226,-88.922,-61.853
1.213257800000065,-48.173,-67.937,-10.346,-70.292,-106.984,-32.191,-108.63,-98.101,-54.46,-53.002,-72.081,-80.9,-55.638,-77.182,-33.973,-103.3,-98.622,-84.139,-70.976,-49.119,-17.342,-53.765,-99.037,-88.498,-101.624,-64.092,159.937,-81.148,-51.545
1.2133260999999038,-46.587,-59.673,2.472,-65.099,-105.34,-27.548,-104.423,-93.392,-58.504,-53.462,-73.034,-79.794,-55.582,-75.056,-30.865,-104.221,-98.011,-81.494,-70.393,-49.582,-18.861,-50.125,-94.839,-87.385,-95.375,-61.979,158.753,-76.969,-38.173
1.2278252000000975,-52.176,-66.785,-4.19,-74.255,-121.116,-37.254,-97.658,-102.521,-66.13,-63.142,-77.059,-88.936,-62.699,-82.153,-33.908,-113.339,-109.184,-86.023,-74.934,-54.656,-25.503,-59.809,-99.355,-90.884,-99.89,-71.651,153.983,-87.65,-44.283
1.2428586999999425,-57.759,-77.477,-2.137,-82.378,-126.118,-38.242,-105.758,-111.127,-65.552,-68.202,-84.155,-95.507,-66.735,-84.633,-36.436,-117.836,-107.537,-89.523,-79.469,-58.699,-32.649,-64.872,-105.916,-94.892,-104.914,-71.579,155.366,-93.198,-49.361
1.2429207000000133,-61.288,-76.887,7.599,-83.832,-125.992,-32.568,-112.312,-110.504,-70.609,-71.208,-87.657,-95.924,-64.619,-81.987,-33.838,-119.767,-101.795,-93.532,-81.439,-62.739,-38.252,-65.319,-111.445,-99.408,-105.833,-71.507,157.773,-94.642,-44.701
1.2578843000001143,-65.325,-84.495,-2.142,-86.31,-136.625,-40.732,-110.663,-112.955,-79.76,-78.309,-88.081,-99.414,-67.116,-84.466,-38.415,-124.771,-103.742,-100.098,-89.555,-65.238,-42.312,-75.5,-117.994,-106.48,-113.412,-82.194,150.442,-106.842,-54.39
1.257946599999741,-67.821,-99.267,-14.948,-88.785,-144.173,-46.327,-117.212,-109.256,-74.045,-75.669,-90.042,-98.802,-67.561,-80.283,-43.5,-126.183,-100.052,-97.437,-92.539,-62.611,-44.319,-79.523,-121.462,-112.522,-122.008,-83.649,149.78,-114.932,-66.119
1.2729457000000366,-67.753,-96.094,-13.908,-88.184,-145.053,-39.621,-126.829,-101.974,-65.774,-67.909,-88.415,-92.556,-59.809,-68.42,-37.821,-122.47,-93.804,-90.167,-83.225,-62.036,-43.763,-68.173,-118.779,-108.311,-119.837,-76.905,155.778,-106.108,-60.93
1.2730063999997583,-67.173,-83.703,-14.407,-90.145,-145.42,-42.655,-124.14,-114.168,-71.856,-75.525,-89.352,-97.074,-61.286,-72.45,-37.783,-124.91,-96.272,-95.2,-81.092,-63.511,-44.231,-64.519,-115.074,-100.005,-117.155,-75.804,148.962,-99.342,-57.283
1.2878649999997833,-67.619,-82.594,-20.54,-91.08,-144.25,-45.686,-115.819,-128.91,-79.981,-81.597,-95.41,-103.637,-70.959,-80.574,-43.893,-128.371,-96.176,-100.228,-84.085,-59.349,-44.699,-64.966,-108.299,-99.393,-116.014,-70.605,143.69,-103.341,-62.349
1.287919200000033,-63.965,-81.487,-22.056,-83.816,-139.495,-36.419,-112.117,-119.048,-78.364,-74.856,-92.753,-96.873,-68.326,-74.858,-39.75,-119.533,-89.932,-92.443,-73.755,-52.118,-40.044,-52.094,-96.407,-95.708,-110.262,-63.362,155.841,-100.164,-59.212
1.3029492000000573,-56.216,-74.746,-22.547,-75.023,-132.696,-33.309,-116.104,-109.195,-70.601,-70.17,-81.902,-87.555,-61.598,-70.173,-31.514,-107.118,-84.207,-88.764,-64.46,-47.967,-34.881,-40.771,-85.553,-81.78,-105.029,-62.274,163.37,-89.305,-52.493
1.3030119999998533,-52.061,-74.671,-26.623,-77.51,-123.341,-34.3,-120.598,-112.672,-65.407,-71.125,-78.234,-86.955,-64.098,-73.176,-31.994,-108.036,-83.098,-91.749,-67.469,-49.456,-35.87,-44.828,-86.492,-78.624,-103.899,-61.187,160.133,-87.167,-58.076
1.3179700000000594,-59.182,-81.768,-36.33,-88.191,-127.317,-33.241,-119.965,-113.071,-70.977,-72.591,-82.254,-89.942,-67.107,-75.665,-37.086,-114.075,-89.675,-95.756,-75.598,-56.579,-41.47,-52.981,-98.7,-91.353,-108.918,-65.225,157.411,-96.301,-74.924
1.318029900000056,-66.807,-88.859,-55.249,-94.763,-145.632,-40.892,-124.456,-117.569,-75.517,-78.153,-89.344,-94.975,-68.065,-80.2,-38.585,-118.572,-96.245,-102.32,-83.72,-61.133,-47.064,-61.125,-108.848,-101.508,-123.154,-77.455,154.692,-106.963,-92.78
1.3333711000000221,-62.642,-92.356,-70.05,-96.717,-150.61,-42.901,-134.066,-126.161,-67.757,-76.026,-87.718,-95.392,-69.021,-80.12,-33.424,-118.966,-92.563,-105.292,-83.124,-56.461,-48.041,-63.113,-107.202,-102.431,-132.765,-78.914,157.099,-110.955,-102.933
1.333432299999913,-55.919,-92.264,-79.202,-101.231,-146.873,-33.124,-132.907,-120.399,-67.177,-69.29,-76.872,-90.686,-65.879,-72.867,-27.755,-114.236,-87.347,-101.601,-77.918,-54.355,-45.944,-57.414,-105.046,-101.816,-129.558,-74.224,164.627,-112.893,-112.052
1.3479332000001705,-58.425,-94.221,-95.517,-109.327,-159.022,-37.189,-125.602,-117.717,-79.405,-75.881,-80.381,-92.132,-65.3,-72.282,-30.289,-113.097,-87.26,-103.548,-82.963,-56.35,-47.947,-59.918,-110.576,-103.764,-131.99,-78.249,168.561,-120.465,-128.334
1.3479922999999872,-59.903,-98.225,-108.229,-112.804,-170.646,-42.787,-123.939,-129.895,-79.838,-79.903,-89.522,-93.577,-66.26,-72.21,-32.82,-116.058,-84.611,-106.518,-82.367,-53.732,-48.924,-64.981,-114.564,-106.734,-139.543,-79.707,171.978,-125.98,-137.939
1.3630198000000746,-56.77,-97.615,-107.608,-109.617,-168.938,-33.011,-125.352,-126.691,-71.561,-69.577,-82.26,-87.336,-62.607,-66.502,-27.664,-113.38,-79.403,-101.801,-72.039,-50.605,-46.314,-60.306,-110.863,-105.602,-135.305,-77.578,177.442,-124.317,-137.801
1.3630831999998918,-62.348,-99.054,-115.698,-109.507,-179.015,-32.978,-127.276,-112.732,-75.076,-70.532,-82.69,-90.322,-64.082,-69.51,-29.173,-113.779,-77.275,-98.113,-77.09,-53.116,-51.903,-59.733,-110.24,-104.984,-133.12,-82.624,175.215,-128.291,-146.373
1.3781620999998268,-68.434,-104.59,-128.902,-114.009,-191.132,-38.58,-127.149,-114.156,-75.513,-80.195,-96.952,-100.478,-68.628,-73.538,-37.853,-124.424,-75.66,-93.917,-83.673,-58.186,-57.998,-63.259,-112.691,-107.441,-137.086,-83.054,171.454,-131.237,-157.497
1.37822610000012,-64.267,-100.387,-128.261,-111.845,-183.768,-31.369,-122.923,-114.554,-66.728,-76.017,-94.806,-96.792,-65.998,-67.317,-35.766,-125.324,-74.048,-89.212,-75.905,-58.127,-53.842,-60.122,-108.993,-104.26,-132.338,-77.335,176.405,-123.421,-153.753
1.393021200000021,-64.715,-94.651,-130.182,-110.197,-182.047,-31.338,-122.288,-105.731,-70.248,-72.355,-92.15,-95.67,-66.444,-68.787,-29.583,-119.051,-78.584,-95.783,-77.878,-56.02,-55.325,-60.062,-105.81,-100.569,-131.181,-78.795,176.741,-121.76,-151.038
1.3930761999999959,-71.822,-100.704,-142.347,-114.697,-185.964,-41.04,-121.141,-109.211,-76.325,-79.455,-100.254,-101.722,-70.989,-76.403,-35.189,-122.006,-82.092,-104.396,-84.972,-55.964,-62.442,-64.101,-108.778,-103.543,-139.759,-82.302,171.954,-126.762,-157.035
1.4080502000001616,-66.627,-99.579,-140.668,-107.922,-173.995,-38.438,-112.823,-109.102,-66.515,-74.764,-89.908,-93.936,-64.77,-70.691,-36.178,-117.786,-77.911,-101.218,-76.69,-54.884,-56.232,-54.815,-102.009,-97.804,-133.471,-74.023,177.929,-117.926,-152.779
1.4230618000001414,-54.265,-87.184,-134.379,-96.544,-167.161,-30.715,-114.247,-101.308,-60.301,-62.907,-75.986,-83.084,-55.484,-60.886,-25.896,-105.372,-73.735,-99.067,-69.441,-49.706,-47.466,-41.953,-87.05,-82.337,-119.506,-62.678,189.534,-107.049,-143.405
1.4247541999998248,-53.187,-87.609,-142.442,-103.62,-171.092,-27.61,-124.891,-112.478,-65.364,-62.844,-79.496,-83.0,-53.379,-59.801,-23.308,-102.193,-67.514,-98.456,-66.298,-45.557,-48.956,-41.398,-85.938,-78.156,-115.8,-59.542,190.882,-111.553,-146.848
1.4381843999999546,-56.207,-96.231,-148.447,-108.639,-160.163,-26.558,-128.865,-116.976,-64.274,-63.293,-72.757,-74.721,-50.252,-57.692,-25.334,-99.529,-58.737,-90.673,-62.133,-43.975,-47.37,-43.406,-92.512,-83.201,-116.709,-64.093,187.617,-114.515,-154.898
1.438249100000121,-50.003,-96.135,-150.348,-100.846,-149.244,-28.581,-132.834,-98.416,-60.111,-57.082,-63.975,-69.01,-50.202,-56.097,-22.747,-93.282,-61.24,-91.095,-67.194,-43.931,-45.786,-42.338,-93.957,-87.728,-121.715,-68.127,184.868,-117.475,-159.354
1.453180699999848,-45.343,-100.649,-159.931,-112.528,-155.755,-34.7,-133.726,-101.391,-67.223,-61.636,-74.669,-79.7,-55.787,-60.652,-23.237,-97.287,-66.814,-99.713,-69.689,-46.961,-49.838,-43.833,-94.375,-94.301,-126.716,-68.059,184.171,-130.165,-167.391
1.453238699999929,-49.908,-108.233,-164.382,-130.346,-154.574,-41.837,-121.297,-120.245,-75.865,-70.796,-80.742,-83.206,-58.293,-63.153,-28.849,-102.313,-64.186,-96.027,-60.397,-49.988,-52.862,-43.277,-92.232,-95.231,-121.979,-68.503,188.597,-135.158,-174.908
1.4685982999999396,-53.444,-106.588,-165.755,-119.97,-150.321,-45.382,-122.2,-115.002,-75.277,-70.725,-77.587,-81.586,-60.283,-65.139,-31.894,-104.26,-68.732,-90.808,-62.386,-50.45,-56.908,-43.233,-90.09,-94.623,-121.345,-72.021,191.483,-133.998,-179.344
1.4686610999997356,-49.805,-105.457,-174.81,-111.653,-160.417,-38.676,-137.96,-107.715,-72.64,-69.63,-83.658,-91.751,-62.272,-68.66,-33.399,-112.353,-78.91,-98.402,-71.545,-52.449,-62.487,-48.825,-98.709,-102.726,-128.396,-76.047,190.267,-139.499,-184.8
1.4831756999997197,-41.046,-103.302,-172.074,-118.201,-165.892,-28.904,-128.6,-114.267,-72.568,-71.609,-82.037,-91.659,-56.575,-65.005,-26.706,-110.191,-73.195,-99.84,-68.4,-50.347,-57.301,-49.289,-101.684,-103.648,-125.193,-72.898,196.224,-135.774,-183.079
1.484870299999784,-35.369,-95.514,-162.68,-112.448,-161.115,-28.363,-115.152,-114.153,-68.397,-67.439,-74.27,-79.784,-53.957,-58.792,-19.507,-99.322,-65.437,-97.179,-66.282,-45.686,-49.559,-45.141,-95.947,-95.347,-119.433,-66.677,203.712,-125.392,-175.723
1.4982927000000927,-39.945,-98.493,-172.252,-111.311,-165.565,-37.556,-132.967,-119.674,-70.377,-71.47,-82.905,-86.364,-61.587,-64.369,-30.246,-107.932,-76.643,-108.865,-76.462,-51.788,-57.194,-53.293,-104.048,-103.961,-127.51,-74.295,195.312,-132.439,-179.134
1.498361500000101,-45.54,-107.616,-185.912,-128.105,-177.695,-48.277,-143.593,-131.85,-81.578,-84.206,-93.581,-98.573,-67.161,-71.989,-40.462,-121.657,-85.788,-119.002,-82.021,-59.421,-70.457,-67.072,-116.752,-117.689,-134.555,-86.516,181.796,-143.065,-188.688
1.513340099999823,-42.421,-105.459,-184.189,-130.539,-182.64,-46.179,-125.006,-126.082,-82.521,-83.098,-92.463,-96.938,-66.069,-70.893,-33.761,-121.023,-80.066,-114.785,-81.427,-57.825,-73.46,-69.054,-112.537,-113.985,-131.347,-85.917,182.127,-139.336,-185.938
1.5283103000001574,-44.427,-106.89,-186.566,-123.236,-185.019,-36.911,-116.172,-121.858,-79.877,-78.404,-92.37,-97.353,-67.54,-71.334,-34.24,-124.488,-82.548,-115.694,-86.981,-64.427,-75.436,-72.059,-114.986,-113.871,-129.166,-87.368,182.969,-142.27,-184.215
1.528370200000154,-55.141,-123.69,-201.237,-135.92,-194.568,-44.559,-131.425,-134.544,-89.018,-87.034,-97.913,-105.453,-72.596,-75.873,-45.988,-136.659,-93.224,-124.288,-95.091,-74.096,-84.582,-84.282,-127.678,-128.102,-136.209,-95.99,175.614,-158.009,-200.425
1.5432937999999012,-57.136,-132.787,-210.257,-150.129,-203.083,-56.298,-146.15,-136.458,-89.442,-89.509,-99.352,-106.372,-75.085,-73.748,-44.918,-136.01,-89.544,-125.701,-92.946,-70.948,-85.01,-84.198,-123.452,-129.511,-140.684,-94.869,173.902,-165.536,-209.958
1.5433505000000878,-50.931,-128.044,-207.997,-147.93,-198.269,-45.483,-143.443,-128.637,-78.081,-78.149,-95.154,-100.118,-69.374,-67.527,-37.188,-125.628,-78.184,-124.038,-83.632,-63.193,-71.093,-67.72,-110.009,-117.086,-132.346,-87.602,179.363,-163.321,-202.576
1.5583922000000712,-48.831,-127.916,-204.203,-144.196,-191.411,-39.802,-133.053,-133.119,-79.54,-76.534,-90.448,-96.944,-63.157,-66.435,-36.639,-120.891,-75.544,-121.865,-75.351,-58.519,-67.435,-58.431,-106.313,-109.797,-125.554,-84.441,180.721,-161.621,-200.837
1.5584509000000253,-44.683,-127.276,-200.413,-142.515,-192.244,-49.496,-140.605,-132.986,-81.51,-81.58,-88.821,-96.847,-62.582,-65.344,-36.602,-119.234,-72.395,-114.57,-72.202,-54.362,-73.516,-59.397,-102.108,-109.175,-125.941,-79.746,180.028,-157.361,-201.148
1.5734099999999671,-34.905,-117.927,-192.016,-138.274,-189.49,-42.787,-150.71,-125.681,-72.719,-76.888,-87.195,-93.676,-61.494,-59.643,-34.516,-118.09,-62.589,-112.919,-74.179,-55.332,-71.393,-59.337,-98.42,-110.602,-121.716,-80.69,182.409,-153.105,-190.701
1.573473699999795,-34.357,-117.809,-190.287,-137.623,-185.202,-32.498,-134.678,-133.24,-79.307,-74.249,-87.108,-95.12,-60.921,-61.633,-34.482,-121.558,-61.502,-124.077,-79.74,-58.863,-70.297,-62.352,-109.08,-116.639,-123.131,-89.319,181.714,-157.05,-188.461
1.5895090999997592,-37.397,-122.814,-195.732,-134.412,-185.017,-40.662,-124.809,-134.131,-89.473,-80.323,-89.583,-100.148,-64.446,-70.28,-34.96,-126.047,-60.928,-130.613,-79.661,-56.242,-72.788,-67.925,-114.606,-120.109,-130.181,-85.131,176.41,-156.893,-193.908
1.5895673999998507,-27.626,-110.908,-186.314,-119.42,-175.61,-38.572,-135.955,-111.968,-74.015,-76.656,-83.858,-89.801,-60.795,-66.111,-30.826,-117.212,-46.522,-122.285,-69.335,-50.038,-64.006,-56.586,-98.61,-109.23,-118.267,-71.726,182.381,-141.367,-182.443
1.6033714000000145,-14.79,-98.502,-172.296,-108.542,-166.725,-22.14,-128.647,-103.147,-60.621,-65.309,-74.552,-75.367,-51.513,-54.262,-20.549,-102.75,-34.693,-113.454,-62.093,-43.328,-54.208,-40.648,-84.679,-91.703,-100.218,-67.044,199.105,-125.857,-167.404
1.6183888999998999,-16.825,-99.428,-179.808,-114.069,-180.391,-21.093,-110.075,-117.901,-68.757,-67.293,-76.527,-81.439,-51.974,-54.72,-15.918,-103.159,-41.83,-113.853,-64.593,-42.26,-57.228,-44.194,-86.643,-90.074,-100.118,-68.001,201.979,-124.194,-170.822
1.6200579000001198,-21.419,-98.816,-188.85,-120.103,-193.531,-23.634,-114.064,-114.196,-67.664,-69.275,-81.061,-86.993,-53.459,-59.276,-22.05,-111.253,-51.522,-118.349,-65.553,-46.317,-59.22,-50.809,-89.631,-99.718,-98.993,-66.396,197.167,-122.02,-176.287
1.6335002000000713,-13.713,-94.107,-182.513,-115.884,-188.214,-14.388,-115.487,-89.492,-50.177,-57.422,-74.832,-75.123,-42.647,-54.606,-19.466,-106.531,-52.495,-117.206,-60.364,-43.709,-55.574,-42.049,-84.93,-96.544,-90.185,-64.793,206.191,-112.677,-173.037
1.633575700000165,-12.162,-94.525,-185.405,-113.207,-189.05,-12.837,-101.539,-83.767,-43.467,-53.779,-72.196,-74.023,-37.993,-51.478,-10.737,-104.375,-52.955,-114.015,-58.254,-39.054,-56.544,-40.47,-84.333,-90.3,-93.681,-65.753,213.669,-110.003,-173.889
1.6485075999999026,-23.933,-99.041,-201.101,-119.241,-199.62,-19.484,-102.462,-102.638,-53.67,-67.557,-82.37,-88.806,-49.738,-58.086,-19.436,-119.64,-62.636,-120.561,-64.344,-47.212,-62.635,-55.287,-95.519,-103.017,-103.834,-71.835,203.21,-116.553,-180.887
1.6485692999999628,-31.594,-106.627,-203.461,-126.294,-205.056,-18.44,-116.192,-116.368,-62.326,-74.15,-90.997,-97.427,-55.836,-64.688,-31.712,-134.378,-72.82,-131.712,-74.013,-53.825,-70.257,-65.478,-109.769,-116.234,-109.877,-78.935,195.834,-120.022,-184.292
1.663491199999953,-27.464,-109.082,-196.598,-120.533,-208.437,-16.885,-118.637,-113.69,-57.14,-69.977,-87.832,-97.842,-52.194,-65.136,-26.045,-132.706,-71.722,-130.555,-75.989,-47.623,-71.211,-65.925,-113.245,-113.044,-114.378,-81.418,200.761,-113.755,-180.522
1.663549299999886,-19.752,-100.263,-194.352,-110.166,-206.691,-17.38,-112.883,-107.941,-50.423,-66.321,-80.572,-91.596,-51.118,-58.923,-19.871,-122.327,-62.941,-119.154,-65.154,-38.354,-61.918,-59.711,-105.447,-108.833,-110.165,-78.775,203.634,-103.907,-172.657
1.6784419000000526,-12.56,-96.577,-194.158,-111.08,-200.849,-13.777,-112.258,-108.345,-55.496,-65.23,-77.93,-81.258,-49.017,-51.18,-19.339,-116.057,-54.681,-111.35,-56.38,-33.193,-54.172,-50.43,-98.169,-107.699,-101.346,-73.061,205.48,-103.291,-171.459
1.6801627999998345,-5.887,-100.067,-196.013,-115.58,-204.235,-7.615,-122.392,-110.799,-58.514,-63.628,-74.778,-78.103,-45.382,-49.079,-11.635,-112.867,-48.479,-110.214,-56.323,-28.549,-53.093,-48.842,-97.559,-104.005,-102.782,-70.426,214.496,-108.823,-176.923
1.693537799999831,-3.832,-99.454,-195.817,-113.928,-210.178,-2.997,-130.979,-112.225,-57.431,-59.978,-69.068,-76.488,-45.337,-51.079,-6.5,-108.656,-46.894,-106.518,-54.218,-25.446,-49.966,-51.867,-98.998,-102.365,-105.753,-71.893,219.917,-109.226,-175.209
1.6936010999997961,-2.803,-98.33,-193.059,-115.863,-208.431,-2.994,-121.114,-111.6,-61.984,-57.869,-65.925,-71.801,-43.754,-51.54,-9.055,-105.474,-50.945,-102.825,-49.041,-24.909,-46.842,-48.229,-96.338,-102.262,-103.085,-70.284,216.623,-107.068,-171.96
1.7085690999997496,-0.239,-100.793,-196.452,-117.284,-209.759,-7.089,-114.333,-106.878,-59.873,-58.836,-67.396,-72.241,-42.174,-50.464,-9.558,-105.88,-53.456,-109.382,-51.553,-25.396,-48.845,-46.644,-94.192,-103.184,-105.544,-68.677,214.87,-105.936,-176.399
1.7086362999998528,-0.751,-99.668,-203.428,-113.581,-216.722,-5.033,-126.001,-101.135,-47.005,-56.215,-66.304,-74.218,-42.644,-51.438,-9.037,-106.287,-53.915,-116.445,-56.625,-24.346,-48.796,-51.208,-97.172,-107.18,-108.512,-74.756,218.241,-105.318,-178.784
1.7239408000000367,1.299,-93.933,-202.2,-112.442,-208.308,1.632,-121.777,-95.399,-42.348,-50.524,-59.578,-69.021,-37.478,-52.412,-10.052,-104.131,-52.836,-111.718,-54.006,-20.736,-44.648,-47.571,-97.587,-105.023,-104.818,-74.681,222.121,-106.237,-177.581
1.7240019000000757,12.568,-86.667,-194.826,-107.207,-187.095,4.192,-101.163,-85.57,-40.768,-46.887,-53.37,-64.854,-30.781,-52.359,-5.431,-97.88,-50.222,-107.508,-48.317,-17.129,-39.481,-40.351,-89.292,-96.209,-96.003,-64.872,225.485,-102.545,-175.866
1.7385770999999295,19.216,-79.92,-193.094,-98.39,-180.248,4.7,-99.013,-79.336,-36.117,-47.353,-56.903,-66.838,-33.311,-57.942,-1.327,-97.269,-57.344,-116.622,-51.855,-20.698,-39.954,-44.409,-88.691,-96.113,-88.223,-63.27,228.846,-97.832,-172.104
1.740444000000025,15.098,-78.815,-198.024,-102.903,-190.827,5.72,-104.549,-79.769,-38.642,-51.916,-61.969,-74.968,-40.45,-65.057,-3.888,-107.931,-69.582,-124.19,-62.049,-27.337,-44.524,-51.537,-95.262,-100.115,-84.548,-69.867,228.617,-100.808,-174.494
1.7536396000000423,15.595,-78.737,-198.851,-104.849,-193.71,4.69,-99.321,-76.103,-40.141,-53.401,-59.858,-77.455,-39.898,-62.43,-5.933,-114.483,-64.389,-118.43,-61.987,-26.285,-44.48,-51.998,-93.118,-95.404,-77.804,-69.797,227.876,-99.682,-176.369
1.7537038000000393,18.141,-78.146,-195.066,-95.523,-191.467,3.66,-98.197,-73.466,-36.514,-48.737,-59.798,-73.279,-36.784,-55.708,-6.439,-106.683,-56.128,-111.14,-55.777,-22.16,-42.898,-53.483,-88.414,-94.797,-70.042,-66.654,226.624,-93.435,-170.557
1.7686628000001292,8.389,-86.777,-202.043,-104.136,-205.107,-1.979,-97.587,-87.225,-43.138,-54.323,-67.423,-76.279,-42.383,-58.213,-9.507,-106.064,-60.17,-107.955,-58.796,-26.749,-47.466,-59.065,-92.424,-101.874,-77.144,-71.198,221.274,-101.538,-172.948
1.7687224999999671,1.209,-96.936,-209.525,-117.865,-214.124,-8.637,-100.563,-97.896,-50.267,-60.929,-68.38,-81.326,-46.439,-57.643,-11.034,-111.594,-57.548,-104.773,-59.249,-28.259,-48.443,-56.956,-90.282,-102.285,-83.727,-75.737,216.954,-109.121,-179.947
1.7837070999999014,8.38,-89.154,-204.705,-105.964,-199.565,-0.943,-118.906,-90.626,-46.118,-52.159,-60.627,-74.072,-39.732,-50.925,-7.949,-105.335,-48.269,-102.107,-50.993,-20.546,-39.686,-46.653,-80.97,-96.035,-73.397,-66.44,219.299,-101.328,-172.595
1.7837743999998565,9.908,-80.356,-202.963,-96.124,-193.73,6.23,-124.934,-90.023,-47.609,-50.57,-60.567,-70.412,-38.668,-53.436,-6.917,-101.131,-54.881,-100.98,-50.43,-19.501,-37.597,-43.533,-82.426,-94.914,-71.274,-56.127,212.932,-98.152,-168.324
1.7986642000000757,4.775,-87.448,-205.834,-108.323,-207.881,-6.072,-114.051,-100.691,-58.32,-66.401,-67.678,-77.002,-46.314,-58.506,-8.447,-106.153,-64.048,-103.953,-53.453,-23.068,-43.195,-48.612,-89.516,-99.43,-80.424,-61.707,195.813,-103.177,-176.865
1.8137857000001532,6.82,-90.947,-198.456,-110.264,-213.821,-9.14,-119.572,-97.004,-56.725,-64.798,-66.074,-72.826,-41.657,-53.836,-6.389,-102.46,-59.885,-110.509,-51.35,-19.971,-40.59,-49.076,-87.377,-98.818,-75.221,-67.793,196.129,-100.0,-172.589
1.8138500999998541,6.813,-85.22,-190.573,-98.371,-212.07,8.288,-124.064,-88.71,-47.446,-49.363,-60.372,-67.63,-36.492,-49.684,-4.333,-98.772,-55.727,-108.861,-54.885,-19.439,-37.988,-46.978,-84.216,-97.182,-67.461,-64.139,209.253,-99.388,-161.146
1.8278064000000995,-11.637,-97.943,-199.604,-106.469,-230.301,3.669,-108.57,-95.282,-50.985,-61.61,-70.558,-82.42,-49.263,-59.368,-10.989,-115.579,-64.893,-109.265,-67.126,-31.202,-51.27,-60.763,-94.378,-108.868,-78.664,-72.784,200.847,-116.195,-173.28
1.8278744999997798,-32.63,-121.411,-215.798,-128.904,-259.785,-18.364,-112.56,-101.846,-64.766,-83.577,-92.004,-101.293,-62.022,-75.19,-20.712,-136.98,-82.246,-126.574,-81.915,-42.954,-70.174,-85.293,-114.776,-129.764,-94.98,-94.228,178.105,-140.157,-197.698
1.8430969000000914,-31.573,-120.265,-221.73,-132.362,-263.623,-13.735,-127.817,-94.572,-61.628,-75.809,-92.937,-99.655,-56.324,-77.677,-20.691,-136.331,-84.726,-129.521,-84.907,-39.837,-69.591,-87.257,-118.76,-134.245,-94.372,-96.183,176.902,-147.701,-200.574
1.8431580000001304,-19.246,-106.312,-213.824,-118.909,-247.991,2.161,-110.271,-85.769,-45.172,-59.339,-76.963,-87.259,-49.096,-67.353,-14.523,-119.801,-68.247,-111.973,-70.478,-28.527,-54.665,-69.751,-99.686,-118.229,-79.933,-83.279,193.119,-135.258,-188.078
1.8577359999999317,-21.276,-108.255,-207.462,-116.229,-248.255,-4.502,-88.643,-88.757,-47.689,-67.477,-77.91,-88.197,-52.12,-68.31,-16.558,-120.194,-65.617,-113.91,-66.309,-30.547,-54.61,-69.681,-94.975,-114.525,-75.755,-84.22,197.536,-132.562,-186.865
1.8577964000000975,-29.451,-114.807,-210.329,-120.211,-257.74,-13.719,-104.949,-95.84,-59.424,-78.168,-87.566,-97.842,-56.167,-76.439,-22.689,-131.856,-77.335,-124.555,-76.489,-39.226,-63.777,-79.346,-109.225,-126.193,-84.901,-90.284,193.24,-141.138,-191.289
1.872896899999887,-19.688,-108.032,-203.458,-111.381,-244.163,-6.533,-124.824,-92.67,-53.217,-68.868,-77.232,-92.109,-50.987,-69.19,-16.518,-123.015,-69.573,-113.672,-67.703,-33.039,-56.541,-69.532,-103.992,-120.944,-79.18,-81.484,198.683,-131.263,-178.29
1.8729616999999052,-5.324,-95.629,-191.984,-101.024,-224.963,3.208,-114.965,-83.869,-47.528,-59.065,-65.372,-77.16,-42.227,-58.362,-6.768,-107.011,-55.671,-108.435,-56.877,-25.321,-45.214,-59.729,-91.593,-109.04,-67.318,-70.644,207.705,-116.787,-164.28
1.8877856999997675,-5.831,-88.873,-192.304,-99.898,-227.812,6.278,-105.628,-85.834,-55.678,-61.568,-68.381,-77.083,-42.697,-60.353,-5.224,-109.465,-60.738,-118.061,-64.505,-28.882,-46.706,-64.28,-97.137,-117.128,-74.935,-73.648,206.473,-120.257,-164.628
1.8878423000001021,-4.288,-85.711,-186.477,-95.7,-228.609,6.272,-119.355,-89.334,-54.597,-57.408,-62.677,-77.518,-44.192,-62.342,-3.17,-106.794,-60.165,-115.381,-61.879,-25.267,-45.122,-60.63,-96.527,-119.572,-81.008,-74.086,206.779,-120.137,-159.852
1.9029136999997718,6.987,-84.6,-171.946,-94.58,-218.134,8.827,-127.945,-86.683,-45.321,-48.641,-51.856,-67.707,-39.024,-58.181,0.932,-94.392,-51.396,-109.118,-51.058,-18.07,-38.417,-52.372,-86.697,-108.182,-73.243,-66.84,214.769,-113.356,-152.008
1.9029838000001291,6.98,-86.053,-172.286,-103.194,-222.527,10.355,-121.669,-87.621,-47.837,-52.691,-55.902,-66.102,-38.473,-57.098,-1.118,-95.835,-53.906,-110.546,-56.642,-21.638,-37.866,-53.344,-89.172,-108.586,-72.145,-64.724,216.091,-114.268,-156.979
1.9179155000001629,4.411,-85.454,-176.725,-101.042,-231.013,7.784,-119.498,-85.997,-49.839,-56.737,-57.896,-67.573,-42.533,-51.918,1.957,-97.788,-52.315,-101.726,-55.049,-18.03,-34.242,-48.68,-85.497,-106.941,-68.486,-62.61,218.437,-106.469,-153.236
1.9179782999999588,14.141,-78.196,-166.814,-87.621,-223.098,6.239,-126.039,-76.177,-43.641,-52.582,-50.153,-60.846,-39.929,-48.28,10.664,-87.956,-42.529,-91.378,-42.698,-10.84,-29.597,-41.972,-70.042,-94.026,-57.147,-52.813,230.001,-90.481,-137.713
1.9329838999997264,14.639,-74.532,-163.573,-88.046,-219.801,8.282,-132.573,-79.175,-46.159,-56.115,-54.201,-66.42,-40.914,-57.966,7.579,-92.479,-48.634,-98.971,-49.828,-18.513,-36.227,-49.102,-75.095,-97.006,-59.139,-53.273,231.308,-92.952,-138.6
1.933050600000115,3.866,-77.531,-170.582,-94.105,-227.778,8.274,-128.854,-92.415,-51.748,-59.645,-61.832,-75.063,-45.483,-63.031,-0.113,-103.658,-56.782,-107.582,-60.537,-23.106,-41.827,-56.225,-86.291,-104.593,-60.617,-61.929,226.978,-102.08,-145.122
1.9479913999998644,6.936,-75.405,-165.801,-87.863,-227.038,9.802,-114.893,-87.2,-43.5,-49.852,-54.598,-66.791,-39.802,-52.209,2.961,-95.869,-46.479,-102.351,-52.792,-14.373,-35.125,-47.972,-76.47,-93.73,-47.749,-57.769,236.998,-96.343,-140.878
1.9480588000001262,19.224,-66.62,-160.512,-80.091,-225.274,17.989,-113.241,-70.207,-32.698,-44.679,-47.371,-58.527,-32.59,-47.034,9.618,-84.503,-38.748,-94.564,-43.517,-10.773,-28.43,-37.678,-65.123,-86.977,-43.09,-49.514,240.347,-89.074,-139.712
1.963286700000026,21.254,-65.529,-163.937,-83.597,-236.319,26.681,-123.886,-66.55,-34.202,-47.196,-47.836,-60.006,-34.607,-49.549,14.732,-83.906,-42.296,-92.933,-41.937,-8.713,-26.864,-37.128,-67.62,-90.476,-45.609,-52.538,234.983,-90.01,-142.647
1.9779650999998921,19.696,-70.074,-163.773,-87.612,-244.792,30.24,-121.713,-72.119,-37.754,-43.05,-46.251,-55.847,-35.597,-46.938,20.352,-81.773,-44.815,-98.987,-42.919,-3.581,-24.276,-38.628,-67.04,-86.799,-40.952,-51.973,246.531,-88.895,-134.819
1.9780224999999518,21.726,-66.418,-166.171,-88.549,-239.424,29.697,-120.055,-72.559,-36.179,-39.421,-43.643,-51.693,-33.512,-45.866,20.332,-79.129,-44.258,-105.036,-45.438,-7.676,-24.764,-37.052,-63.899,-86.2,-38.35,-45.774,258.068,-87.269,-129.049
1.9930417999999008,19.142,-67.888,-176.251,-95.633,-235.599,26.594,-135.304,-72.999,-35.631,-40.918,-45.136,-59.838,-35.528,-50.943,13.652,-85.198,-45.751,-105.956,-48.467,-15.865,-32.424,-41.626,-74.081,-94.823,-43.947,-51.363,248.588,-92.817,-135.58
1.9946500999999444,9.902,-82.677,-183.247,-108.857,-246.122,18.37,-140.804,-82.66,-40.718,-47.537,-52.776,-66.951,-40.615,-52.941,9.027,-92.285,-49.291,-108.923,-52.004,-18.411,-39.051,-51.83,-86.302,-102.925,-53.124,-60.533,238.606,-105.02,-145.178
2.0079925000000003,3.744,-90.792,-186.138,-111.822,-252.536,8.106,-141.688,-93.336,-44.776,-57.224,-59.895,-65.859,-42.112,-48.79,5.944,-92.193,-48.729,-109.327,-54.001,-18.905,-37.475,-53.828,-83.654,-106.921,-60.756,-60.985,238.88,-115.673,-149.132
2.008057600000029,6.814,-86.09,-182.878,-102.489,-236.402,9.635,-150.768,-90.168,-39.608,-51.531,-55.737,-61.695,-36.947,-43.618,5.938,-85.441,-39.459,-97.947,-48.312,-13.763,-34.364,-46.089,-76.399,-104.252,-60.183,-58.875,239.153,-114.021,-146.421
2.0231613000000834,4.246,-86.516,-173.986,-99.825,-222.333,17.31,-142.932,-83.931,-37.519,-43.795,-51.583,-62.658,-34.348,-43.062,5.42,-83.818,-36.858,-95.8,-46.727,-12.212,-39.965,-49.117,-81.958,-104.148,-59.61,-61.89,235.328,-110.321,-142.688
2.0232225999998263,-9.078,-95.139,-177.91,-107.409,-233.381,11.145,-132.543,-87.945,-48.24,-59.633,-62.29,-69.767,-43.535,-50.192,-0.733,-93.981,-48.092,-111.585,-56.926,-22.446,-49.147,-60.339,-91.097,-116.339,-67.748,-69.513,226.383,-119.432,-148.181
2.0380457999999635,-11.631,-100.167,-186.954,-107.814,-242.882,2.937,-150.341,-91.956,-52.803,-67.77,-65.814,-71.747,-49.639,-57.826,-1.757,-96.96,-52.142,-115.572,-57.894,-21.911,-49.61,-61.303,-88.444,-118.272,-66.143,-71.492,226.157,-125.46,-153.668
2.038120499999877,-4.447,-96.993,-181.132,-102.071,-237.003,10.618,-158.388,-92.376,-45.578,-54.382,-56.014,-66.552,-45.491,-56.231,4.905,-86.105,-46.967,-107.26,-47.59,-11.131,-42.9,-53.557,-78.11,-102.272,-52.757,-63.224,238.226,-117.65,-147.879
2.0530754000001252,-7.516,-92.797,-175.315,-102.994,-241.89,14.194,-141.836,-99.456,-46.557,-56.889,-59.544,-66.998,-46.983,-56.175,5.412,-86.531,-50.506,-111.763,-49.592,-15.731,-43.882,-52.479,-75.983,-97.559,-50.143,-60.599,242.086,-111.385,-141.071
2.0548954999999296,-7.509,-89.118,-180.263,-101.866,-252.406,9.569,-144.255,-97.82,-51.121,-65.542,-63.583,-68.468,-50.01,-60.73,3.358,-93.105,-56.091,-119.336,-54.665,-19.301,-44.35,-51.914,-75.907,-98.999,-50.605,-62.588,242.869,-105.638,-137.856
2.06813719999991,5.819,-79.296,-177.521,-91.006,-248.568,17.756,-155.382,-81.328,-43.385,-51.644,-48.15,-57.128,-40.738,-57.083,12.063,-82.253,-51.424,-109.483,-46.413,-8.011,-34.06,-43.665,-67.634,-84.555,-39.796,-50.742,260.044,-95.286,-131.571
2.0682080999999926,9.911,-73.069,-175.807,-86.304,-246.782,26.448,-143.956,-79.71,-37.194,-44.932,-41.442,-50.923,-33.013,-50.366,18.711,-71.412,-44.713,-98.103,-39.195,-5.441,-29.927,-39.011,-65.517,-81.909,-37.707,-43.007,269.518,-94.679,-131.952
2.0832126000000244,-0.345,-80.68,-189.975,-93.902,-255.757,19.761,-135.615,-91.413,-43.305,-54.109,-50.622,-59.069,-37.078,-47.754,12.545,-79.026,-38.008,-98.005,-44.791,-13.633,-39.631,-47.169,-75.697,-98.221,-54.063,-54.235,260.539,-106.879,-145.14
2.083273299999746,-5.98,-87.259,-202.593,-105.079,-258.063,13.082,-149.824,-90.809,-47.872,-53.03,-54.158,-60.035,-40.115,-40.534,4.848,-84.582,-31.823,-98.931,-48.332,-14.644,-45.739,-55.319,-81.257,-103.246,-64.767,-62.89,256.693,-117.019,-153.191
2.099199299999782,-5.461,-88.197,-204.44,-108.56,-254.218,11.019,-160.945,-87.132,-44.75,-50.416,-54.104,-55.877,-38.538,-34.858,5.868,-80.399,-31.791,-92.684,-45.722,-11.555,-43.132,-54.751,-79.127,-100.581,-62.653,-62.314,251.825,-122.025,-153.038
2.0992621000000327,-2.382,-89.645,-203.723,-102.816,-248.329,9.471,-157.71,-94.73,-40.607,-51.902,-52.0,-57.87,-37.475,-38.921,10.473,-78.782,-32.784,-89.006,-45.164,-10.519,-41.04,-53.672,-79.56,-104.579,-61.566,-63.789,230.057,-118.829,-154.422
2.113146300000153,2.231,-85.457,-200.445,-100.152,-242.445,14.585,-150.892,-97.197,-40.567,-48.264,-45.288,-55.763,-36.413,-41.956,11.487,-75.629,-32.751,-97.626,-45.631,-9.996,-37.412,-52.081,-80.505,-100.888,-61.504,-60.139,210.871,-110.513,-151.194
2.1148220000000038,-0.333,-82.81,-197.683,-108.249,-245.276,16.107,-147.668,-93.001,-49.235,-51.802,-49.341,-55.195,-39.962,-41.402,8.401,-76.066,-38.866,-107.262,-47.635,-12.036,-35.838,-50.492,-80.424,-94.64,-59.394,-53.419,205.025,-112.452,-145.92
2.128300400000171,-9.042,-91.949,-201.584,-114.288,-251.691,6.357,-149.057,-93.42,-54.309,-58.41,-59.026,-63.849,-47.607,-47.508,6.344,-85.723,-45.487,-110.229,-51.174,-13.56,-40.413,-55.565,-82.393,-99.668,-60.871,-55.927,202.258,-123.098,-150.897
2.1432851999998093,-13.131,-98.005,-202.92,-113.149,-243.755,6.351,-149.42,-91.79,-44.009,-50.155,-54.868,-62.248,-46.535,-54.633,7.874,-86.15,-45.441,-114.729,-52.147,-15.084,-43.959,-59.607,-82.823,-101.618,-63.884,-58.945,198.982,-126.049,-154.332
2.1433514000000287,-12.606,-94.833,-202.204,-113.036,-234.802,13.005,-147.221,-87.087,-36.792,-43.957,-48.666,-57.575,-41.878,-57.14,7.354,-78.379,-46.421,-119.225,-51.583,-19.679,-43.915,-58.523,-82.74,-97.93,-63.82,-59.398,195.197,-125.922,-153.153
2.1582241000000977,-16.179,-101.398,-206.613,-117.021,-239.69,9.405,-150.148,-87.0,-42.903,-50.573,-55.277,-63.665,-43.885,-58.107,1.199,-83.936,-48.423,-116.545,-55.117,-20.172,-46.945,-64.1,-88.293,-101.418,-63.244,-64.974,196.026,-132.457,-161.709
2.1582840000000942,-21.286,-109.494,-211.529,-121.003,-243.549,6.322,-155.633,-86.401,-43.885,-49.498,-58.808,-63.089,-42.816,-54.975,0.173,-90.0,-44.789,-112.842,-55.062,-18.103,-45.873,-68.647,-89.229,-104.39,-62.669,-69.52,198.392,-138.984,-168.207
2.1732271999999284,-22.802,-105.798,-211.318,-120.882,-237.67,9.902,-151.379,-84.778,-39.743,-47.911,-54.138,-58.415,-37.651,-48.261,5.808,-81.713,-40.646,-111.192,-51.421,-18.597,-44.803,-63.455,-82.992,-103.774,-64.143,-68.938,194.095,-140.382,-164.453
2.1732848999999987,-26.365,-108.254,-214.693,-123.323,-238.457,4.257,-147.129,-92.89,-45.338,-57.597,-58.695,-66.041,-41.199,-48.212,0.68,-82.656,-41.117,-109.032,-53.419,-20.115,-51.93,-67.49,-83.934,-108.281,-68.177,-72.968,186.216,-143.315,-169.924
2.1882786999999553,-30.949,-114.293,-222.675,-129.347,-240.78,-1.895,-157.228,-101.506,-46.83,-60.614,-67.858,-72.635,-45.769,-50.726,-9.567,-93.844,-44.15,-111.484,-59.513,-24.706,-57.001,-77.669,-91.535,-110.222,-71.183,-75.456,186.03,-146.246,-178.463
2.188343100000111,-24.771,-103.933,-219.378,-119.996,-222.608,3.742,-164.756,-92.183,-38.074,-51.331,-60.618,-68.464,-40.087,-48.113,-4.947,-90.676,-43.081,-113.422,-59.966,-28.267,-55.407,-71.956,-89.394,-102.427,-65.988,-69.233,190.455,-137.903,-169.063
2.2032952999998088,-18.086,-92.046,-201.741,-103.482,-201.381,5.787,-149.734,-79.283,-40.085,-52.305,-55.434,-66.859,-39.535,-46.528,-1.868,-85.975,-40.989,-111.772,-57.857,-26.702,-56.377,-67.273,-84.694,-95.664,-58.75,-66.602,189.24,-124.957,-154.55
2.2033541999999215,-23.703,-92.978,-193.854,-105.94,-210.914,-1.391,-137.289,-87.401,-51.316,-61.474,-67.674,-72.94,-47.692,-52.629,-12.625,-97.16,-45.559,-118.32,-60.873,-28.212,-57.857,-76.939,-87.683,-96.081,-61.765,-69.097,189.051,-125.857,-152.858
2.218717100000049,-23.68,-89.812,-201.857,-109.42,-229.146,-1.389,-153.546,-98.584,-53.826,-59.363,-69.656,-76.965,-50.719,-58.724,-12.1,-101.673,-51.661,-128.96,-63.885,-31.258,-56.775,-77.375,-90.669,-97.522,-67.339,-65.954,210.891,-129.83,-154.242
2.218782200000078,-14.947,-79.988,-203.192,-102.651,-220.208,6.809,-166.712,-97.973,-53.26,-55.205,-60.364,-73.302,-49.131,-62.252,-2.354,-92.862,-55.708,-130.368,-60.748,-28.153,-57.23,-68.588,-86.992,-94.351,-62.661,-61.278,243.468,-120.478,-151.014
2.233310000000074,-18.006,-80.42,-196.841,-104.598,-206.667,6.29,-153.225,-93.777,-56.28,-59.249,-63.378,-71.692,-49.594,-65.776,-6.45,-90.208,-58.213,-130.237,-59.662,-27.1,-57.685,-68.007,-86.393,-91.695,-56.963,-60.192,253.47,-115.747,-149.839
2.233368000000155,-21.061,-81.877,-196.645,-105.005,-209.534,3.21,-152.047,-82.925,-51.101,-56.116,-62.802,-73.157,-46.471,-64.173,-8.493,-90.118,-56.618,-130.62,-59.09,-27.585,-57.115,-67.427,-86.307,-91.603,-60.492,-57.57,239.897,-122.803,-153.275
2.248458000000028,-16.43,-75.647,-195.936,-94.142,-208.813,7.817,-167.777,-72.083,-44.902,-45.813,-51.981,-65.912,-41.813,-57.449,-0.287,-83.368,-51.951,-123.317,-54.421,-20.385,-56.546,-63.261,-81.097,-90.999,-61.456,-55.976,234.534,-124.218,-153.634
2.2485234000000673,-25.635,-84.793,-196.764,-101.22,-214.752,3.711,-156.851,-89.43,-52.03,-54.477,-61.151,-64.309,-46.382,-57.392,-5.922,-87.895,-50.874,-116.533,-57.44,-21.902,-62.637,-71.395,-83.065,-96.543,-62.932,-64.117,229.689,-127.68,-158.091
2.2634099000001697,-44.564,-108.787,-212.961,-128.271,-240.152,-14.223,-141.837,-111.369,-64.785,-72.353,-81.069,-81.663,-55.558,-63.994,-20.773,-104.201,-56.971,-122.052,-70.19,-34.688,-77.431,-86.693,-97.327,-110.792,-77.213,-78.909,209.991,-147.02,-177.913
2.2634721999997964,-51.18,-119.436,-232.216,-140.438,-253.232,-18.82,-161.675,-104.086,-68.307,-74.33,-84.574,-96.951,-60.113,-67.004,-23.314,-114.343,-67.16,-130.127,-77.292,-41.313,-90.162,-94.803,-107.476,-119.902,-88.919,-87.54,200.56,-162.754,-194.129
2.278401799999756,-53.178,-114.194,-234.545,-134.662,-249.905,-8.043,-169.71,-98.859,-66.189,-73.231,-86.027,-97.366,-63.639,-66.425,-23.291,-119.864,-70.679,-130.509,-80.289,-42.296,-91.096,-98.807,-108.905,-119.782,-86.781,-87.452,207.019,-162.079,-193.422
2.27845810000008,-57.735,-115.617,-228.676,-132.478,-258.364,-9.571,-149.561,-113.617,-67.147,-78.793,-92.601,-97.781,-66.649,-67.895,-24.805,-124.867,-65.998,-130.379,-82.77,-46.353,-89.468,-101.782,-110.845,-121.2,-86.694,-87.877,203.738,-163.966,-190.667
2.293393699999797,-58.702,-121.649,-226.398,-136.957,-261.692,-19.296,-149.411,-111.966,-69.13,-77.69,-91.996,-100.245,-65.558,-71.926,-22.218,-124.742,-70.03,-136.396,-81.663,-45.282,-93.477,-101.167,-111.247,-123.128,-91.218,-88.814,195.85,-171.487,-194.575
2.293450799999846,-55.058,-117.941,-223.097,-132.721,-245.037,-15.178,-162.069,-96.485,-65.987,-71.464,-86.781,-98.607,-63.955,-76.465,-21.171,-119.495,-79.182,-142.407,-77.483,-39.601,-91.334,-96.456,-108.062,-116.344,-88.565,-83.602,202.314,-164.655,-191.307
2.3084945999999036,-46.806,-108.089,-214.165,-118.756,-233.521,-6.454,-156.272,-97.925,-63.871,-69.344,-80.546,-92.361,-62.867,-78.437,-19.101,-111.69,-75.516,-140.728,-72.282,-37.512,-82.534,-90.211,-103.343,-108.031,-82.329,-77.883,211.846,-150.146,-178.82
2.3085603999998057,-42.66,-108.493,-208.315,-119.662,-234.312,-7.472,-156.116,-103.463,-68.931,-65.176,-73.293,-85.609,-60.242,-77.334,-13.959,-104.919,-69.293,-137.513,-71.698,-39.012,-80.914,-90.633,-100.678,-106.898,-82.247,-76.78,213.171,-150.508,-175.055
2.323474400000123,-47.228,-114.532,-209.644,-132.35,-234.077,-9.001,-161.595,-98.236,-68.349,-62.037,-72.196,-82.449,-58.133,-77.257,-14.457,-104.814,-71.786,-133.277,-72.138,-38.46,-84.932,-93.617,-103.651,-109.865,-86.263,-74.654,213.47,-157.53,-181.028
2.3235380000000987,-42.57,-107.758,-202.774,-122.996,-227.696,-2.332,-153.749,-94.04,-57.522,-59.413,-67.513,-77.244,-53.464,-71.544,-10.857,-100.098,-65.054,-123.41,-65.406,-30.737,-80.748,-88.4,-101.498,-106.169,-82.591,-71.506,219.916,-152.762,-174.187
2.338832800000091,-30.232,-96.892,-187.715,-101.869,-216.71,7.404,-158.718,-90.872,-52.342,-50.132,-56.687,-66.408,-44.701,-56.616,1.45,-85.141,-49.619,-111.504,-59.193,-24.559,-72.471,-80.627,-88.077,-94.792,-69.188,-67.848,231.479,-140.826,-153.008
2.35345899999993,-31.739,-98.844,-185.478,-107.915,-215.468,6.884,-170.855,-91.805,-55.876,-47.008,-58.167,-64.805,-42.095,-50.412,-2.138,-81.982,-46.496,-107.294,-61.695,-28.633,-75.984,-82.083,-83.89,-90.599,-62.971,-65.219,235.859,-136.074,-147.732
2.3535139000000527,-40.417,-103.868,-195.026,-122.151,-229.597,-8.492,-161.462,-106.058,-61.455,-58.744,-68.355,-74.986,-50.25,-56.509,-15.456,-92.659,-51.06,-107.699,-61.121,-31.165,-85.13,-86.612,-90.466,-95.632,-65.47,-68.74,228.451,-140.037,-156.293
2.3535564999997405,-40.889,-103.252,-201.491,-117.931,-238.589,-14.631,-156.178,-112.612,-67.029,-64.833,-69.311,-79.01,-56.347,-57.477,-12.366,-95.128,-53.058,-105.542,-58.499,-28.573,-85.557,-88.062,-90.376,-98.098,-64.892,-73.282,228.734,-148.094,-161.26
2.368574300000091,-41.36,-107.247,-210.511,-116.788,-249.621,-0.272,-169.854,-104.303,-62.864,-57.084,-67.193,-76.881,-54.754,-54.858,-3.645,-95.032,-55.567,-105.436,-63.563,-32.643,-84.447,-94.122,-93.872,-103.123,-70.975,-72.696,240.289,-156.655,-171.345
2.3836952999999994,-47.979,-117.386,-224.133,-134.09,-281.647,7.413,-175.832,-104.198,-55.116,-57.027,-71.736,-80.391,-53.675,-61.463,-5.178,-104.671,-59.097,-110.966,-69.647,-36.196,-89.998,-104.786,-105.049,-114.803,-87.81,-78.771,241.073,-166.744,-186.031
2.3837602999997216,-51.517,-122.392,-231.593,-145.739,-313.641,1.258,-178.217,-109.217,-61.721,-65.167,-76.275,-87.995,-58.232,-67.549,-5.685,-112.251,-63.137,-113.929,-73.676,-35.135,-91.445,-110.317,-107.505,-119.811,-96.944,-89.963,236.734,-172.725,-191.48
2.398604200000136,-49.928,-120.733,-233.923,-142.519,-324.086,2.794,-177.527,-107.059,-69.344,-63.565,-75.687,-89.956,-60.223,-71.068,-0.556,-112.651,-68.709,-117.914,-75.652,-38.174,-88.792,-112.768,-110.471,-120.203,-96.847,-90.386,244.181,-171.528,-193.338
2.3986611999998786,-44.755,-119.587,-234.714,-137.254,-322.225,10.475,-161.98,-108.489,-63.639,-57.353,-69.976,-84.743,-56.064,-75.095,3.543,-108.44,-72.739,-123.944,-72.502,-36.599,-88.703,-113.168,-115.996,-122.645,-96.75,-85.684,250.085,-171.869,-194.681
2.413544500000171,-38.563,-118.955,-231.406,-134.555,-323.952,17.125,-154.646,-109.917,-58.965,-53.197,-59.147,-76.974,-50.373,-70.922,9.687,-98.598,-71.129,-119.209,-65.77,-24.267,-84.004,-105.37,-105.634,-115.35,-92.555,-85.086,252.909,-174.771,-190.9
2.4136067999997977,-34.938,-114.226,-225.539,-132.371,-324.652,23.256,-165.25,-104.172,-57.369,-46.997,-54.989,-73.823,-46.224,-61.117,16.849,-90.815,-66.447,-108.843,-63.142,-20.144,-78.797,-100.141,-98.356,-108.062,-87.339,-79.878,263.414,-170.497,-190.197
2.4285688999998456,-37.977,-113.599,-224.289,-128.652,-329.963,21.183,-166.621,-105.605,-54.75,-48.486,-63.644,-78.36,-48.739,-63.105,16.32,-95.335,-68.43,-112.833,-65.641,-27.296,-83.841,-107.214,-110.041,-115.126,-89.813,-76.212,267.249,-170.327,-193.593
2.4304274000000987,-44.599,-119.121,-231.237,-128.011,-335.781,11.428,-164.405,-109.085,-58.281,-59.709,-72.802,-85.966,-55.863,-70.214,10.668,-105.998,-76.559,-121.429,-72.235,-31.368,-91.954,-116.84,-114.542,-121.671,-90.748,-85.358,254.687,-179.378,-196.473
2.44366140000011,-48.141,-119.002,-234.592,-129.42,-328.785,8.343,-173.975,-101.804,-60.272,-60.674,-73.753,-86.905,-56.831,-70.144,7.584,-107.941,-75.97,-118.747,-72.163,-31.336,-89.813,-116.211,-104.181,-115.914,-83.997,-87.321,249.309,-176.637,-195.765
2.443723200000022,-46.043,-113.76,-223.598,-129.803,-323.333,9.359,-172.776,-102.726,-55.601,-56.002,-71.63,-83.744,-52.164,-69.049,10.138,-102.71,-70.258,-114.529,-64.406,-28.743,-84.6,-109.435,-95.88,-104.527,-73.667,-74.426,258.793,-164.165,-184.81
2.458691899999849,-45.485,-113.134,-214.666,-131.723,-330.695,3.714,-164.407,-117.993,-60.156,-61.582,-75.145,-87.759,-55.698,-70.517,10.64,-105.169,-73.774,-113.39,-62.805,-29.227,-87.589,-108.301,-91.173,-95.714,-63.347,-70.766,260.072,-160.415,-173.355
2.4587510000001203,-51.075,-115.582,-220.086,-135.177,-332.925,-4.486,-171.927,-123.51,-69.83,-70.742,-84.291,-98.942,-66.913,-71.984,2.432,-116.334,-80.36,-110.715,-69.914,-37.907,-94.162,-115.365,-89.545,-97.155,-60.21,-77.355,248.541,-163.328,-179.329
2.4730799999997544,-54.61,-117.516,-224.477,-136.579,-329.519,-8.58,-171.755,-119.288,-72.322,-75.282,-91.892,-106.527,-71.457,-79.084,-6.791,-124.415,-82.329,-114.703,-74.967,-41.967,-99.19,-123.959,-95.091,-104.742,-67.835,-77.79,243.169,-165.726,-186.835
2.4731384000001526,-49.944,-116.374,-218.105,-134.393,-329.701,-3.449,-153.652,-119.169,-72.25,-74.694,-87.701,-103.859,-65.238,-82.079,-1.662,-120.704,-84.296,-120.736,-73.356,-34.241,-97.554,-123.322,-97.045,-103.101,-70.841,-76.688,249.074,-164.536,-177.938
2.487662300000011,-41.698,-106.523,-207.128,-122.476,-321.687,10.387,-160.159,-108.804,-62.443,-61.299,-71.22,-90.435,-52.877,-74.824,12.172,-106.751,-81.65,-117.029,-66.622,-28.059,-86.698,-115.002,-91.313,-94.801,-64.622,-74.562,258.558,-155.15,-166.49
2.4893622999998115,-38.07,-98.732,-202.823,-111.082,-311.632,18.061,-186.126,-95.887,-49.061,-49.455,-60.902,-79.074,-46.676,-72.188,16.771,-95.374,-80.032,-113.838,-66.043,-27.006,-83.538,-114.887,-93.783,-100.854,-66.607,-71.413,261.374,-152.433,-166.836
2.502788100000089,-45.716,-106.318,-213.378,-119.681,-317.98,10.871,-177.743,-109.111,-60.283,-59.139,-71.088,-84.631,-53.29,-78.263,8.557,-103.475,-89.686,-122.434,-77.76,-31.59,-96.262,-128.605,-107.009,-114.073,-80.885,-80.051,252.403,-164.064,-174.866
2.502849900000001,-54.892,-112.359,-219.825,-127.758,-321.76,0.102,-153.487,-124.884,-75.592,-71.376,-82.8,-95.304,-60.409,-81.259,1.376,-115.667,-91.133,-129.996,-84.855,-38.218,-104.363,-137.697,-116.636,-117.032,-89.001,-88.68,243.441,-167.486,-179.814
2.517815899999732,-51.251,-104.562,-206.797,-115.335,-306.582,-1.435,-159.481,-112.464,-63.221,-66.181,-77.594,-93.16,-56.25,-79.641,2.4,-114.015,-78.746,-125.767,-79.135,-38.18,-103.746,-136.023,-116.007,-114.866,-86.35,-82.956,244.735,-160.146,-172.974
2.532780200000161,-47.101,-100.359,-199.418,-113.17,-290.906,3.689,-174.691,-103.642,-53.424,-58.943,-73.418,-87.431,-49.534,-76.487,4.959,-109.29,-73.545,-122.568,-76.494,-37.117,-105.691,-135.887,-113.842,-117.313,-84.215,-80.312,245.003,-158.961,-166.653
2.532836899999893,-51.153,-103.845,-209.465,-127.401,-287.541,4.71,-165.807,-109.686,-64.641,-59.396,-75.394,-88.881,-48.459,-74.362,4.442,-107.131,-70.397,-126.031,-77.442,-37.08,-103.536,-138.312,-111.679,-115.146,-77.983,-85.354,242.196,-158.29,-169.561
2.5328793999997288,-47.003,-99.643,-210.28,-121.639,-281.106,3.168,-154.37,-100.355,-60.99,-58.312,-69.17,-86.23,-45.849,-73.775,4.949,-101.389,-60.593,-124.368,-68.655,-30.896,-96.773,-131.002,-103.37,-101.199,-65.097,-77.072,246.052,-147.886,-167.342
2.5477703000001384,-37.735,-90.322,-197.262,-100.512,-266.48,6.239,-159.851,-85.91,-42.998,-54.155,-61.929,-77.947,-41.705,-68.066,8.018,-95.652,-58.483,-111.949,-56.291,-25.742,-94.115,-119.6,-89.435,-86.241,-53.249,-65.212,251.954,-135.442,-157.441
2.562868999999864,-41.795,-88.182,-191.43,-96.313,-255.455,6.745,-156.618,-90.435,-45.517,-54.101,-66.478,-77.869,-42.688,-63.387,8.523,-94.532,-67.646,-100.566,-54.186,-26.74,-94.02,-116.919,-83.71,-83.081,-47.048,-66.171,249.14,-129.159,-154.209
2.5629315999999562,-48.926,-93.729,-194.824,-111.074,-260.835,3.152,-131.358,-99.053,-56.23,-63.781,-76.145,-87.013,-48.281,-68.447,4.928,-98.536,-75.775,-98.928,-56.181,-26.201,-98.537,-119.364,-86.188,-87.608,-45.976,-68.667,245.305,-131.079,-158.666
2.5779186999998274,-47.34,-101.833,-197.191,-121.209,-278.505,8.272,-121.493,-98.442,-54.124,-66.791,-77.606,-89.487,-50.282,-69.403,6.972,-103.048,-78.773,-100.879,-53.563,-24.126,-103.049,-117.707,-85.589,-89.058,-46.955,-67.061,249.158,-134.022,-160.044
2.577984000000015,-46.78,-100.194,-199.555,-108.793,-286.424,19.535,-136.228,-92.708,-43.312,-49.818,-68.819,-82.226,-43.059,-65.235,13.625,-97.822,-78.695,-100.265,-53.51,-22.053,-99.873,-114.516,-82.942,-84.87,-46.396,-66.482,254.032,-128.253,-159.884
2.593955199999982,-46.734,-93.946,-204.479,-96.388,-272.305,22.589,-142.24,-83.394,-35.072,-37.985,-60.553,-74.971,-35.331,-69.78,12.587,-91.064,-79.128,-98.628,-54.993,-18.957,-100.797,-117.475,-86.445,-84.785,-47.374,-66.928,249.167,-123.001,-162.286
2.5940136999997776,-44.125,-98.463,-204.274,-111.149,-252.565,20.517,-133.388,-76.138,-35.037,-43.07,-62.03,-71.822,-35.296,-65.1,9.501,-91.485,-77.512,-92.894,-48.278,-18.425,-105.82,-117.87,-89.433,-88.287,-51.425,-68.91,243.795,-124.415,-165.197
2.6079679999998007,-40.495,-104.0,-198.435,-120.259,-247.702,22.034,-132.23,-72.476,-36.538,-38.416,-59.918,-68.677,-33.212,-51.715,15.126,-86.271,-70.775,-85.117,-42.082,-14.309,-99.054,-115.19,-89.343,-87.686,-50.349,-69.353,252.261,-122.754,-167.081
2.608035299999756,-34.307,-98.773,-199.773,-105.282,-250.528,22.012,-135.172,-75.477,-33.428,-33.255,-53.711,-67.071,-30.617,-56.274,18.185,-79.525,-70.192,-82.47,-44.601,-8.659,-96.905,-118.149,-92.84,-89.648,-51.323,-68.772,259.181,-118.021,-168.963
2.6233517999999094,-28.637,-94.063,-205.721,-107.738,-247.203,20.965,-131.451,-85.136,-34.932,-41.931,-54.682,-67.004,-32.123,-62.878,15.605,-83.031,-75.757,-82.388,-41.483,-8.65,-105.518,-117.519,-91.722,-93.656,-56.907,-66.654,255.848,-113.804,-168.282
2.623412500000086,-29.633,-90.895,-198.855,-117.365,-239.784,28.116,-130.295,-81.977,-36.946,-38.303,-52.578,-62.839,-24.919,-52.569,21.738,-81.924,-69.533,-74.621,-32.732,-7.105,-102.338,-108.18,-80.872,-84.854,-52.752,-61.976,260.715,-107.543,-160.942
2.6379572999999255,-30.628,-85.169,-189.947,-101.878,-242.106,34.236,-132.726,-69.087,-29.224,-31.092,-49.964,-62.263,-19.258,-54.053,26.327,-78.768,-65.365,-70.96,-36.286,-3.511,-99.675,-108.584,-78.742,-78.621,-47.576,-60.377,268.651,-104.361,-156.682
2.638021799999933,-31.622,-88.67,-196.417,-98.19,-253.647,27.542,-131.568,-78.752,-29.707,-44.893,-61.185,-73.984,-33.071,-68.856,15.542,-91.497,-83.743,-81.647,-47.52,-11.192,-114.432,-122.307,-87.885,-89.301,-56.75,-68.514,263.259,-108.868,-162.161
2.6529915999999503,-33.127,-89.606,-197.758,-110.387,-249.807,22.903,-127.338,-94.042,-38.387,-50.996,-66.246,-78.009,-39.698,-68.275,10.915,-97.553,-92.881,-86.177,-47.985,-16.304,-118.928,-123.722,-89.846,-90.236,-62.841,-69.47,258.385,-106.197,-161.486
2.6530548999999155,-23.873,-73.122,-183.728,-91.321,-227.015,32.102,-123.113,-76.017,-30.152,-36.6,-49.786,-63.074,-26.851,-58.985,26.274,-79.525,-78.956,-75.844,-39.228,-3.48,-108.563,-110.791,-80.535,-75.801,-54.581,-57.105,267.861,-92.259,-148.517
2.6679372999997213,-10.017,-62.803,-176.884,-67.152,-213.468,42.828,-114.793,-56.474,-14.752,-28.879,-37.441,-51.74,-20.676,-56.364,37.518,-64.588,-73.754,-67.059,-32.016,5.745,-106.405,-101.971,-72.77,-72.139,-47.354,-48.339,277.327,-81.408,-142.733
2.667998500000067,-11.031,-66.839,-180.293,-79.892,-217.353,42.785,-109.555,-63.077,-14.225,-29.363,-40.99,-54.25,-23.73,-55.796,33.382,-66.573,-79.828,-65.967,-30.96,3.69,-108.348,-102.381,-73.722,-74.629,-48.332,-47.778,278.586,-80.814,-147.714
2.6830807000001187,-20.754,-70.87,-184.724,-100.304,-219.698,35.57,-115.593,-68.65,-22.408,-32.919,-47.609,-60.343,-27.292,-59.838,28.738,-72.142,-79.748,-67.438,-33.49,3.174,-110.289,-106.377,-78.771,-76.603,-54.943,-51.317,265.5,-88.93,-153.714
2.683147700000063,-20.733,-74.898,-189.15,-99.18,-213.842,28.875,-120.088,-67.044,-28.021,-37.497,-48.586,-60.795,-31.363,-65.414,29.222,-71.045,-81.717,-67.883,-32.432,2.146,-116.839,-108.832,-80.229,-81.137,-58.987,-56.388,239.107,-92.94,-157.658
2.698030099999869,-9.442,-72.774,-182.813,-87.81,-200.821,33.457,-115.869,-66.465,-21.845,-26.189,-35.217,-48.439,-23.135,-58.176,35.852,-60.215,-79.074,-61.155,-25.74,6.242,-111.599,-101.551,-71.44,-74.396,-49.706,-50.184,229.134,-82.601,-152.89
2.698099899999761,0.302,-58.356,-172.384,-76.451,-183.202,45.206,-116.266,-57.689,-11.065,-11.818,-20.325,-35.583,-8.255,-48.896,44.014,-49.397,-67.724,-52.385,-20.079,15.97,-102.778,-94.79,-62.147,-64.588,-41.972,-40.4,243.762,-70.735,-138.393
2.713362800000141,-3.797,-55.737,-177.335,-76.887,-177.895,46.186,-121.785,-56.607,-18.226,-17.954,-27.989,-41.695,-14.394,-53.458,40.896,-54.47,-69.193,-55.406,-27.231,10.831,-114.458,-100.842,-68.745,-74.257,-53.201,-47.02,246.592,-75.787,-137.742
2.7280015999999705,-11.478,-65.415,-185.867,-85.519,-185.914,36.918,-124.225,-69.358,-34.089,-28.182,-40.257,-52.924,-26.163,-58.016,32.658,-65.174,-79.37,-64.573,-38.474,-1.988,-128.176,-109.963,-81.483,-85.454,-66.467,-55.17,233.537,-82.884,-149.387
2.728060099999766,-8.393,-64.325,-184.144,-83.384,-188.29,33.807,-120.002,-68.776,-30.469,-26.617,-37.143,-51.846,-22.038,-53.347,31.601,-67.671,-78.266,-61.946,-36.387,2.625,-124.462,-109.341,-77.304,-80.758,-62.815,-49.479,234.841,-80.752,-149.238
2.743015000000014,-6.335,-64.26,-181.911,-80.227,-184.516,32.236,-109.124,-59.486,-21.729,-23.517,-36.593,-49.745,-18.43,-52.269,31.057,-64.529,-73.577,-53.175,-28.666,7.745,-124.337,-103.084,-68.517,-74.529,-51.994,-47.38,245.365,-82.72,-144.99
2.744824200000039,-16.575,-78.541,-182.241,-89.369,-189.966,25.544,-107.99,-63.525,-28.368,-23.493,-41.68,-53.794,-24.559,-57.34,28.464,-63.952,-75.041,-52.097,-32.735,-0.459,-130.873,-104.005,-72.547,-77.016,-52.966,-54.505,239.484,-92.884,-152.53
2.758051599999817,-26.292,-90.245,-188.719,-103.624,-203.096,22.957,-125.813,-73.707,-32.95,-28.081,-46.761,-60.4,-29.146,-60.356,25.874,-71.061,-80.089,-57.168,-41.924,-4.557,-137.402,-113.635,-79.647,-84.624,-59.061,-59.574,226.949,-102.525,-161.599
2.758112600000004,-29.34,-92.204,-195.702,-110.692,-211.09,24.983,-130.298,-80.806,-28.819,-36.249,-55.936,-64.951,-29.629,-61.32,22.262,-80.211,-83.082,-59.161,-42.907,-0.967,-143.412,-117.62,-79.567,-88.125,-57.465,-63.101,224.16,-104.471,-160.412
2.7731321999999636,-31.36,-89.038,-189.359,-107.508,-208.318,21.885,-111.212,-79.701,-30.327,-37.238,-57.929,-62.324,-30.624,-58.698,22.24,-77.569,-79.926,-54.491,-37.741,-1.99,-140.707,-110.33,-78.975,-82.402,-53.309,-61.501,229.059,-96.682,-154.104
2.7731983999997283,-31.841,-85.875,-178.411,-97.667,-208.109,19.301,-105.465,-71.936,-36.444,-34.127,-50.699,-58.676,-30.593,-54.54,26.828,-70.319,-76.259,-48.288,-35.142,-2.5,-134.419,-106.634,-76.335,-77.709,-53.768,-55.291,231.392,-89.413,-146.778
2.7880700000000616,-33.346,-85.789,-174.647,-93.983,-214.561,24.917,-117.143,-74.938,-36.408,-35.117,-51.673,-60.666,-31.587,-54.486,26.289,-71.274,-76.696,-46.191,-35.619,0.576,-137.871,-108.064,-73.697,-78.143,-51.665,-56.261,233.21,-89.836,-139.971
2.7881281999998464,-36.898,-86.728,-168.324,-96.963,-215.371,23.868,-122.661,-85.622,-34.834,-35.594,-55.72,-61.63,-34.117,-54.944,21.14,-71.715,-72.52,-46.657,-37.632,0.575,-142.344,-108.468,-76.697,-79.602,-50.076,-57.741,234.001,-88.722,-136.245
2.8030579000001126,-38.398,-89.715,-164.57,-96.866,-209.521,15.135,-126.125,-88.098,-39.923,-37.096,-53.615,-61.569,-37.157,-51.303,21.119,-71.131,-70.399,-48.147,-43.742,-4.548,-142.714,-113.995,-83.28,-85.67,-60.272,-58.708,232.23,-91.195,-138.67
2.8047691000001578,-40.409,-92.699,-172.602,-93.695,-208.286,14.607,-135.22,-90.059,-46.543,-41.157,-56.635,-65.093,-38.657,-54.325,22.122,-77.72,-80.062,-52.71,-48.309,-8.13,-147.694,-121.566,-89.345,-93.781,-71.483,-66.334,228.924,-101.35,-145.704
2.8181319999998777,-40.369,-86.459,-175.503,-92.064,-203.98,20.228,-138.159,-89.969,-45.984,-35.48,-56.066,-65.028,-36.056,-61.443,19.026,-78.667,-84.08,-56.243,-44.675,-6.073,-147.546,-118.37,-90.28,-89.077,-67.825,-66.78,228.695,-100.736,-147.608
2.8181939999999486,-32.132,-78.176,-167.643,-92.997,-188.406,23.282,-130.336,-81.169,-37.741,-26.736,-45.252,-55.741,-29.873,-57.795,20.032,-67.317,-73.75,-47.99,-38.483,0.081,-137.665,-109.543,-80.456,-79.254,-57.511,-54.418,230.003,-89.877,-143.361
2.833193200000096,-28.001,-81.171,-165.426,-95.465,-175.923,25.308,-120.472,-76.99,-30.531,-25.684,-40.596,-48.001,-25.744,-49.028,24.11,-59.565,-65.48,-35.647,-32.809,5.716,-133.429,-105.335,-71.666,-77.638,-53.868,-51.29,228.749,-88.25,-140.657
2.8332556999998815,-34.121,-88.262,-172.433,-97.419,-179.845,21.184,-116.253,-81.524,-31.013,-26.683,-45.166,-51.539,-26.231,-50.004,23.062,-59.506,-67.976,-36.636,-30.727,6.735,-135.857,-104.205,-75.181,-80.634,-57.912,-57.386,224.934,-94.309,-146.151
2.8486281000000417,-39.722,-92.785,-179.945,-97.834,-187.862,14.503,-113.575,-79.905,-31.494,-27.169,-47.17,-56.611,-26.205,-49.442,18.94,-61.495,-67.908,-41.21,-31.721,3.142,-135.721,-103.076,-78.179,-82.09,-61.441,-58.866,222.147,-100.363,-152.665
2.8486892999999327,-38.145,-92.18,-179.765,-97.736,-185.625,18.074,-102.703,-68.555,-20.192,-25.605,-44.049,-48.87,-20.031,-26.338,22.507,-56.311,-54.007,-32.972,-30.152,6.213,-132.511,-102.461,-71.953,-79.447,-57.793,-57.782,226.536,-100.775,-151.488
2.8631374999999935,-34.009,-87.477,-174.463,-96.614,-183.39,27.278,-95.428,-60.289,-9.925,-18.919,-39.906,-39.087,-13.863,-11.968,29.657,-48.57,-47.293,-27.303,-29.61,9.281,-130.842,-102.358,-69.32,-77.83,-53.124,-55.675,230.408,-94.526,-147.238
2.864881299999979,-35.512,-88.414,-176.85,-97.03,-186.793,24.177,-107.628,-66.376,-19.137,-23.511,-43.452,-47.757,-21.534,-42.182,27.066,-56.718,-66.714,-40.084,-36.752,-0.462,-135.322,-106.354,-74.886,-81.339,-57.17,-53.57,225.054,-92.382,-148.115
2.8782947999998214,-39.575,-91.912,-182.308,-101.543,-185.069,15.443,-122.89,-77.069,-33.975,-36.808,-53.143,-62.566,-35.345,-74.415,17.817,-71.518,-86.115,-52.339,-43.375,-9.683,-141.847,-115.469,-83.008,-86.893,-65.309,-60.177,221.243,-96.901,-151.041
2.8783643000001575,-38.51,-87.209,-177.515,-100.417,-175.15,13.891,-118.668,-78.528,-37.015,-35.234,-53.602,-62.504,-35.309,-63.07,14.213,-70.422,-79.881,-51.774,-45.894,-6.6,-143.242,-120.477,-89.073,-90.904,-72.929,-65.239,223.583,-92.705,-150.89
2.8933140999997704,-32.324,-78.925,-166.579,-85.972,-163.192,16.951,-104.717,-73.839,-34.416,-28.539,-44.839,-56.293,-28.102,-46.1,16.761,-62.155,-69.555,-49.161,-43.286,-3.007,-139.0,-113.184,-85.397,-89.789,-75.93,-59.027,222.848,-82.367,-144.591
2.9082150999997793,-21.533,-70.137,-151.043,-70.005,-154.32,25.643,-104.613,-61.982,-30.795,-23.387,-34.036,-50.602,-25.512,-51.177,25.965,-52.359,-67.948,-45.526,-30.435,3.656,-125.541,-98.726,-72.504,-79.453,-66.632,-47.697,231.334,-73.063,-129.59
2.9082720000001245,-10.241,-62.382,-139.622,-67.885,-155.19,35.351,-112.705,-53.211,-24.105,-13.63,-22.219,-37.743,-18.314,-48.565,37.722,-35.913,-63.27,-38.308,-20.159,16.972,-110.559,-88.894,-63.723,-71.176,-58.881,-39.964,249.546,-63.256,-117.677
2.92321660000016,-7.669,-65.906,-142.556,-74.478,-155.035,33.779,-104.395,-68.015,-21.519,-11.567,-19.635,-28.484,-11.636,-38.27,41.783,-27.168,-60.133,-34.684,-21.163,20.541,-108.399,-85.731,-63.147,-72.642,-63.945,-39.412,251.858,-61.143,-121.146
2.9232813999997234,-8.174,-68.401,-142.413,-69.792,-141.56,31.696,-90.971,-78.193,-22.522,-13.605,-20.128,-29.993,-14.186,-39.256,39.692,-29.19,-59.56,-35.673,-16.531,18.472,-108.29,-80.522,-58.473,-66.934,-61.32,-35.274,245.97,-63.644,-121.025
2.9383640999999443,-4.58,-58.599,-131.512,-54.866,-132.709,39.861,-104.2,-56.598,-13.278,-1.808,-11.911,-24.84,-11.098,-34.094,41.702,-23.525,-50.791,-27.441,-7.293,25.113,-101.522,-69.683,-47.656,-54.059,-43.328,-25.505,249.823,-55.895,-109.633
2.938426299999719,-7.137,-55.467,-129.332,-52.761,-137.699,37.772,-120.489,-50.393,-7.117,0.243,-11.386,-18.155,-4.427,-23.301,43.197,-16.842,-43.568,-16.655,-6.261,26.113,-102.957,-66.54,-41.973,-49.907,-34.063,-24.967,249.573,-49.692,-106.449
2.9534029999999802,-15.326,-63.096,-134.838,-65.516,-141.148,23.902,-105.512,-68.274,-18.893,-13.077,-23.67,-27.87,-11.594,-27.889,39.568,-24.509,-49.16,-22.786,-10.353,16.353,-111.051,-74.67,-45.517,-52.419,-37.615,-32.627,242.151,-57.327,-114.027
2.9534632999998394,-22.483,-67.644,-141.875,-75.697,-147.154,22.341,-93.623,-68.718,-27.071,-14.601,-29.794,-38.601,-20.804,-39.132,33.893,-35.756,-61.406,-40.694,-20.077,9.164,-115.039,-85.866,-52.644,-59.026,-43.213,-38.742,236.274,-69.053,-122.11
2.9687816000000566,-33.219,-74.748,-156.59,-82.281,-159.815,22.831,-105.313,-66.6,-26.019,-18.685,-36.937,-44.71,-20.784,-45.753,24.125,-48.528,-72.616,-50.899,-34.914,-0.067,-126.195,-98.076,-63.862,-71.262,-50.854,-50.486,218.107,-76.668,-130.697
2.9688482000001386,-44.969,-81.846,-164.118,-89.884,-165.291,12.05,-103.158,-78.829,-34.19,-34.035,-51.757,-59.522,-26.398,-52.367,12.318,-62.311,-77.666,-52.898,-42.563,-9.8,-139.901,-108.224,-73.019,-78.364,-58.488,-59.145,199.958,-81.715,-137.739
2.983350800000153,-45.436,-78.69,-161.393,-92.868,-169.736,7.427,-93.834,-79.262,-40.816,-35.026,-56.316,-68.172,-33.544,-57.438,8.719,-67.884,-79.638,-57.968,-45.595,-11.328,-141.298,-109.14,-75.508,-79.31,-62.015,-52.938,204.881,-82.657,-140.163
2.9834107000001495,-39.756,-76.562,-157.133,-86.627,-173.152,11.518,-102.961,-76.109,-37.701,-29.868,-52.673,-64.518,-29.924,-62.503,9.223,-69.353,-87.243,-63.545,-49.648,-10.292,-138.595,-107.494,-78.506,-84.354,-69.126,-54.422,210.824,-84.112,-138.486
2.998460299999806,-38.179,-75.461,-145.192,-78.344,-163.758,13.556,-109.518,-82.181,-38.688,-33.936,-51.596,-65.99,-28.358,-67.052,9.214,-68.772,-90.229,-62.457,-46.012,-8.744,-136.407,-106.362,-82.014,-88.368,-77.254,-63.077,204.465,-86.077,-133.224
2.998524499999803,-31.481,-65.652,-132.24,-75.191,-153.86,17.128,-106.335,-71.852,-36.088,-28.267,-44.372,-61.313,-27.817,-61.349,17.914,-55.895,-79.381,-55.735,-37.257,-0.539,-127.561,-97.546,-75.784,-82.132,-73.078,-49.694,210.408,-77.794,-127.456
3.013459199999943,-20.691,-56.877,-130.058,-73.067,-153.194,23.259,-105.716,-58.46,-26.318,-17.993,-33.569,-45.883,-20.104,-51.554,28.654,-42.519,-70.08,-45.945,-33.121,6.634,-120.774,-86.178,-67.512,-74.365,-63.783,-33.251,222.493,-62.859,-122.717
3.013538300000164,-23.744,-59.894,-125.317,-67.871,-153.553,22.211,-99.463,-72.747,-30.39,-22.585,-35.585,-44.812,-18.035,-49.965,27.601,-41.452,-68.473,-41.288,-31.551,6.115,-122.702,-87.629,-68.981,-77.364,-69.867,-41.926,218.685,-63.821,-120.033
3.028507399999853,-37.04,-73.666,-125.192,-74.975,-160.06,12.455,-96.29,-90.605,-42.655,-27.686,-43.234,-51.94,-23.653,-49.403,22.45,-42.948,-65.843,-42.784,-33.056,3.548,-125.653,-94.201,-75.572,-88.558,-84.142,-53.155,211.294,-81.688,-128.11
3.028581099999883,-42.639,-86.4,-138.387,-89.757,-168.609,4.758,-104.903,-85.391,-41.076,-26.121,-43.191,-45.74,-22.092,-45.255,19.866,-42.905,-64.24,-45.303,-36.609,2.519,-128.602,-91.546,-78.57,-93.592,-86.107,-53.614,213.644,-93.389,-142.327
3.043445899999824,-43.621,-88.363,-139.273,-87.618,-164.854,7.315,-101.724,-74.547,-33.862,-25.583,-42.635,-44.157,-19.508,-47.259,18.309,-44.911,-65.713,-46.282,-36.06,1.492,-131.547,-89.405,-75.93,-89.913,-80.898,-55.61,212.918,-93.808,-142.696
3.05847760000006,-53.311,-90.836,-133.498,-81.895,-164.689,7.307,-94.962,-79.596,-34.341,-27.607,-50.277,-57.433,-27.173,-50.798,15.73,-52.038,-71.795,-52.384,-41.66,-4.145,-135.514,-99.049,-75.854,-90.847,-84.403,-59.653,201.434,-97.3,-139.992
3.0601833999999144,-60.942,-98.942,-139.513,-94.109,-173.234,-1.409,-105.113,-89.25,-38.405,-32.702,-58.424,-66.597,-34.831,-52.797,9.054,-64.794,-79.407,-58.991,-50.327,-9.776,-141.014,-103.561,-80.901,-93.318,-82.782,-60.618,193.036,-101.814,-147.025
3.0602328999998463,-54.733,-94.233,-135.275,-92.99,-164.863,-0.383,-105.521,-80.964,-37.854,-30.108,-55.292,-64.482,-32.747,-55.818,7.508,-66.266,-76.766,-55.346,-44.641,-8.229,-140.873,-95.773,-75.185,-81.954,-64.768,-55.434,199.503,-94.027,-142.779
3.073523000000023,-48.531,-85.942,-122.332,-72.405,-154.965,11.913,-87.484,-70.124,-34.743,-21.881,-49.601,-58.269,-29.128,-54.225,16.722,-56.466,-70.542,-50.68,-35.888,-5.659,-133.047,-91.066,-64.864,-71.113,-58.043,-47.694,204.427,-86.761,-131.366
3.073584199999914,-51.556,-92.003,-127.332,-77.968,-166.081,11.388,-83.298,-79.276,-36.757,-24.933,-50.064,-55.65,-29.611,-51.609,15.168,-54.873,-74.57,-53.703,-40.975,-7.703,-130.353,-91.487,-70.947,-76.165,-70.281,-50.208,199.611,-93.847,-138.406
3.0897243999997954,-52.017,-91.399,-128.742,-90.185,-170.525,4.717,-90.9,-81.758,-37.745,-26.957,-45.915,-53.545,-27.532,-53.094,11.567,-52.769,-71.934,-51.6,-39.909,-3.597,-127.148,-84.224,-73.95,-76.601,-71.747,-52.719,200.949,-95.802,-143.391
3.0897940999998355,-39.157,-75.426,-114.781,-71.139,-152.936,13.934,-86.198,-61.696,-26.949,-12.585,-32.549,-41.708,-18.283,-47.406,29.486,-37.859,-58.542,-41.302,-25.012,7.165,-113.701,-71.844,-57.994,-65.766,-60.917,-40.371,210.482,-79.312,-126.854
3.1036064999998416,-25.798,-65.104,-114.154,-58.261,-138.951,23.141,-78.939,-54.974,-21.286,-5.401,-25.345,-30.908,-12.117,-36.088,37.654,-28.6,-54.897,-35.626,-21.914,13.818,-105.391,-68.698,-52.813,-64.164,-61.881,-33.671,216.931,-70.012,-120.067
3.1186398999998346,-25.772,-63.502,-123.773,-71.01,-139.324,18.508,-85.008,-65.166,-28.95,-13.08,-28.393,-34.975,-15.691,-35.027,25.321,-33.182,-57.404,-32.516,-30.601,12.78,-109.384,-74.265,-64.031,-70.76,-72.065,-43.371,215.69,-77.626,-130.705
3.1204632999997557,-29.845,-63.951,-121.6,-68.89,-137.648,13.366,-92.096,-65.613,-29.433,-11.017,-30.926,-41.601,-19.262,-41.652,26.832,-36.222,-59.396,-31.459,-32.619,4.57,-111.324,-77.777,-66.016,-74.275,-76.604,-44.352,208.302,-80.11,-132.112
3.1336397999998553,-31.865,-65.424,-119.942,-57.55,-131.875,11.816,-86.88,-64.01,-28.891,-7.42,-36.531,-46.682,-21.292,-46.221,25.268,-43.359,-69.582,-44.235,-37.198,-4.656,-113.261,-81.798,-66.975,-79.324,-78.576,-43.283,198.872,-79.518,-128.393
3.133703299999979,-43.103,-72.531,-129.556,-69.788,-138.916,1.045,-83.207,-75.217,-41.158,-22.27,-50.326,-60.98,-30.492,-51.81,4.751,-62.783,-80.271,-58.023,-50.993,-10.287,-123.907,-94.523,-79.203,-87.441,-86.182,-58.097,190.988,-89.684,-135.95
3.148701799999799,-54.331,-83.729,-135.062,-83.551,-154.146,-7.153,-90.296,-86.413,-45.215,-34.543,-58.473,-70.653,-38.658,-57.394,0.135,-73.479,-79.166,-57.965,-55.553,-15.912,-128.394,-102.114,-85.272,-92.477,-93.781,-64.187,181.576,-97.792,-141.449
3.148764499999743,-48.129,-85.182,-131.34,-76.807,-152.967,1.564,-97.378,-83.252,-38.51,-25.799,-55.853,-64.434,-35.034,-57.337,11.406,-66.233,-78.063,-53.809,-51.399,-17.945,-121.093,-96.888,-77.502,-90.848,-89.589,-53.364,184.468,-92.571,-137.721
3.1636748999999327,-46.544,-77.925,-126.598,-73.144,-151.79,9.247,-95.744,-71.386,-40.008,-22.187,-53.748,-63.858,-32.949,-56.767,10.882,-65.654,-81.571,-56.317,-52.884,-14.854,-117.386,-93.205,-73.838,-85.121,-79.765,-52.286,201.19,-89.404,-134.51
3.1637313999999606,-58.793,-85.019,-129.546,-85.879,-166.495,-3.058,-88.476,-74.388,-47.653,-35.485,-61.379,-71.478,-41.113,-62.346,4.724,-73.785,-85.588,-62.92,-54.88,-15.351,-121.367,-95.674,-76.838,-87.085,-82.247,-60.431,199.452,-95.975,-139.498
3.178700899999967,-62.833,-99.279,-135.564,-94.502,-169.402,-12.276,-87.363,-85.585,-49.654,-38.011,-67.465,-70.382,-43.121,-65.357,1.645,-72.175,-89.088,-67.468,-52.264,-16.873,-118.171,-94.041,-75.737,-93.146,-86.776,-60.37,185.932,-103.051,-145.507
3.180371699999796,-62.257,-99.18,-136.453,-89.284,-156.937,-5.092,-97.522,-80.888,-47.556,-24.141,-61.762,-64.164,-35.394,-61.706,-0.406,-66.467,-87.974,-64.327,-52.724,-13.782,-111.393,-92.922,-75.149,-91.004,-81.053,-61.334,186.771,-109.096,-147.923
3.19276119999995,-69.367,-101.642,-138.878,-91.244,-164.465,-6.111,-97.424,-78.246,-46.996,-24.117,-58.627,-65.637,-36.383,-61.644,0.107,-71.524,-86.862,-61.701,-56.77,-14.793,-112.819,-95.391,-81.733,-91.937,-84.046,-68.445,184.535,-117.696,-150.849
3.192824400000063,-70.835,-110.25,-143.35,-102.936,-178.645,-14.302,-83.495,-92.0,-49.51,-34.851,-65.228,-68.133,-41.47,-65.681,-2.967,-75.551,-86.263,-63.176,-57.225,-17.852,-113.731,-96.833,-83.701,-102.092,-95.233,-68.889,174.104,-119.627,-154.796
3.207787400000143,-66.666,-102.967,-136.546,-100.272,-170.782,-10.189,-86.997,-94.47,-49.461,-30.718,-62.601,-63.966,-34.768,-58.955,-2.452,-67.791,-76.955,-55.428,-50.508,-14.76,-105.932,-92.637,-76.957,-100.453,-90.527,-62.673,180.078,-110.286,-150.543
3.2078529999998864,-60.964,-90.569,-125.651,-86.851,-165.488,-2.494,-96.644,-82.592,-43.776,-23.002,-49.731,-56.73,-26.536,-46.601,8.821,-57.989,-64.583,-38.467,-43.285,-7.573,-95.58,-85.372,-72.27,-86.52,-78.141,-57.487,189.631,-98.905,-137.585
3.223127100000056,-48.607,-86.38,-121.427,-82.666,-168.909,0.582,-78.617,-76.874,-36.048,-20.93,-45.583,-48.989,-25.998,-42.968,13.936,-51.271,-59.395,-29.719,-36.582,-0.905,-86.263,-79.139,-67.074,-80.286,-72.94,-52.819,191.491,-93.683,-128.738
3.2231904000000213,-41.899,-81.17,-112.084,-77.46,-159.006,6.729,-65.218,-69.113,-31.401,-14.249,-46.049,-44.329,-21.873,-38.826,11.873,-46.609,-57.286,-30.202,-32.959,1.657,-79.004,-79.06,-60.859,-81.23,-68.256,-51.229,196.423,-92.053,-125.023
3.2377573999997367,-50.566,-83.651,-106.849,-74.821,-152.699,6.21,-83.084,-66.482,-34.443,-15.772,-45.491,-48.383,-20.314,-34.689,11.348,-51.685,-59.791,-34.27,-39.586,-6.542,-81.487,-85.129,-67.971,-84.223,-71.774,-59.887,190.591,-96.059,-127.46
3.2395845999999437,-56.663,-92.789,-120.062,-83.456,-160.743,-2.505,-91.71,-81.785,-42.093,-28.051,-50.056,-54.482,-28.491,-39.265,6.726,-61.368,-66.391,-38.847,-49.281,-14.22,-85.504,-90.679,-79.174,-91.311,-80.924,-65.462,175.031,-102.623,-136.041
3.2528714999998556,-50.971,-87.06,-125.065,-85.934,-160.583,-3.528,-78.81,-87.338,-45.637,-25.974,-52.568,-52.379,-28.975,-41.275,8.256,-58.232,-64.787,-37.271,-47.182,-6.521,-77.222,-89.051,-71.922,-88.145,-76.744,-56.688,175.368,-98.934,-136.418
3.2529366999997364,-48.359,-80.313,-115.719,-81.237,-156.324,-2.499,-77.707,-79.054,-46.616,-22.874,-50.466,-50.277,-23.823,-36.623,15.42,-54.588,-61.136,-33.647,-43.036,-1.391,-70.484,-84.864,-64.166,-79.86,-71.032,-49.971,179.291,-91.151,-128.597
3.2679094000000077,-55.483,-87.405,-118.677,-84.742,-161.803,-10.694,-90.437,-79.487,-50.156,-36.684,-57.588,-59.448,-29.946,-40.685,8.233,-62.73,-66.711,-37.712,-48.116,-10.099,-73.488,-86.828,-70.249,-82.854,-75.06,-53.507,170.403,-93.109,-129.493
3.2679715999997825,-58.501,-85.269,-125.731,-83.633,-160.104,-11.708,-86.76,-81.969,-49.081,-38.696,-64.19,-64.512,-31.966,-47.817,1.052,-65.741,-69.718,-39.724,-48.068,-11.626,-71.365,-85.717,-68.642,-81.747,-73.448,-52.941,167.159,-94.553,-131.925
3.28285969999979,-48.709,-76.474,-119.457,-75.352,-150.722,-0.425,-66.181,-76.764,-41.86,-23.288,-52.343,-54.714,-20.663,-46.232,9.248,-56.454,-64.525,-34.561,-37.774,-2.393,-59.511,-73.848,-56.79,-67.321,-65.177,-45.204,173.139,-88.31,-126.157
3.2829203000001144,-39.951,-73.836,-113.19,-72.715,-148.522,6.235,-63.553,-67.466,-34.133,-13.531,-37.946,-45.437,-14.495,-43.112,14.362,-49.738,-63.948,-33.502,-31.589,-0.341,-50.742,-65.577,-53.147,-63.667,-63.063,-37.986,174.503,-83.611,-122.445
3.29783099999986,-44.009,-68.639,-113.589,-70.593,-142.226,6.229,-81.421,-55.615,-27.951,-9.419,-37.908,-44.367,-12.943,-42.044,12.298,-51.737,-65.934,-37.567,-34.631,-5.976,-49.154,-70.635,-59.754,-70.776,-66.586,-38.973,168.693,-84.04,-124.372
3.312916200000018,-48.576,-66.009,-115.012,-67.449,-141.059,7.247,-77.241,-58.121,-27.411,-10.947,-44.53,-48.421,-12.418,-40.465,14.335,-56.296,-66.38,-38.041,-41.256,-8.532,-51.154,-79.273,-67.379,-74.803,-73.179,-46.619,165.451,-84.468,-125.272
3.3129801999998563,-43.404,-73.115,-112.336,-68.918,-166.021,10.314,-55.647,-73.945,-33.019,-17.083,-45.51,-52.984,-15.479,-43.498,16.882,-59.826,-67.85,-35.442,-41.727,-6.986,-48.029,-82.78,-69.361,-78.827,-79.254,-49.646,173.994,-86.945,-127.196
3.3279225999999653,-36.189,-72.018,-106.076,-66.8,-184.298,13.89,-60.714,-70.285,-36.06,-13.993,-40.854,-50.882,-15.976,-46.529,20.452,-56.692,-66.758,-34.382,-38.612,-4.418,-38.76,-81.673,-68.267,-82.334,-79.175,-47.547,185.091,-87.883,-127.069
3.32798559999992,-36.665,-67.335,-108.019,-65.196,-168.232,10.802,-78.072,-58.944,-34.487,-9.88,-38.252,-47.757,-17.497,-43.921,18.382,-56.123,-65.154,-37.934,-43.184,-5.95,-36.672,-85.177,-77.42,-86.35,-83.194,-53.647,178.758,-84.721,-126.429
3.343342699999994,-43.288,-72.903,-116.108,-72.816,-152.183,3.107,-74.408,-69.131,-35.477,-18.579,-43.336,-53.857,-25.164,-46.951,9.142,-65.289,-71.237,-45.58,-51.85,-13.629,-42.27,-95.338,-86.564,-93.436,-94.381,-59.741,166.284,-87.198,-129.889
3.3433995000000323,-40.171,-71.293,-112.918,-76.841,-158.691,5.665,-66.649,-74.697,-37.491,-20.098,-45.342,-57.389,-24.115,-52.539,11.182,-68.81,-77.826,-48.096,-52.31,-13.615,-38.13,-94.218,-80.33,-89.757,-92.238,-53.021,168.167,-90.185,-128.735
3.3579279000000497,-32.446,-62.513,-106.657,-71.642,-161.093,13.344,-67.607,-64.376,-37.453,-11.881,-38.637,-50.159,-19.992,-50.95,21.417,-60.544,-76.211,-41.9,-45.086,-2.331,-23.235,-80.804,-70.516,-76.347,-79.85,-44.259,174.659,-82.922,-122.458
3.357986399999845,-39.074,-70.647,-113.211,-73.107,-157.346,8.72,-69.076,-71.996,-39.465,-16.992,-38.598,-50.109,-28.681,-48.849,17.81,-57.41,-75.11,-41.346,-39.405,0.745,-18.088,-74.063,-67.884,-72.685,-78.746,-41.141,168.849,-83.352,-128.483
3.3730602999999064,-50.818,-82.872,-121.807,-83.28,-165.898,-2.047,-79.765,-90.368,-45.061,-29.783,-48.806,-58.256,-32.751,-50.85,8.57,-65.037,-78.621,-46.428,-39.366,-6.428,-22.681,-76.551,-65.767,-76.198,-82.765,-40.588,159.971,-96.076,-142.187
3.3731234000001677,-51.279,-83.813,-124.759,-87.807,-174.954,-7.681,-94.03,-89.765,-49.627,-33.339,-54.905,-62.296,-29.132,-52.336,6.512,-71.632,-80.592,-46.894,-41.376,-8.983,-22.146,-78.523,-66.213,-74.585,-81.658,-43.621,158.786,-100.078,-143.582
3.388034300000072,-53.277,-84.754,-125.146,-84.133,-174.266,-8.698,-90.35,-81.991,-50.089,-35.867,-58.948,-65.82,-35.251,-51.771,4.457,-73.609,-77.95,-46.335,-42.871,-7.949,-19.562,-83.568,-72.807,-77.584,-85.163,-49.213,157.09,-97.417,-136.266
3.3880934999997407,-60.396,-87.231,-121.947,-82.0,-176.654,-7.664,-78.476,-83.958,-49.015,-40.954,-63.5,-69.853,-38.289,-53.256,3.94,-75.585,-75.31,-48.85,-44.365,-11.015,-21.08,-87.583,-78.882,-83.654,-90.713,-53.262,148.224,-101.418,-134.593
3.4030785999998443,-61.36,-86.119,-117.727,-83.455,-178.526,-5.095,-77.886,-83.361,-49.478,-37.327,-59.338,-66.709,-29.029,-56.277,7.01,-73.46,-76.259,-50.338,-44.833,-11.004,-18.497,-85.446,-77.778,-80.497,-89.085,-53.209,142.441,-100.804,-133.946
3.4031426999999894,-60.787,-85.008,-109.925,-83.372,-170.151,-4.578,-78.32,-77.643,-47.892,-30.118,-53.131,-62.544,-26.439,-55.708,4.441,-69.8,-77.208,-54.386,-45.813,-8.432,-12.843,-84.336,-72.578,-77.342,-88.484,-51.106,141.786,-95.068,-127.152
3.4180937999999514,-62.263,-83.386,-104.692,-81.239,-167.931,-9.184,-71.582,-81.151,-47.331,-32.137,-58.201,-65.043,-35.122,-55.653,0.851,-75.366,-79.692,-61.504,-52.427,-15.083,-15.392,-92.449,-80.19,-86.487,-98.129,-56.178,137.033,-95.997,-124.976
3.4181503999998313,-62.201,-83.303,-108.173,-80.133,-178.522,-10.712,-68.436,-85.681,-47.796,-36.203,-64.803,-70.101,-37.648,-60.208,2.899,-84.512,-84.735,-64.004,-58.523,-22.24,-16.913,-100.553,-92.917,-95.109,-104.179,-64.831,132.798,-98.463,-129.974
3.4331140999997842,-58.04,-82.707,-106.016,-74.418,-173.22,-2.504,-67.856,-72.275,-40.064,-30.019,-58.078,-67.982,-30.95,-62.197,4.945,-80.842,-80.04,-58.817,-53.341,-17.095,-9.212,-96.354,-84.115,-90.404,-95.878,-60.156,137.276,-93.241,-125.233
3.448163300000033,-47.223,-72.379,-92.59,-65.634,-146.407,5.183,-58.054,-57.346,-31.315,-21.792,-47.262,-59.204,-24.259,-53.425,6.477,-71.027,-68.177,-48.512,-43.554,-9.906,0.019,-82.425,-69.174,-77.505,-83.486,-46.775,146.36,-80.853,-112.812
3.448233099999925,-40.004,-65.646,-89.423,-63.007,-133.453,5.178,-48.774,-60.875,-30.771,-17.672,-41.579,-53.51,-23.211,-47.224,12.619,-65.833,-65.035,-38.73,-37.875,-5.797,9.753,-73.634,-68.592,-68.206,-77.255,-41.606,157.997,-70.526,-109.113
3.4482778999999937,-39.452,-69.167,-92.92,-62.944,-152.787,14.394,-52.312,-62.351,-27.666,-13.556,-38.976,-48.845,-20.626,-50.251,23.364,-61.668,-66.507,-35.105,-34.251,1.381,19.477,-72.023,-63.913,-65.577,-77.178,-40.027,174.745,-68.406,-108.492
3.4634461000000556,-33.777,-66.536,-88.216,-60.319,-180.811,30.774,-56.358,-50.505,-19.954,-7.395,-35.351,-42.649,-12.921,-46.102,32.05,-55.459,-59.78,-33.02,-30.118,7.527,23.556,-68.365,-55.14,-63.974,-79.662,-37.425,189.939,-65.264,-102.748
3.4780461999998806,-30.157,-61.346,-88.64,-60.259,-189.852,31.768,-50.666,-47.893,-16.86,-5.338,-32.754,-39.532,-9.834,-34.273,32.531,-51.818,-53.573,-27.864,-25.477,7.52,26.606,-61.124,-53.036,-59.299,-79.583,-36.363,194.872,-58.538,-103.158
3.4781278000000384,-34.225,-64.871,-94.699,-64.809,-185.052,23.539,-46.005,-56.555,-16.331,-7.382,-29.647,-40.518,-13.41,-32.19,29.937,-51.253,-55.056,-28.349,-20.329,11.611,35.289,-56.965,-47.859,-55.142,-77.454,-32.741,197.751,-55.406,-108.178
3.493108399999983,-25.994,-60.708,-89.994,-63.72,-184.354,28.638,-41.86,-53.424,-12.216,-4.301,-26.031,-36.379,-11.348,-34.719,34.517,-47.616,-57.05,-32.419,-17.747,18.771,43.963,-54.346,-44.225,-54.062,-77.376,-28.61,205.238,-51.252,-103.971
3.4947229999997944,-14.697,-48.864,-81.195,-54.435,-185.707,40.905,-33.621,-42.1,-8.618,3.901,-22.932,-31.219,-5.188,-30.586,40.118,-40.396,-55.456,-32.386,-15.68,19.265,45.968,-54.292,-50.841,-52.983,-78.836,-30.118,208.619,-41.467,-97.207
3.508168299999852,-22.367,-48.815,-73.429,-52.331,-184.496,41.377,-31.539,-41.033,-7.585,5.946,-21.372,-33.749,-7.233,-33.629,36.492,-43.43,-58.475,-35.428,-17.713,15.659,44.385,-62.947,-57.45,-58.566,-83.368,-34.186,204.312,-40.401,-94.548
3.5082345999999234,-28.492,-50.303,-60.548,-56.377,-191.997,37.749,-36.118,-46.115,-9.114,-0.208,-25.449,-40.888,-13.885,-46.403,32.357,-56.194,-69.175,-45.126,-24.356,12.058,43.316,-72.105,-61.491,-67.216,-93.018,-37.226,203.083,-42.922,-87.281
3.5232028000000355,-18.73,-38.47,-42.044,-47.099,-198.465,42.322,-37.619,-41.459,-9.617,-2.257,-28.497,-40.847,-13.359,-49.43,36.935,-57.162,-72.692,-47.13,-24.331,11.533,46.859,-68.447,-63.479,-65.1,-93.95,-36.676,205.954,-32.121,-72.337
3.523279399999865,-13.588,-28.698,-20.485,-30.146,-188.02,48.94,-38.093,-34.245,-7.559,5.43,-20.272,-35.683,-9.76,-42.209,40.997,-47.883,-64.934,-40.423,-18.159,16.645,53.472,-60.182,-59.317,-56.838,-87.196,-32.029,208.822,-21.33,-55.871
3.538241400000061,-12.55,-27.644,7.2,-26.53,-180.66,53.502,-38.568,-37.797,-6.014,7.986,-15.641,-33.598,-9.75,-40.117,40.444,-46.299,-62.308,-39.358,-15.067,21.751,60.079,-60.634,-54.647,-56.269,-87.621,-30.46,213.736,-17.21,-35.323
3.5383051999997406,-4.853,-20.957,35.37,-20.868,-184.065,64.207,-31.869,-36.222,-1.91,5.929,-17.674,-29.466,-4.617,-40.077,45.526,-44.715,-63.782,-38.294,-10.954,23.779,66.678,-56.987,-52.031,-54.163,-84.46,-27.356,222.744,-3.873,-10.697
3.5531895999997687,-4.848,-15.813,49.679,-8.039,-178.758,73.364,-32.862,-26.452,0.654,7.972,-14.583,-24.314,1.023,-35.426,49.067,-38.523,-58.083,-29.547,-8.381,25.804,68.149,-49.246,-48.905,-49.498,-76.691,-21.693,225.083,3.815,-1.977
3.554885600000034,-13.04,-23.481,50.654,-12.642,-175.505,66.118,-41.026,-31.549,-6.519,8.477,-15.593,-28.9,-3.589,-31.805,43.895,-43.095,-53.414,-24.906,-12.984,25.778,63.47,-54.832,-49.368,-51.498,-80.2,-25.77,218.71,-7.459,-6.586
3.5682606000000305,-7.392,-23.458,61.874,-17.24,-180.453,61.954,-30.226,-38.177,-7.537,7.956,-20.188,-31.433,-6.147,-30.236,46.412,-46.638,-51.312,-26.931,-9.897,26.777,66.993,-56.826,-46.245,-48.885,-80.12,-27.793,220.54,-1.816,5.204
3.5683263999999326,2.862,-13.188,84.866,-0.829,-175.149,72.65,-15.851,-25.843,5.278,11.022,-12.996,-22.18,1.544,-27.132,56.612,-37.37,-46.65,-24.855,-1.178,29.824,76.147,-46.011,-39.539,-38.078,-67.232,-17.519,233.64,17.141,25.691
3.5833340999997745,-3.289,-16.249,87.855,3.27,-174.462,71.041,-22.496,-26.842,4.248,7.425,-10.421,-22.67,2.055,-26.593,52.969,-37.845,-50.702,-25.854,-8.861,24.159,72.997,-51.088,-43.598,-40.089,-70.239,-21.088,231.357,9.951,21.055
3.583397200000036,-15.068,-29.553,72.398,-14.151,-187.095,55.6,-28.108,-47.82,-12.15,-1.804,-23.731,-34.43,-6.656,-33.226,42.67,-49.078,-57.823,-37.099,-22.172,14.913,65.752,-67.943,-53.8,-55.418,-87.587,-35.924,214.732,-7.989,3.103
3.599372900000162,-20.689,-34.134,67.202,-20.797,-187.42,52.983,-30.642,-48.797,-13.162,-5.389,-28.318,-36.445,-7.674,-38.828,41.091,-52.103,-58.79,-45.259,-25.224,14.386,64.661,-70.949,-59.382,-61.51,-93.135,-37.425,209.394,-11.055,-3.048
3.599435900000117,-25.279,-37.174,61.5,-20.777,-183.647,59.078,-47.517,-40.039,-5.465,-3.846,-23.166,-36.409,-6.642,-37.765,37.976,-55.125,-62.317,-46.751,-28.785,11.298,58.961,-74.976,-68.032,-63.498,-97.14,-38.924,210.722,-16.68,-11.242
3.6133042999999816,-27.303,-40.723,45.044,-23.83,-186.025,54.92,-46.958,-46.146,-9.045,-3.843,-26.217,-43.545,-11.759,-36.702,31.278,-62.242,-64.304,-47.729,-32.342,7.188,55.316,-81.561,-73.599,-69.07,-104.215,-44.521,207.437,-21.274,-21.477
3.6152996000000712,-21.128,-35.047,41.926,-19.195,-181.74,49.742,-24.881,-48.149,-14.672,-5.376,-28.752,-40.939,-11.747,-35.129,36.37,-56.544,-57.068,-44.607,-25.65,15.378,63.97,-69.184,-62.767,-60.804,-101.549,-35.767,210.816,-10.494,-16.844
3.628783900000144,-13.934,-29.376,47.519,-15.077,-176.948,55.84,-27.418,-41.954,-14.145,-1.784,-21.551,-29.628,-7.637,-33.557,45.042,-44.192,-51.375,-38.927,-17.427,25.609,75.689,-56.82,-49.897,-43.837,-98.886,-25.485,219.314,-4.848,-12.217
3.6288479999998344,-11.359,-29.859,40.299,-18.136,-173.697,62.444,-45.321,-43.961,-13.106,4.365,-13.845,-24.475,-6.092,-32.498,44.485,-36.976,-48.25,-34.79,-10.238,26.095,81.249,-54.714,-45.748,-39.695,-97.763,-23.41,221.144,-8.942,-16.303
3.6433687999997346,-9.298,-27.268,32.062,-15.556,-159.691,61.357,-38.616,-45.454,-12.581,5.898,-9.733,-20.352,-3.012,-26.831,46.49,-31.303,-39.492,-27.07,-3.055,29.143,83.217,-46.974,-42.629,-43.241,-83.833,-18.776,221.948,-3.297,-15.774
3.6434315000001334,-4.678,-24.167,31.005,-7.344,-151.334,61.296,-29.868,-36.699,-8.982,6.917,-6.649,-13.672,1.089,-19.631,51.566,-28.71,-31.768,-22.432,-4.589,33.212,82.109,-45.391,-42.074,-47.296,-77.089,-16.708,225.824,-0.22,-18.833
3.6583479000000807,-5.186,-25.167,23.802,-2.214,-149.646,65.333,-40.597,-27.953,-4.874,11.008,-7.155,-16.22,2.113,-21.149,49.466,-31.756,-35.323,-27.021,-7.658,27.544,81.515,-53.03,-47.155,-51.86,-91.869,-22.839,222.524,-7.905,-27.523
3.6584060000000136,-18.501,-33.339,8.409,-15.019,-145.398,58.608,-39.532,-35.098,-9.993,5.874,-15.345,-26.962,-0.451,-27.788,40.195,-41.458,-42.972,-36.215,-12.774,16.758,75.798,-57.075,-52.743,-52.832,-103.56,-28.964,211.543,-17.631,-41.84
3.673342600000069,-33.851,-53.798,-13.116,-44.206,-159.597,42.155,-23.098,-54.018,-24.839,-8.476,-29.674,-38.718,-8.135,-32.883,30.421,-56.273,-48.052,-44.376,-23.519,10.081,65.476,-65.215,-58.838,-57.903,-102.944,-36.62,205.696,-31.958,-65.877
3.688439499999731,-33.305,-65.015,-30.009,-50.309,-176.856,40.064,-21.538,-53.452,-22.765,-8.468,-30.156,-38.679,-8.127,-30.288,29.365,-55.705,-46.467,-42.282,-21.959,9.559,68.997,-67.199,-56.218,-61.943,-97.206,-36.583,209.589,-42.684,-77.594
