Timestamp,Cz,Fz,Fp1,F3,C1,C3,T7,C5,CP5,CP3,CP1,P1,P3,O1,CPz,Pz,Oz,O2,P4,P2,CP2,CP4,CP6,C6,T8,C4,C2,F4,Fp2
0.0,-3.807,-21.334,-256.382,40.048,369.98,-41.197,33.436,-19.551,9.626,-24.167,-22.359,-37.998,-48.492,-50.08,-24.328,-47.801,30.704,1.878,-23.996,-9.722,-17.593,-14.725,-19.994,-17.339,-2.675,-13.03,139.029,34.864,-315.061
6.630000007135095e-05,-6.365,-25.411,-260.225,38.983,363.975,-41.156,26.743,-22.093,9.104,-24.143,-25.41,-41.034,-50.493,-48.493,-28.914,-49.29,35.284,-3.759,-29.096,-9.2,-19.113,-19.833,-25.097,-20.908,-6.771,-17.628,135.816,30.218,-310.135
0.015023899999960122,-13.018,-30.508,-263.038,31.772,360.537,-43.677,23.642,-18.997,5.509,-17.459,-27.434,-40.48,-49.93,-51.519,-32.984,-57.438,30.126,-11.952,-35.726,-17.9,-25.754,-25.961,-31.219,-22.936,-9.838,-25.295,146.951,20.454,-314.948
0.016807699999844772,-17.616,-34.576,-270.46,24.568,352.492,-47.731,16.959,-19.49,1.405,-23.077,-33.042,-48.637,-53.467,-62.226,-40.636,-68.139,18.312,-20.65,-43.888,-28.128,-37.511,-39.255,-38.873,-32.647,-18.025,-35.003,150.903,14.798,-327.953
0.0300134999997681,-25.283,-44.788,-279.923,19.42,340.869,-51.27,12.843,-27.668,2.94,-29.714,-39.669,-55.761,-57.512,-61.139,-45.718,-73.194,16.245,-24.728,-50.504,-30.15,-41.572,-48.437,-43.957,-39.787,-27.229,-35.993,153.826,9.661,-332.236
0.030073800000081974,-27.307,-45.768,-279.131,21.45,345.139,-48.145,13.343,-28.665,6.524,-21.999,-33.994,-44.946,-49.769,-47.758,-43.111,-66.973,25.962,-13.944,-44.818,-22.435,-34.358,-37.118,-35.204,-33.087,-22.078,-27.76,172.627,7.602,-328.83
0.04543370000010327,-16.521,-33.427,-270.143,31.163,359.65,-41.437,13.842,-19.415,9.591,-14.293,-23.201,-30.557,-39.986,-37.464,-37.432,-51.024,38.232,1.951,-26.842,-9.605,-21.516,-19.15,-18.775,-21.271,-9.761,-21.585,189.873,14.254,-323.89
0.04551240000000689,-11.894,-31.856,-266.286,32.668,360.828,-43.957,18.439,-19.395,9.069,-16.84,-25.227,-29.502,-42.507,-36.402,-32.272,-44.313,43.317,5.023,-19.131,-5.497,-17.908,-14.52,-15.682,-17.663,-6.165,-19.514,200.442,14.752,-318.956
0.060023500000170316,-22.128,-43.095,-271.655,16.754,349.196,-52.11,15.859,-31.159,2.4,-24.508,-32.887,-35.62,-46.051,-40.976,-36.85,-51.441,39.175,0.92,-27.309,-10.614,-27.624,-20.654,-20.277,-23.793,-13.331,-21.031,206.901,4.491,-324.272
0.060084400000050664,-26.717,-48.688,-279.068,9.565,346.285,-54.619,-0.039,-35.226,-1.701,-28.069,-32.854,-39.683,-47.03,-45.546,-42.961,-53.952,36.574,-1.643,-31.892,-12.14,-30.671,-24.731,-21.281,-29.405,-22.027,-27.158,208.231,-2.686,-333.169
0.07508819999975458,-25.153,-47.614,-281.863,19.289,350.55,-53.028,-3.112,-30.068,-1.699,-25.992,-33.333,-41.18,-52.618,-49.599,-38.307,-56.459,38.074,-6.764,-33.397,-15.202,-27.566,-28.293,-26.895,-31.425,-27.128,-30.205,218.782,-7.294,-334.373
0.07675509999990027,-30.251,-50.128,-280.044,18.758,345.076,-53.487,3.038,-33.112,-6.821,-30.064,-38.936,-47.286,-58.201,-55.697,-38.781,-68.698,27.278,-16.491,-45.147,-24.921,-36.248,-39.535,-38.139,-40.102,-31.712,-31.711,228.297,-15.483,-336.088
0.09015890000000581,-38.93,-56.738,-280.277,4.907,332.948,-59.069,0.474,-42.3,-14.498,-41.817,-47.093,-60.559,-63.778,-63.838,-52.575,-80.925,14.443,-26.209,-54.323,-31.556,-46.458,-52.303,-45.274,-49.796,-39.877,-39.364,226.019,-21.615,-342.412
0.09022289999984423,-41.453,-60.267,-283.07,-0.734,329.541,-66.182,4.059,-43.282,-15.508,-43.313,-54.219,-67.159,-69.35,-66.336,-55.084,-85.967,19.552,-29.256,-50.683,-34.086,-45.387,-54.3,-47.277,-49.234,-40.349,-44.96,234.502,-23.131,-342.069
0.10552000000006956,-37.313,-58.158,-283.812,3.366,333.31,-63.554,10.715,-36.067,-8.321,-36.097,-50.578,-57.358,-65.182,-57.048,-48.369,-80.246,29.266,-23.079,-48.071,-32.515,-43.804,-50.148,-42.619,-44.062,-33.649,-39.28,250.149,-20.034,-337.117
0.10562309999977515,-26.517,-55.026,-280.454,6.948,340.661,-54.781,5.069,-24.248,0.397,-29.913,-34.646,-42.443,-52.309,-41.109,-47.808,-64.796,33.847,-14.347,-46.998,-25.31,-37.613,-45.999,-35.917,-40.432,-34.128,-30.019,260.658,-13.866,-335.755
0.12016760000005888,-16.244,-45.749,-277.1,14.114,353.128,-48.067,8.138,-13.465,8.081,-19.637,-21.804,-33.179,-42.523,-32.871,-39.563,-53.46,42.523,-10.234,-37.729,-17.088,-23.743,-36.219,-30.758,-33.219,-34.606,-25.378,281.914,-6.68,-332.858
0.12022879999994984,-11.617,-33.408,-272.724,24.858,364.558,-40.846,20.425,-12.939,11.659,-11.421,-16.659,-25.974,-38.382,-34.375,-26.204,-48.796,50.677,-4.589,-28.47,-11.435,-16.547,-27.986,-22.53,-24.476,-23.813,-19.718,304.174,1.524,-325.352
0.13520389999985127,-8.019,-30.301,-266.816,26.882,365.731,-36.195,17.843,-15.488,11.135,-13.458,-13.568,-21.337,-37.831,-33.829,-27.202,-43.112,49.602,2.076,-26.392,-5.789,-14.481,-27.958,-13.798,-19.329,-14.567,-13.038,310.017,6.133,-317.855
0.13685350000014296,-8.011,-37.955,-265.012,18.659,362.803,-42.306,11.166,-13.423,8.563,-16.519,-16.116,-22.34,-38.305,-31.233,-33.835,-43.069,46.478,2.074,-25.341,-5.783,-13.442,-25.368,-12.248,-16.236,-15.577,-13.537,315.855,4.078,-318.049
0.15023789999986548,-15.176,-41.503,-271.92,14.542,360.391,-46.362,11.667,-15.971,6.505,-17.015,-23.785,-26.929,-40.829,-33.764,-32.264,-50.198,42.334,-5.101,-26.341,-10.9,-17.015,-20.22,-13.26,-15.195,-17.099,-15.06,324.761,2.537,-325.416
0.15030399999977817,-16.697,-37.364,-273.185,23.236,356.445,-44.267,12.68,-20.054,4.961,-21.096,-25.81,-33.05,-45.911,-37.828,-29.67,-52.71,36.144,-9.194,-28.876,-11.914,-17.51,-22.249,-11.198,-10.056,-8.885,-10.947,332.12,9.706,-322.016
0.1652699000001121,-13.095,-31.178,-262.153,31.41,355.064,-49.858,20.352,-19.521,1.883,-24.661,-29.371,-37.627,-49.964,-39.327,-32.715,-56.755,29.96,-12.771,-30.896,-13.439,-13.394,-26.325,-10.162,-3.899,0.346,-12.473,345.108,18.918,-304.276
0.18134599999984857,-15.643,-29.61,-254.206,26.768,355.221,-55.956,21.356,-24.625,-5.804,-29.247,-38.051,-44.25,-54.524,-46.46,-36.268,-67.457,22.757,-21.467,-36.501,-20.085,-15.942,-31.422,-15.275,-10.043,-5.29,-20.145,351.423,18.387,-300.386
0.18143329999975322,-18.701,-32.142,-256.514,23.155,348.206,-53.85,8.014,-29.211,-10.921,-36.39,-40.062,-52.402,-58.568,-52.562,-38.281,-71.488,18.636,-25.544,-41.075,-23.651,-20.025,-40.1,-23.969,-22.84,-16.555,-21.15,349.535,8.635,-309.819
0.19534780000003593,-19.707,-34.159,-257.282,26.718,342.222,-53.284,8.519,-21.497,-8.349,-33.28,-34.899,-50.301,-56.973,-48.923,-39.78,-68.855,23.741,-18.859,-38.985,-23.115,-19.492,-44.158,-27.531,-26.916,-18.076,-23.178,358.407,2.478,-311.046
0.19541359999993801,-24.298,-37.711,-258.049,22.593,340.343,-52.719,17.732,-19.939,-3.217,-23.001,-31.278,-40.004,-50.768,-41.702,-40.764,-68.274,28.84,-13.717,-37.921,-22.58,-22.034,-42.577,-26.991,-27.401,-20.107,-32.888,368.807,-1.623,-311.76
0.2103228000000854,-27.348,-47.92,-265.988,11.299,329.757,-49.592,12.591,-22.993,-0.653,-21.441,-29.709,-35.353,-44.57,-36.537,-39.187,-64.107,35.983,-11.654,-38.908,-21.02,-23.037,-45.608,-29.013,-31.985,-29.821,-33.368,368.95,-11.867,-320.157
0.21038529999987077,-28.345,-55.044,-271.357,10.776,323.279,-51.592,8.48,-19.383,-1.164,-20.907,-28.655,-32.244,-39.914,-31.377,-39.148,-55.334,44.657,-5.495,-35.795,-19.463,-16.354,-45.05,-30.009,-34.514,-32.352,-26.674,375.241,-16.978,-322.399
0.22534360000008746,-27.804,-50.891,-268.012,12.302,330.64,-55.126,9.496,-21.926,0.886,-17.812,-28.114,-27.601,-39.874,-29.809,-39.108,-52.205,44.612,-1.903,-31.148,-16.882,-9.677,-35.784,-23.831,-29.869,-26.172,-26.135,389.723,-11.326,-320.027
0.22540840000010576,-23.166,-45.717,-266.207,3.58,331.847,-54.047,1.29,-29.588,2.422,-21.38,-25.524,-29.111,-40.859,-29.779,-34.459,-52.665,40.981,-1.389,-27.019,-13.278,-4.545,-30.113,-16.123,-23.179,-22.56,-22.011,400.092,-8.241,-320.219
0.24036350000005768,-21.093,-47.208,-267.99,1.527,329.978,-53.993,-1.786,-23.411,-1.166,-22.896,-28.06,-33.18,-41.843,-32.311,-32.375,-50.563,42.477,-2.412,-23.406,-11.728,-0.442,-30.083,-14.57,-20.082,-21.513,-14.304,406.864,-8.745,-317.337
0.24042129999997996,-26.195,-46.136,-267.722,11.26,334.771,-55.988,1.29,-19.289,-5.776,-21.849,-36.742,-37.245,-47.949,-40.476,-37.978,-56.66,35.262,-10.094,-29.018,-18.377,-6.589,-34.663,-21.727,-24.673,-25.078,-21.462,408.506,-9.248,-313.946
0.25532479999992574,-29.243,-45.578,-263.868,16.884,327.264,-57.469,-5.883,-28.491,-9.356,-31.56,-42.853,-47.966,-55.585,-45.558,-43.575,-70.948,24.469,-19.306,-39.235,-28.604,-15.292,-45.899,-30.927,-32.333,-32.737,-31.687,410.659,-12.313,-313.632
0.25538109999979497,-27.677,-45.02,-257.969,18.404,315.666,-63.559,-4.853,-32.049,-17.032,-42.8,-46.396,-56.628,-59.628,-47.05,-44.556,-75.488,24.957,-22.36,-40.22,-30.625,-13.227,-50.464,-32.433,-35.886,-35.266,-29.606,420.495,-13.838,-311.269
0.2704364999999598,-27.137,-43.438,-254.637,17.361,315.863,-67.082,5.91,-31.505,-23.675,-45.318,-50.96,-56.571,-61.618,-51.613,-45.024,-71.314,22.37,-23.362,-39.155,-27.008,-9.115,-45.803,-31.376,-35.338,-32.157,-26.502,426.222,-12.287,-308.909
0.27050599999984115,-28.647,-45.956,-254.895,11.708,313.498,-62.916,-0.756,-39.158,-24.163,-48.347,-51.422,-57.027,-61.044,-54.123,-43.954,-74.829,17.225,-24.876,-41.678,-30.055,-8.082,-48.831,-34.419,-36.327,-32.125,-28.525,429.382,-14.836,-310.137
0.285388199999943,-29.13,-49.496,-256.177,11.184,310.11,-57.218,-12.538,-40.143,-21.065,-42.151,-43.173,-53.384,-55.86,-48.946,-41.861,-74.241,25.404,-19.216,-41.124,-32.074,-6.537,-52.368,-35.921,-38.853,-33.117,-30.034,439.711,-19.432,-314.438
0.3008426999999756,-29.101,-48.422,-261.556,13.735,316.46,-55.111,-10.476,-29.857,-11.823,-23.153,-35.445,-42.059,-46.07,-41.725,-43.356,-63.409,34.088,-11.0,-39.033,-26.919,-4.993,-47.705,-32.811,-39.326,-30.01,-30.004,447.468,-23.511,-320.783
0.3009044999998878,-35.22,-57.595,-270.516,4.499,312.557,-57.105,-7.904,-26.241,-1.052,-19.032,-36.947,-38.944,-40.389,-39.121,-44.85,-60.271,31.492,-10.989,-41.043,-28.941,-3.964,-50.731,-34.828,-41.336,-30.492,-34.072,442.41,-37.32,-328.147
0.3009492000001046,-46.968,-74.956,-275.881,-7.288,300.462,-62.171,-10.458,-32.362,-4.125,-28.234,-42.033,-42.491,-43.422,-42.668,-46.342,-65.334,27.363,-16.613,-44.076,-35.572,-2.423,-59.902,-42.99,-49.492,-40.196,-40.698,433.771,-53.676,-336.528
0.31544020000001183,-47.433,-74.369,-276.117,-5.232,301.698,-64.671,-14.033,-32.842,-10.781,-26.669,-40.454,-40.399,-45.428,-45.7,-47.833,-63.732,25.798,-16.084,-45.569,-31.951,-1.908,-58.305,-45.508,-53.541,-45.791,-41.682,435.899,-50.549,-338.241
0.31549949999998717,-37.652,-60.974,-269.694,0.409,303.446,-62.557,-15.044,-27.174,-8.209,-24.593,-38.877,-40.871,-44.87,-43.092,-44.199,-62.644,28.846,-10.433,-45.524,-29.357,0.655,-53.636,-41.364,-45.802,-40.11,-32.931,447.758,-36.154,-323.558
0.3304806999999528,-36.589,-60.401,-260.202,0.408,298.019,-61.47,-10.931,-29.708,-9.225,-32.766,-41.912,-46.465,-52.51,-44.074,-42.105,-67.704,30.354,-12.471,-46.503,-32.402,3.729,-57.681,-41.323,-43.195,-39.045,-29.312,458.069,-33.044,-311.964
0.3455257000000529,-40.651,-61.878,-258.405,4.506,298.234,-60.384,-13.481,-35.314,-18.437,-34.782,-44.944,-50.005,-60.654,-49.665,-48.211,-71.223,20.59,-21.68,-51.579,-33.394,1.163,-61.722,-47.429,-53.398,-48.74,-33.893,461.709,-37.621,-318.312
0.3455896999998913,-34.975,-52.594,-258.147,16.797,302.034,-61.86,-20.128,-31.693,-20.98,-33.21,-43.362,-54.566,-58.032,-51.665,-50.724,-71.664,11.86,-25.757,-52.04,-35.922,1.162,-58.586,-47.894,-54.882,-48.691,-33.347,468.932,-35.022,-317.993
0.36112920000005033,-29.305,-47.419,-253.278,21.391,301.732,-68.971,-15.497,-31.149,-21.984,-40.862,-44.343,-58.097,-57.974,-51.101,-47.599,-74.666,12.361,-21.633,-46.865,-39.472,6.284,-53.405,-40.162,-42.019,-35.835,-29.215,480.758,-27.303,-307.429
0.3611974000000373,-35.423,-51.47,-256.611,9.587,295.282,-72.488,-16.506,-45.462,-29.647,-47.993,-52.496,-60.601,-66.113,-51.05,-50.113,-79.202,10.299,-18.025,-43.744,-40.457,4.229,-51.814,-31.925,-35.829,-30.676,-28.674,489.499,-25.226,-307.122
0.37557990000004793,-36.413,-51.418,-265.063,-2.206,285.253,-70.366,-30.834,-52.077,-31.154,-49.994,-58.591,-65.151,-65.535,-49.974,-51.088,-78.61,10.289,-16.47,-41.139,-39.392,2.687,-51.762,-27.282,-34.769,-26.547,-26.596,499.256,-26.738,-307.327
0.37564419999989695,-25.618,-44.707,-258.651,6.506,290.603,-67.222,-28.242,-37.68,-20.877,-44.821,-49.823,-59.963,-56.248,-47.363,-44.377,-69.31,17.963,-11.331,-34.95,-33.205,13.443,-44.538,-22.132,-25.0,-15.762,-20.422,516.175,-22.1,-300.872
0.3904757000000245,-17.395,-39.027,-252.244,17.77,306.707,-62.032,-10.283,-28.421,-11.122,-32.481,-36.453,-44.021,-49.019,-40.143,-38.697,-55.921,21.531,-3.122,-30.817,-25.487,22.139,-35.272,-18.011,-17.803,-15.746,-13.229,530.516,-17.98,-300.059
0.3921688999998878,-20.452,-42.061,-261.214,9.555,310.498,-60.433,-8.735,-30.954,-7.525,-23.739,-34.367,-36.293,-44.872,-33.443,-40.195,-49.205,23.047,-1.582,-33.86,-26.487,20.58,-35.749,-22.604,-25.47,-27.513,-14.753,534.084,-24.109,-305.906
0.4055680999999822,-29.14,-50.216,-264.539,3.91,305.577,-63.446,-19.997,-23.238,-7.517,-23.716,-35.358,-36.256,-42.265,-38.02,-44.766,-49.668,24.561,-8.241,-39.973,-31.071,16.461,-45.447,-33.34,-36.715,-36.707,-25.496,533.55,-36.381,-312.773
0.4056325999999899,-35.771,-53.24,-259.151,12.103,304.247,-64.407,-21.002,-15.53,-9.559,-24.717,-32.249,-35.196,-43.76,-42.593,-49.332,-51.668,19.925,-10.282,-45.569,-33.601,9.784,-53.599,-39.454,-42.314,-42.306,-32.131,535.578,-41.467,-319.12
0.42094459999998435,-42.908,-56.261,-263.503,7.48,294.721,-67.929,-14.833,-31.396,-17.746,-28.79,-38.876,-40.796,-48.327,-39.476,-53.893,-56.227,15.295,-8.735,-51.671,-42.789,0.041,-60.718,-44.538,-48.931,-46.362,-36.197,532.993,-45.012,-322.899
0.4210174999998344,-54.136,-69.524,-274.51,-13.019,281.106,-80.669,-20.966,-50.32,-27.462,-41.057,-54.719,-52.026,-54.426,-41.998,-60.499,-68.466,12.206,-15.386,-58.279,-53.505,-7.132,-71.928,-55.252,-59.129,-53.488,-46.919,530.923,-56.75,-332.31
0.43559289999984685,-56.643,-77.139,-276.285,-18.129,277.751,-86.736,-37.851,-47.196,-31.021,-47.676,-57.738,-57.609,-58.983,-48.104,-64.025,-77.107,6.558,-20.494,-60.783,-52.427,-9.174,-76.979,-59.295,-62.143,-62.144,-50.971,540.638,-63.353,-338.638
0.43565769999986514,-45.316,-64.255,-270.885,-5.816,283.621,-78.964,-41.4,-37.415,-25.867,-41.993,-46.922,-53.453,-58.411,-46.007,-58.326,-71.394,8.088,-14.325,-57.136,-45.714,-4.041,-69.217,-52.063,-53.884,-60.032,-40.161,554.955,-52.019,-326.516
0.450601099999858,-36.561,-51.383,-266.516,2.899,292.559,-75.299,-32.649,-39.939,-22.255,-35.803,-41.752,-44.69,-53.23,-42.887,-54.681,-61.589,13.203,-7.651,-52.98,-44.644,3.135,-59.927,-45.351,-42.56,-50.239,-32.949,563.109,-39.16,-316.456
0.4522766000000047,-35.5,-52.868,-267.274,1.359,299.951,-78.298,-28.518,-44.51,-23.77,-38.329,-41.198,-42.596,-51.64,-43.869,-54.626,-61.015,8.579,-9.18,-50.366,-46.649,3.132,-56.793,-44.281,-39.443,-47.114,-32.404,571.255,-41.17,-322.799
0.4656918000000587,-33.415,-56.401,-272.13,-1.716,299.139,-80.269,-34.125,-40.88,-25.795,-44.438,-43.206,-49.214,-56.711,-44.849,-50.986,-60.954,2.935,-9.171,-48.266,-43.016,-0.457,-53.662,-46.286,-44.527,-51.678,-31.859,579.393,-50.35,-328.112
0.465756600000077,-37.48,-56.857,-275.956,-5.813,293.205,-81.213,-43.825,-38.789,-28.331,-47.468,-48.798,-50.702,-58.704,-46.342,-51.447,-58.332,3.957,-5.576,-45.656,-39.899,0.055,-52.584,-49.826,-49.093,-58.286,-34.389,581.887,-55.423,-329.833
0.48071829999980764,-44.615,-57.313,-276.192,-10.93,287.788,-81.132,-42.244,-45.411,-27.79,-46.908,-50.798,-48.089,-54.546,-45.271,-57.031,-57.761,5.49,-3.009,-43.561,-42.933,-0.969,-55.605,-48.751,-44.433,-58.228,-33.33,587.965,-54.855,-328.479
0.48078209999994215,-37.91,-55.719,-275.404,-9.894,286.476,-80.538,-24.271,-48.951,-23.664,-46.861,-49.211,-50.09,-53.98,-41.639,-56.974,-58.728,8.558,-1.469,-43.005,-45.452,-2.505,-54.525,-39.993,-37.729,-48.436,-26.636,597.111,-49.677,-319.441
0.49566760000016075,-30.7,-52.589,-274.104,-2.712,290.8,-78.921,-19.636,-39.169,-23.128,-43.74,-48.137,-49.016,-56.487,-45.696,-54.868,-59.694,6.501,-5.566,-44.499,-44.381,1.083,-52.933,-35.855,-35.13,-39.166,-24.048,601.125,-41.43,-317.072
0.49572940000007293,-36.305,-51.512,-274.854,-0.148,294.096,-74.744,-26.788,-26.834,-22.08,-37.549,-46.552,-47.43,-54.381,-51.798,-58.911,-64.757,-1.191,-9.659,-47.016,-47.923,-0.455,-56.467,-39.918,-28.947,-35.541,-25.049,603.598,-38.315,-319.317
0.5106621999998424,-45.49,-58.633,-279.19,-7.832,286.117,-75.693,-21.639,-30.906,-18.984,-39.048,-50.091,-58.141,-55.352,-49.697,-66.537,-76.988,-3.751,-7.6,-53.629,-57.097,-15.311,-66.144,-47.562,-31.479,-40.116,-30.659,601.457,-48.523,-317.973
0.5124520999997912,-56.203,-71.382,-287.108,-21.145,271.998,-85.352,-25.203,-48.806,-25.625,-49.768,-65.411,-73.964,-66.567,-53.746,-74.667,-93.305,-11.944,-9.641,-65.871,-66.774,-29.128,-79.398,-60.322,-52.965,-58.007,-45.998,591.122,-70.504,-329.438
0.5257788999997501,-63.831,-76.433,-289.895,-25.734,268.14,-88.852,-41.059,-51.831,-32.26,-51.767,-69.444,-76.964,-73.673,-60.864,-75.617,-96.797,-23.203,-13.73,-69.904,-68.244,-27.562,-79.831,-64.361,-62.133,-68.195,-53.636,591.555,-83.753,-342.941
0.5258441999999377,-57.108,-70.209,-282.945,-14.95,274.02,-83.128,-38.457,-36.41,-25.567,-47.105,-56.054,-65.616,-65.914,-51.582,-66.32,-81.844,-11.909,-6.032,-58.563,-57.929,-17.288,-64.382,-54.05,-46.702,-59.93,-43.849,606.333,-78.034,-335.938
0.5407860000000255,-50.391,-69.114,-280.613,-10.324,276.307,-84.07,-34.32,-35.348,-25.03,-49.107,-52.924,-56.841,-59.701,-41.796,-63.18,-69.979,-2.163,0.634,-49.795,-51.724,-11.636,-58.17,-50.41,-43.581,-60.382,-38.682,613.924,-71.808,-334.065
0.556069799999932,-50.852,-71.607,-280.844,-13.9,276.031,-87.572,-39.921,-47.609,-33.714,-50.082,-58.507,-57.809,-63.74,-47.902,-66.703,-70.421,-12.919,-5.514,-49.233,-53.209,-9.575,-60.673,-52.409,-52.247,-69.031,-40.692,616.896,-71.224,-340.391
0.5561351999999715,-39.531,-61.289,-266.219,-5.689,284.464,-79.8,-29.635,-42.438,-28.557,-42.347,-48.714,-51.604,-61.114,-45.293,-58.952,-63.178,-5.222,-2.435,-43.548,-45.983,-2.393,-51.391,-41.086,-41.949,-62.814,-34.504,630.624,-64.493,-323.657
0.5707750000001397,-30.27,-51.494,-254.17,5.075,292.889,-72.035,-19.359,-32.662,-21.356,-40.256,-38.932,-39.257,-50.807,-28.854,-49.671,-49.795,16.3,9.351,-35.82,-36.204,3.245,-45.704,-33.36,-33.197,-57.628,-29.346,643.825,-58.793,-311.038
0.5708415999997669,-38.949,-58.102,-263.649,-2.615,286.961,-75.549,-27.537,-39.801,-27.995,-45.851,-44.528,-40.754,-51.781,-26.263,-51.158,-48.208,14.747,8.317,-37.321,-40.266,1.192,-50.781,-41.011,-42.386,-62.694,-31.366,642.669,-65.907,-321.485
0.5857367999997223,-40.447,-60.606,-267.484,-9.785,281.038,-74.449,-26.485,-40.786,-26.43,-42.731,-42.947,-43.275,-55.315,-31.872,-48.546,-48.16,16.781,7.284,-37.796,-42.787,4.265,-45.095,-37.896,-37.733,-53.41,-26.724,647.662,-64.304,-318.09
0.5858005999998568,-26.062,-50.811,-255.946,-0.553,294.077,-64.128,-16.212,-23.839,-13.083,-30.906,-28.047,-28.375,-43.477,-20.57,-41.325,-35.304,37.769,19.572,-27.0,-30.449,16.044,-32.242,-20.952,-16.178,-33.376,-14.402,669.043,-46.821,-300.353
0.6007742000001599,-20.4,-46.662,-255.178,7.644,310.689,-58.941,-6.974,-8.958,-5.386,-20.628,-19.31,-14.514,-31.138,-6.717,-39.234,-24.511,42.342,26.725,-18.264,-22.222,21.151,-29.649,-13.759,-5.916,-24.121,-7.215,681.182,-34.479,-298.004
0.6008338000001459,-20.892,-45.591,-254.41,13.272,315.502,-55.808,13.013,-0.24,4.866,-11.899,-16.729,-14.5,-28.545,-7.735,-34.072,-24.486,37.689,25.161,-17.221,-23.224,22.154,-27.57,-14.77,-3.861,-23.072,-6.696,684.599,-30.858,-297.193
0.6157626999997774,-17.285,-38.885,-243.397,22.48,317.236,-48.58,25.295,6.932,17.156,-5.227,-13.638,-12.436,-25.443,-10.801,-30.452,-22.925,39.701,27.185,-16.692,-22.688,23.669,-23.956,-15.267,-2.832,-22.537,-10.788,696.722,-25.192,-292.285
0.6158190000001014,-19.317,-37.309,-241.617,25.532,319.48,-46.995,19.635,9.487,16.115,-5.734,-15.162,-13.448,-26.954,-10.278,-38.106,-23.414,30.952,27.67,-17.699,-24.715,18.01,-27.518,-17.301,-10.002,-24.051,-14.363,704.223,-22.605,-295.579
0.6307078999998339,-24.933,-37.784,-237.277,25.506,319.16,-45.923,25.25,12.039,15.074,-10.339,-17.196,-20.607,-33.075,-12.829,-42.166,-29.026,23.236,29.179,-19.219,-25.715,14.406,-28.515,-17.796,-12.553,-24.027,-11.787,702.494,-20.021,-290.673
0.6307637999998406,-18.76,-28.525,-220.133,36.751,323.964,-39.73,35.471,18.175,22.231,-7.255,-13.08,-16.488,-30.481,-9.23,-34.44,-24.899,30.898,37.859,-16.126,-18.005,25.15,-21.315,-12.143,-2.807,-21.442,-6.14,713.062,-7.706,-275.013
0.6458377999997538,-5.934,-21.837,-215.815,42.862,333.374,-38.153,27.751,20.718,20.672,0.437,-6.919,-4.689,-24.302,0.001,-31.331,-10.529,34.965,44.482,-10.986,-10.814,35.883,-15.658,-9.057,0.27,-23.982,-3.572,727.206,2.036,-270.127
0.6459033999999519,-1.83,-23.352,-223.284,37.184,335.602,-40.676,22.6,20.697,16.553,-0.075,-1.277,-1.61,-23.253,2.05,-32.325,-6.932,36.979,49.048,-9.951,-9.779,37.384,-13.593,-11.61,-2.292,-29.593,-1.007,731.09,2.546,-272.419
0.6608769999998003,-3.365,-19.742,-219.987,34.585,332.705,-40.123,28.213,17.603,18.586,-5.198,0.774,-1.096,-21.181,-0.001,-27.169,-9.487,42.578,54.122,-10.453,-8.232,40.933,-12.042,-11.086,2.834,-30.588,3.092,738.043,8.691,-270.097
0.6609460999998191,2.786,-11.525,-221.303,33.526,333.909,-38.546,24.599,12.462,17.03,-4.681,-0.764,1.467,-17.574,3.072,-23.556,-3.842,37.412,51.506,-7.881,-6.687,42.941,-11.518,-9.025,4.88,-30.045,2.577,747.551,17.904,-268.29
0.6769386999999369,12.517,-5.879,-229.791,35.03,340.748,-34.409,18.939,18.085,21.624,3.521,4.36,6.588,-15.507,5.119,-22.508,3.334,34.301,51.455,-0.701,-3.094,43.923,-6.383,-2.869,4.363,-27.966,4.624,750.902,18.911,-267.509
0.6770031999999446,17.116,0.275,-225.975,44.728,350.653,-29.764,25.58,32.412,33.385,10.689,14.089,15.291,-8.831,5.626,-16.85,8.454,40.927,60.113,9.546,7.155,52.076,3.869,9.942,15.629,-14.618,14.353,758.348,21.966,-264.68
0.6909249999998792,14.537,0.275,-223.188,46.221,350.303,-33.321,28.628,31.355,29.766,10.166,13.563,14.763,-4.724,1.522,-15.296,12.544,38.324,59.028,15.684,11.246,55.098,8.476,18.129,22.274,-0.771,14.851,764.762,21.944,-266.465
0.6909904999997707,6.838,-10.996,-228.088,33.367,335.608,-39.435,21.427,15.954,17.441,4.009,5.865,4.502,-12.404,-4.628,-22.965,6.896,31.114,50.772,12.082,6.624,45.309,5.394,16.062,14.054,-2.82,5.102,759.899,10.139,-272.858
0.705933499999901,3.245,-18.158,-217.101,28.21,329.637,-39.395,15.77,12.352,16.398,1.443,1.248,0.399,-20.076,-5.135,-27.553,-1.82,33.132,51.746,6.435,4.569,40.653,1.802,14.509,13.016,-6.403,3.56,757.602,6.542,-271.561
0.7060007000000041,7.34,-9.943,-190.756,36.891,336.479,-41.405,16.267,20.024,17.407,1.442,0.734,2.448,-19.544,-2.569,-24.964,-1.306,34.635,51.182,6.428,5.076,45.223,1.8,13.469,19.15,0.263,8.68,761.967,17.294,-255.408
0.7209047999999711,9.894,-1.736,-169.561,44.027,334.606,-43.413,15.226,17.443,14.828,-2.658,3.295,2.958,-19.012,-4.615,-22.89,2.794,34.088,47.032,7.446,5.584,48.764,4.36,12.431,19.644,4.362,11.232,767.866,26.499,-236.709
0.7209695000001375,8.86,-2.759,-155.047,42.958,325.05,-41.833,9.063,5.642,13.788,-4.193,2.78,3.467,-21.042,-5.123,-22.355,5.352,33.03,50.059,3.341,6.603,49.227,6.917,13.956,21.673,2.308,13.783,776.319,28.009,-227.251
0.7359467000001132,8.339,-5.83,-142.084,39.841,324.725,-46.402,-1.704,2.05,8.651,-3.676,-2.858,1.415,-23.07,-3.581,-22.332,7.396,29.411,49.496,0.776,5.571,46.617,4.349,10.356,19.602,-0.768,10.183,777.08,24.907,-218.315
0.7360101999997823,3.72,-6.336,-127.597,47.486,330.548,-50.966,-11.437,9.733,5.057,-7.771,-0.806,-0.636,-24.072,-3.065,-23.847,5.34,31.43,44.324,0.775,5.053,41.959,-0.779,4.71,9.849,-4.354,1.976,769.13,21.808,-201.702
0.7499683000000914,0.13,-8.379,-111.588,54.611,331.242,-47.329,-16.548,9.723,6.588,-10.837,2.268,1.414,-24.048,-1.013,-26.897,3.797,34.473,46.329,-0.763,5.561,40.893,-2.315,5.73,8.302,-1.788,2.998,771.947,21.274,-189.718
0.7649350000001505,4.74,-9.908,-102.255,44.822,329.374,-48.819,-12.433,-5.144,2.996,-11.338,-4.906,-1.661,-25.561,-1.524,-29.431,3.281,28.291,47.307,-2.811,1.457,41.364,-2.825,5.724,10.343,1.8,6.069,776.811,18.179,-187.991
0.7666736999999557,9.859,-5.287,-93.444,42.216,330.069,-54.917,-7.298,-11.286,1.968,-12.352,-6.951,-6.27,-28.097,-4.084,-27.353,-0.82,25.189,41.624,-2.808,-1.619,41.835,-6.408,2.132,3.673,-3.325,2.989,777.059,18.673,-178.581
0.7800294999997277,10.873,3.428,-76.956,58.568,333.325,-50.764,-12.926,1.533,9.651,-8.241,0.741,-0.629,-22.433,0.531,-25.789,1.23,29.774,44.144,-3.318,1.969,45.892,-7.939,3.667,3.669,-3.321,5.548,784.991,28.901,-155.349
0.7800950999999259,12.399,3.937,-68.683,59.021,337.602,-50.713,-22.134,3.068,9.641,-6.183,-0.797,3.47,-19.337,3.092,-29.861,7.888,30.769,51.272,-3.315,0.43,45.333,-5.882,5.713,8.276,7.44,10.153,792.403,33.483,-143.923
0.7954578999997466,11.362,-0.166,-71.688,43.593,341.876,-58.86,-25.186,-10.255,7.07,-9.251,-2.333,0.393,-21.879,0.527,-31.881,9.417,34.324,51.221,-1.774,-2.644,40.165,-2.802,6.219,6.731,12.044,7.581,789.561,30.375,-144.804
0.7955206999999973,9.302,3.933,-65.981,47.648,346.657,-57.264,-24.649,-5.634,15.772,-5.656,3.817,2.954,-17.759,4.625,-28.775,11.457,40.438,50.145,0.277,1.969,42.174,0.275,8.262,9.798,14.593,8.086,790.308,36.493,-136.462
0.8100574999998571,4.682,4.441,-60.792,55.285,343.236,-56.182,-16.939,5.13,14.732,-4.625,-2.847,0.902,-18.766,5.645,-34.381,8.884,34.762,47.021,-4.334,-3.156,41.62,-7.922,1.082,6.202,17.14,5.004,790.03,32.87,-135.301
0.8101179999998749,-11.717,-12.469,-71.489,39.86,327.524,-67.909,-5.652,-5.633,-2.701,-20.502,-20.262,-18.567,-34.628,-7.168,-46.642,-11.617,23.456,33.142,-20.212,-19.546,26.209,-27.382,-16.85,-13.272,3.803,-9.346,777.457,8.759,-155.658
0.8250373999999283,-21.951,-18.092,-82.176,28.55,316.438,-70.915,-4.621,-8.701,-4.748,-28.679,-22.804,-29.819,-40.741,-16.382,-49.67,-24.413,19.847,20.301,-31.974,-24.65,16.449,-36.576,-27.592,-20.943,-9.008,-16.508,765.409,1.065,-163.187
0.8267491000001428,-9.634,-4.242,-83.119,35.694,323.806,-61.11,-8.715,9.75,7.552,-17.379,-16.121,-19.543,-28.918,-9.194,-46.034,-13.118,20.339,22.842,-26.307,-18.99,24.117,-29.367,-23.466,-10.164,-2.852,-9.832,764.131,16.946,-155.339
0.8401378999997178,-2.452,-1.164,-86.622,43.855,333.216,-57.463,0.003,13.839,10.618,-10.19,-15.592,-12.351,-23.766,-3.037,-44.963,-5.932,20.831,29.48,-19.109,-17.434,27.679,-24.727,-14.733,-10.154,0.737,-8.285,770.54,20.003,-160.819
0.8402028999998947,-12.696,-8.335,-92.17,46.372,330.321,-62.528,12.298,4.604,6.509,-17.352,-19.163,-19.511,-28.865,-8.669,-46.967,-14.636,21.835,23.815,-26.774,-19.978,23.04,-29.313,-14.718,-16.804,-5.411,-11.863,778.478,8.712,-169.88
0.8552730999999767,-17.806,-9.351,-96.689,43.252,322.306,-68.613,16.897,3.574,2.404,-26.044,-25.804,-29.738,-35.496,-13.271,-51.531,-22.306,17.715,11.496,-32.895,-27.13,18.919,-34.407,-21.876,-18.324,-5.918,-12.364,777.188,2.556,-170.734
0.8553349999997408,-16.251,-9.342,-99.666,36.549,319.935,-69.569,14.83,1.009,-2.721,-28.579,-30.901,-31.757,-39.047,-13.77,-53.529,-23.82,13.086,8.922,-25.177,-29.665,18.388,-31.299,-19.805,-16.768,-2.326,-10.302,776.923,3.065,-176.199
0.8701379999997698,-10.087,-6.771,-101.103,39.074,326.275,-64.377,6.106,-3.602,-0.669,-23.94,-23.185,-24.553,-34.909,-15.294,-46.815,-19.186,14.098,17.11,-19.005,-19.901,26.054,-21.534,-5.953,-7.53,3.824,-2.607,788.441,8.698,-179.609
0.870202000000063,-0.343,0.408,-108.175,43.646,336.195,-63.288,-4.658,-1.55,1.381,-18.28,-14.453,-19.405,-32.313,-15.791,-43.182,-10.97,15.621,18.63,-20.522,-15.783,35.762,-16.389,0.713,1.699,10.48,5.08,796.874,14.837,-178.405
0.8851036000000931,-2.905,0.408,-118.313,42.065,337.395,-65.786,-11.826,-4.11,-5.281,-21.336,-18.025,-22.46,-37.404,-11.164,-50.312,-8.397,16.63,15.538,-17.428,-21.915,34.701,-18.934,-3.386,-1.889,7.396,3.538,796.077,14.822,-187.448
0.887036199999784,-12.123,-2.154,-119.731,47.146,332.447,-63.671,-14.888,-6.155,-3.738,-23.876,-21.593,-23.462,-35.317,-6.542,-51.798,-10.438,22.248,22.182,-11.263,-21.381,33.642,-19.428,-4.919,-5.473,3.802,-2.613,796.818,13.782,-195.457
0.9002707999998165,-14.16,-3.689,-119.612,56.32,330.066,-63.095,-10.262,1.536,5.487,-19.242,-17.985,-19.34,-28.109,-6.023,-46.623,-8.378,24.788,26.771,-12.789,-18.798,38.219,-19.92,-4.915,-2.906,8.922,-5.684,798.071,10.695,-194.75
0.9003348999999616,-18.245,-9.833,-126.664,51.653,328.199,-68.155,-1.03,4.096,1.895,-20.759,-20.529,-19.321,-32.692,-9.603,-51.7,-8.882,19.127,18.547,-15.85,-21.853,37.669,-23.999,-8.496,-4.952,8.913,-7.728,797.785,2.999,-199.166
0.9152466999998978,-24.886,-15.971,-130.636,40.843,324.797,-67.575,-4.103,-0.007,-3.23,-27.911,-28.193,-25.449,-36.758,-14.717,-57.796,-15.533,14.498,12.893,-16.346,-23.88,35.069,-26.537,-13.61,-11.608,2.244,-9.769,794.938,-1.102,-206.139
0.9305650000001151,-30.497,-22.615,-133.579,37.729,315.763,-68.019,-13.833,-4.105,-1.69,-29.42,-32.775,-32.596,-33.135,-15.214,-57.226,-18.079,11.921,12.88,-21.965,-27.955,30.424,-33.682,-22.818,-21.33,-3.394,-17.444,784.921,-9.81,-212.593
0.9306256999998368,-43.274,-36.937,-147.278,35.642,300.59,-77.173,-13.307,-10.761,-6.299,-29.903,-38.89,-36.15,-35.663,-15.712,-63.316,-20.623,8.323,8.257,-30.14,-33.562,22.709,-44.407,-30.992,-33.092,-11.587,-29.722,774.403,-27.731,-222.626
0.9452071999999134,-50.403,-47.146,-161.475,22.798,295.166,-84.268,-12.781,-15.873,-12.952,-35.508,-44.487,-36.626,-41.775,-20.819,-71.962,-26.238,8.315,5.687,-31.647,-34.041,23.198,-45.387,-31.986,-36.645,-17.723,-32.254,770.042,-36.413,-230.601
0.9452651999999944,-47.791,-55.296,-170.023,4.845,297.433,-88.794,-19.941,-22.005,-15.501,-41.62,-45.979,-41.712,-44.295,-26.946,-70.865,-28.773,7.794,4.144,-34.177,-37.593,26.761,-44.83,-35.028,-38.657,-19.755,-28.123,764.149,-37.913,-238.567
0.9602758000000904,-48.256,-58.827,-173.952,2.791,296.623,-89.73,-23.507,-29.155,-16.51,-43.116,-45.933,-44.232,-45.788,-26.919,-66.696,-26.695,5.737,2.603,-34.655,-40.117,27.247,-47.346,-37.042,-43.229,-24.346,-30.657,762.36,-41.461,-247.038
0.9603378000001612,-38.986,-41.35,-169.167,21.743,308.622,-75.808,-19.385,-15.806,-6.76,-31.802,-33.08,-31.38,-38.057,-18.695,-58.433,-15.397,12.392,10.798,-25.399,-29.831,40.027,-37.565,-26.247,-32.94,-17.662,-24.478,774.918,-28.612,-239.106
0.9753209000000425,-22.553,-20.304,-164.387,33.505,326.756,-65.486,-20.39,2.653,0.932,-21.524,-20.239,-23.152,-28.798,-12.016,-52.226,-5.136,19.039,17.447,-19.226,-23.653,51.258,-26.769,-14.95,-17.025,-1.762,-9.597,786.438,-11.165,-226.059
0.975383999999849,-23.043,-24.382,-176.006,25.274,317.72,-77.204,-31.641,-7.596,-10.852,-31.236,-29.952,-30.813,-36.453,-16.103,-57.81,-11.791,13.385,9.232,-25.354,-32.339,44.547,-32.378,-17.496,-19.058,-0.736,-12.149,781.041,-14.74,-232.493
0.9903103999999985,-26.094,-28.968,-191.199,17.052,305.619,-85.836,-40.831,-24.495,-17.502,-40.426,-36.582,-32.832,-42.052,-17.624,-59.289,-17.414,10.81,6.662,-25.841,-33.331,44.502,-34.907,-19.528,-22.112,-2.785,-19.309,774.112,-15.238,-239.945
0.9903802999997424,-12.748,-16.132,-191.52,18.572,318.121,-79.09,-35.154,-16.786,-6.213,-28.603,-22.201,-25.114,-32.276,-12.483,-52.057,-5.102,17.459,14.34,-20.18,-27.662,55.728,-26.675,-13.361,-12.356,9.514,-10.068,779.486,0.659,-230.996
1.0052510000000439,-8.636,-7.406,-183.644,23.676,325.488,-76.962,-26.41,-7.547,-3.646,-22.939,-19.618,-23.552,-30.707,-15.544,-53.03,-2.023,15.392,12.788,-20.672,-31.221,54.648,-24.087,-8.224,-6.709,17.189,-3.398,794.076,5.781,-226.154
1.005309699999998,-13.238,-9.448,-181.411,29.8,319.527,-79.959,-30.482,-7.54,-6.716,-31.625,-27.795,-25.066,-36.312,-23.213,-55.538,-9.705,11.279,8.677,-23.213,-33.239,54.593,-22.013,-5.654,-4.653,14.098,-4.932,803.528,0.653,-230.539
1.0203020999997534,-11.688,-7.902,-181.742,33.357,321.769,-78.342,-31.476,-7.532,-4.66,-33.643,-25.718,-28.627,-37.813,-20.629,-50.872,-7.646,12.804,10.205,-25.239,-29.619,62.223,-18.918,-8.723,-2.599,13.059,-0.828,800.675,-0.885,-229.284
1.020365800000036,-17.312,-8.406,-178.998,28.713,319.398,-81.337,-21.198,-13.672,-8.241,-34.634,-29.791,-39.356,-44.435,-22.145,-55.432,-9.176,6.644,6.097,-29.824,-34.2,56.526,-25.046,-17.423,-9.769,12.021,-1.34,797.313,-7.544,-230.079
1.0353243999998085,-29.078,-15.57,-181.381,22.024,308.832,-89.965,-20.153,-20.831,-14.893,-41.771,-40.519,-44.44,-51.563,-32.369,-64.086,-17.876,1.514,1.992,-32.868,-39.289,46.223,-31.681,-19.967,-17.956,8.423,-9.535,803.688,-16.246,-236.509
1.0353832999999213,-29.049,-21.19,-190.421,22.002,305.962,-90.387,-28.842,-16.199,-14.366,-41.217,-40.479,-39.785,-47.413,-29.775,-61.46,-13.759,7.148,4.552,-31.811,-36.689,50.275,-31.65,-18.923,-15.376,7.902,-11.063,807.495,-15.717,-238.322
1.0507400000001326,-30.044,-24.242,-197.915,20.955,305.656,-90.297,-29.325,-16.183,-16.913,-43.225,-41.975,-40.77,-49.414,-24.11,-60.374,-12.209,6.628,1.986,-35.365,-39.726,49.713,-36.741,-27.613,-16.898,1.747,-13.613,800.027,-15.702,-242.182
1.0508012000000235,-42.822,-32.415,-208.476,10.176,296.641,-99.941,-28.271,-25.901,-27.142,-54.965,-51.155,-52.0,-59.611,-31.77,-69.023,-26.541,-3.112,-7.75,-46.088,-49.932,37.368,-49.0,-37.319,-31.226,-12.087,-21.284,789.493,-27.981,-257.309
1.0653419000000213,-51.488,-45.19,-221.587,-0.593,287.123,-103.939,-37.465,-25.875,-32.75,-56.96,-55.714,-60.657,-58.527,-37.374,-77.151,-35.224,-7.207,-14.403,-52.702,-55.518,31.695,-56.123,-41.38,-41.953,-18.223,-26.898,786.142,-42.298,-267.298
1.0654012999998486,-50.412,-50.781,-224.952,-2.129,284.274,-97.175,-43.575,-16.627,-25.545,-48.193,-54.122,-57.523,-53.345,-34.263,-77.586,-33.652,-8.225,-13.876,-50.6,-55.462,32.688,-55.042,-41.339,-38.837,-14.106,-28.921,788.43,-46.354,-266.006
1.0804244000000836,-49.849,-52.779,-225.752,-6.738,283.99,-98.103,-35.847,-19.172,-16.298,-50.194,-52.018,-52.342,-54.317,-35.765,-71.873,-32.593,-9.753,-9.764,-46.964,-54.382,33.167,-51.401,-37.711,-34.187,-11.531,-27.867,787.642,-45.795,-270.351
1.0804921999997532,-51.849,-61.435,-235.26,-19.539,282.681,-106.201,-31.2,-32.473,-21.405,-56.292,-52.479,-55.876,-52.213,-37.266,-71.289,-31.536,-8.719,-9.754,-47.941,-55.352,35.183,-52.374,-36.137,-36.715,-15.105,-26.815,778.145,-49.336,-276.228
1.095472299999983,-53.334,-67.522,-242.709,-24.13,279.325,-107.632,-42.44,-38.588,-26.507,-51.625,-52.938,-56.332,-49.599,-32.618,-79.927,-30.48,-6.661,-11.793,-48.406,-57.346,38.222,-53.859,-39.687,-36.166,-17.139,-30.886,770.707,-51.336,-274.927
1.1104357999997774,-49.182,-58.745,-241.442,-16.421,284.681,-103.938,-53.668,-28.816,-18.796,-43.889,-47.25,-46.542,-49.55,-29.512,-78.31,-28.4,-5.63,-7.171,-43.746,-53.703,41.258,-49.707,-37.598,-33.056,-16.61,-31.368,778.133,-48.723,-274.14
1.1104989000000387,-37.862,-43.829,-235.565,-5.646,297.716,-98.199,-51.565,-17.004,-16.215,-38.209,-38.494,-37.786,-43.352,-26.409,-65.936,-16.589,-1.013,-3.065,-36.53,-45.964,49.413,-43.509,-28.851,-29.949,-13.007,-21.09,792.212,-42.014,-269.767
1.1254304999997657,-28.09,-35.076,-226.108,2.556,306.64,-91.441,-40.243,-17.499,-17.736,-34.073,-31.795,-31.601,-34.6,-22.796,-61.772,-2.74,8.721,-1.013,-30.858,-40.283,59.098,-35.781,-24.724,-22.234,-7.871,-12.872,799.104,-32.75,-261.813
1.1254887999998573,-28.575,-32.992,-222.808,5.628,307.358,-91.349,-29.444,-21.58,-10.034,-33.014,-30.739,-27.471,-36.102,-21.749,-62.222,0.849,12.811,6.161,-25.192,-36.656,61.6,-28.061,-21.625,-18.626,-8.888,-13.884,801.379,-30.156,-262.063
1.1405045999999857,-30.595,-31.422,-227.708,5.622,305.514,-93.82,-28.902,-18.997,-5.925,-30.932,-32.757,-29.492,-38.628,-21.215,-60.111,1.873,9.212,10.765,-22.093,-34.058,60.514,-26.496,-18.017,-20.656,-11.953,-14.895,808.774,-37.298,-266.412
1.1422985999997763,-23.392,-25.755,-227.993,13.301,309.819,-87.578,-32.459,-10.781,-5.407,-25.265,-26.065,-26.389,-32.441,-20.169,-58.514,6.994,10.74,9.73,-21.559,-31.975,67.114,-24.42,-14.413,-15.513,-4.256,-11.293,820.261,-33.163,-261.535
1.1554983000000902,-16.197,-18.557,-222.129,21.484,319.755,-79.806,-26.792,-0.524,1.258,-22.166,-15.792,-16.629,-27.798,-19.124,-55.381,11.598,17.901,12.794,-16.926,-29.894,73.706,-19.272,-9.276,-10.374,0.871,-7.696,822.515,-23.396,-260.249
1.1555607000000236,-20.791,-21.1,-228.567,15.315,317.386,-82.8,-24.203,-0.524,-0.792,-25.218,-21.412,-22.248,-33.406,-18.593,-55.326,6.975,14.297,11.757,-19.471,-36.012,65.948,-24.376,-11.316,-17.024,-10.4,-12.299,815.032,-34.131,-271.772
1.1715217000000848,-33.066,-33.374,-242.171,0.443,300.675,-91.939,-33.913,-10.77,-9.5,-33.902,-36.247,-37.595,-41.057,-24.722,-65.004,-7.888,1.988,-1.575,-35.845,-50.833,52.05,-36.647,-25.649,-26.228,-23.71,-18.434,812.168,-51.003,-282.771
1.171580400000039,-37.131,-38.464,-243.978,-3.656,295.764,-94.921,-32.854,-9.734,-6.929,-39.503,-39.797,-42.168,-43.577,-29.82,-71.599,-19.151,-3.137,-11.307,-41.445,-56.417,49.436,-42.758,-30.234,-29.276,-24.199,-19.441,816.991,-51.976,-285.562
1.1855580000001282,-31.971,-34.327,-236.562,4.545,305.202,-91.24,-19.502,-6.138,-5.898,-37.415,-36.171,-40.589,-44.046,-23.642,-69.991,-15.546,0.964,-10.784,-33.719,-51.238,54.51,-41.691,-22.007,-28.222,-20.588,-19.421,822.322,-49.875,-284.251
1.1856198999998924,-35.525,-37.879,-237.35,3.003,300.286,-95.247,-28.704,-22.526,-18.187,-42.5,-40.234,-44.134,-48.613,-22.594,-71.97,-13.481,3.012,-11.285,-38.296,-50.674,52.919,-40.625,-24.034,-25.632,-23.129,-22.988,823.036,-55.461,-287.553
1.200612799999817,-48.81,-51.161,-245.822,-15.955,280.518,-108.472,-56.852,-39.922,-29.952,-57.827,-52.489,-49.725,-57.786,-31.793,-77.021,-23.202,-5.187,-14.86,-47.479,-54.722,44.156,-45.195,-34.769,-31.754,-32.328,-26.551,815.041,-64.627,-296.487
1.2024046999999882,-53.884,-58.795,-250.187,-28.747,275.114,-110.925,-65.504,-36.808,-31.972,-60.331,-59.609,-55.311,-57.728,-32.274,-79.506,-26.252,-11.33,-15.358,-45.895,-56.204,38.477,-51.297,-34.734,-38.895,-38.443,-29.086,809.615,-74.808,-301.826
1.2156010999997306,-52.293,-58.223,-249.936,-22.058,278.938,-100.568,-57.242,-33.697,-29.89,-52.074,-54.938,-55.768,-51.523,-29.168,-78.914,-20.078,-6.196,-14.83,-46.361,-59.734,38.438,-48.172,-34.187,-36.294,-36.355,-29.057,815.466,-77.807,-298.963
1.215665899999749,-55.827,-57.653,-246.613,-19.987,274.56,-101.492,-51.037,-41.348,-29.86,-53.558,-52.834,-52.639,-56.082,-32.725,-78.835,-23.644,-6.189,-17.889,-48.876,-61.211,37.375,-48.124,-40.813,-36.258,-36.319,-30.053,816.187,-75.168,-294.053
1.2306565999997474,-55.771,-59.132,-241.755,-26.627,274.286,-110.099,-44.838,-39.258,-27.781,-56.579,-57.392,-52.074,-58.075,-32.18,-82.342,-26.695,-9.769,-20.433,-43.192,-56.539,37.85,-52.687,-37.698,-38.783,-38.844,-31.047,808.198,-75.605,-291.198
1.2307181000001037,-48.031,-58.561,-238.44,-23.014,283.233,-104.866,-37.621,-28.46,-20.581,-48.838,-52.212,-50.485,-48.283,-29.073,-81.235,-17.446,-6.686,-17.338,-37.514,-53.409,44.472,-44.949,-28.439,-31.06,-32.658,-26.405,813.026,-73.48,-287.832
1.2455916999997498,-44.397,-52.867,-236.152,-12.233,284.999,-95.54,-39.12,-26.895,-16.975,-44.178,-42.938,-43.262,-48.235,-31.094,-72.957,-13.33,-7.704,-15.272,-40.55,-54.38,47.502,-39.781,-32.509,-27.955,-27.502,-22.28,828.094,-68.796,-286.008
1.2606003000000783,-45.377,-47.691,-230.793,-8.122,287.788,-96.469,-44.716,-28.405,-20.031,-44.646,-42.895,-41.169,-53.822,-31.575,-73.397,-18.44,-12.307,-17.818,-43.583,-55.35,42.331,-48.451,-40.161,-34.075,-31.573,-26.357,830.34,-69.239,-286.746
1.2606557999997676,-42.77,-44.057,-224.927,-3.503,296.722,-92.274,-42.11,-23.253,-17.45,-41.528,-41.827,-41.128,-44.547,-28.469,-77.934,-13.811,-5.122,-18.825,-40.466,-52.733,43.826,-46.353,-36.022,-29.942,-32.566,-24.793,828.485,-65.584,-282.361
1.2623195000001033,-36.067,-34.791,-218.554,5.722,300.011,-82.96,-34.383,-17.082,-10.772,-37.9,-34.101,-34.427,-37.842,-26.904,-68.122,-3.039,2.055,-17.781,-34.278,-47.045,51.979,-34.524,-28.302,-20.178,-28.947,-15.035,838.927,-53.735,-273.37
1.2756721000000653,-31.42,-25.535,-215.262,12.889,301.76,-86.463,-29.738,-13.991,-9.225,-36.837,-30.481,-33.368,-44.464,-23.803,-63.956,-3.036,2.053,-15.202,-32.706,-46.486,50.902,-37.563,-28.786,-23.744,-29.431,-12.97,846.798,-50.095,-270.022
1.275734100000136,-36.0,-28.583,-223.243,10.314,302.483,-95.598,-31.758,-15.514,-11.777,-39.362,-37.11,-42.556,-46.469,-24.292,-77.724,-11.742,1.027,-14.675,-40.358,-54.636,41.63,-46.235,-35.417,-33.967,-35.549,-21.154,839.803,-61.316,-277.437
1.290733199999977,-46.722,-41.363,-238.389,-1.479,288.861,-98.064,-40.435,-24.208,-18.425,-49.569,-48.856,-49.686,-49.496,-31.952,-83.282,-19.415,-7.171,-23.369,-47.49,-60.729,32.367,-50.287,-42.554,-40.081,-45.759,-30.355,831.279,-75.087,-290.992
1.2907930000001215,-54.872,-50.03,-248.397,-13.261,277.301,-102.065,-45.518,-27.258,-27.628,-58.741,-57.004,-53.222,-59.693,-37.556,-81.149,-23.494,-14.336,-30.518,-47.955,-62.206,27.724,-54.335,-44.56,-41.577,-50.837,-33.911,831.984,-80.135,-301.972
1.3061056999999892,-54.305,-47.931,-250.198,-12.223,283.171,-106.061,-39.325,-22.62,-29.138,-59.194,-55.923,-57.78,-62.195,-38.543,-84.142,-26.032,-10.736,-28.951,-47.395,-64.705,30.257,-51.719,-40.93,-37.437,-45.663,-29.778,838.325,-78.006,-302.694
1.3207314000001134,-47.079,-42.248,-247.386,-5.551,286.474,-100.32,-31.088,-26.695,-26.035,-56.061,-54.33,-59.771,-60.083,-41.578,-84.058,-27.543,-12.262,-36.606,-51.958,-67.202,32.276,-46.544,-39.864,-35.863,-43.568,-25.65,840.048,-76.391,-298.293
1.320788999999877,-43.958,-44.255,-243.553,-7.594,282.089,-95.609,-29.008,-34.866,-26.521,-57.03,-56.837,-60.224,-60.023,-42.561,-83.461,-30.589,-18.398,-47.841,-54.98,-68.671,28.146,-51.621,-44.947,-41.463,-52.234,-28.698,838.183,-79.388,-296.458
1.3358508000001166,-47.5,-50.358,-241.26,-14.247,284.369,-100.124,-28.467,-29.708,-23.933,-56.973,-55.755,-58.627,-55.865,-37.395,-87.476,-30.558,-13.256,-42.157,-50.827,-66.554,26.581,-54.643,-47.976,-43.47,-57.817,-30.206,842.468,-83.407,-295.137
1.3359166999998706,-44.891,-46.722,-236.92,-9.622,288.695,-99.511,-27.414,-16.358,-20.323,-48.719,-48.015,-50.371,-49.149,-31.723,-80.729,-19.257,-1.46,-31.357,-44.628,-58.802,32.702,-45.367,-42.805,-37.791,-55.197,-26.078,850.335,-80.762,-289.719
1.3508575000000747,-34.087,-38.99,-228.486,2.683,294.042,-89.166,-28.923,-9.682,-18.766,-39.961,-40.282,-40.587,-46.026,-27.592,-71.939,-8.479,7.251,-30.813,-42.022,-53.108,37.28,-40.198,-35.59,-34.68,-53.093,-22.978,855.12,-71.46,-285.843
1.3509242000000086,-32.004,-36.902,-226.209,5.754,298.871,-85.49,-26.333,-10.697,-12.087,-40.433,-37.168,-38.497,-42.394,-21.417,-76.478,-8.983,14.928,-34.368,-41.468,-53.055,38.779,-41.183,-34.018,-32.596,-49.454,-19.881,857.851,-65.753,-284.532
1.365824900000007,-36.583,-35.841,-228.032,1.65,293.449,-89.503,-11.45,-10.686,-6.439,-40.393,-37.643,-37.946,-40.302,-16.785,-75.377,-7.437,20.036,-35.871,-38.865,-51.465,39.253,-39.605,-28.861,-23.854,-38.646,-15.25,861.092,-59.54,-277.588
1.365882000000056,-32.448,-28.633,-219.607,7.796,292.131,-85.315,1.37,-0.429,-7.457,-33.693,-33.507,-32.785,-39.237,-17.28,-64.543,0.767,24.115,-34.298,-34.215,-48.34,40.751,-34.442,-18.585,-16.146,-27.336,-11.649,866.378,-47.185,-267.064
1.380819099999826,-21.657,-22.456,-209.653,22.645,305.671,-74.471,-0.169,15.453,-3.352,-28.023,-23.74,-28.142,-33.05,-16.239,-62.429,4.865,30.751,-28.116,-27.521,-44.193,46.345,-27.748,-15.493,-11.006,-25.26,-7.027,874.221,-34.33,-261.674
1.3808742000001075,-15.488,-18.848,-208.931,28.77,308.952,-69.786,-2.73,16.462,3.312,-25.946,-20.642,-27.089,-30.968,-12.124,-63.903,5.884,30.72,-23.99,-21.346,-40.05,51.422,-20.035,-13.428,-2.798,-23.698,-1.384,878.982,-27.636,-262.949
1.3958933999997498,-17.521,-16.779,-208.21,24.131,297.372,-71.253,3.42,8.761,1.772,-23.871,-27.282,-27.574,-34.523,-10.575,-59.741,6.903,27.103,-23.453,-18.25,-36.936,49.321,-17.454,-5.73,-1.259,-18.551,1.691,883.739,-25.046,-264.223
1.3959568000000218,-20.065,-14.201,-202.366,25.644,299.124,-72.207,12.638,12.338,1.77,-23.335,-27.255,-24.985,-32.439,-8.003,-58.144,6.896,29.125,-16.258,-15.671,-34.85,49.272,-17.949,-5.725,-5.868,-21.094,-0.872,888.49,-20.411,-258.836
1.4109064999997827,-14.41,-3.429,-196.529,39.963,314.706,-64.962,16.724,23.084,8.94,-17.676,-16.469,-16.763,-25.747,-0.31,-56.037,15.086,36.781,-3.946,-7.458,-28.668,55.37,-13.32,-5.719,1.31,-22.61,-0.871,889.651,-9.12,-250.892
1.4109730999998646,-5.686,9.383,-192.746,48.632,326.687,-54.139,11.584,25.111,16.104,-7.412,-7.743,-10.599,-22.647,7.887,-49.321,27.367,42.892,4.255,3.308,-20.442,60.95,-4.597,6.07,12.067,-12.341,6.302,896.446,4.21,-242.957
1.4262690000000475,-2.094,10.398,-196.139,40.386,334.045,-56.134,4.401,19.962,17.625,-8.942,-8.76,-9.051,-19.551,9.929,-46.71,29.389,42.336,5.275,5.866,-15.811,63.963,0.018,10.162,10.006,-10.279,9.882,903.746,9.328,-239.64
1.4263271999998324,-5.679,3.215,-205.677,30.1,336.785,-66.324,4.908,13.795,13.508,-17.13,-13.874,-9.554,-19.019,4.796,-50.25,25.773,38.708,3.221,-0.287,-18.357,61.85,-4.08,1.955,3.848,-23.589,5.261,896.695,5.733,-247.597
1.4399251999998341,-11.308,-0.887,-212.131,27.508,331.837,-67.282,-1.244,13.269,9.396,-16.6,-14.373,-13.643,-24.635,-2.382,-52.761,22.161,34.058,-1.393,-5.923,-24.998,53.591,-11.761,-3.682,-3.84,-31.762,-0.892,890.675,-1.445,-258.62
1.439982500000042,-8.735,-0.373,-212.944,30.042,323.308,-60.555,-18.149,20.428,12.461,-13.51,-12.309,-20.29,-27.685,-4.428,-52.196,16.504,29.926,-9.589,-8.478,-25.998,49.952,-15.848,-8.801,-12.033,-34.805,-5.502,899.006,-3.493,-257.337
1.4550015999998323,-4.116,1.676,-215.292,30.524,315.813,-56.908,-19.668,21.432,11.424,-16.57,-15.371,-20.782,-24.583,-4.424,-51.631,13.413,27.847,-12.653,-12.568,-22.386,50.414,-18.393,-14.94,-12.021,-40.917,-8.57,902.718,-1.44,-255.543
1.455067699999745,-15.383,-8.572,-227.373,15.125,305.251,-64.024,-10.427,7.066,0.654,-25.775,-23.04,-24.859,-29.169,-9.03,-56.703,7.764,26.282,-14.69,-19.728,-29.536,42.679,-26.06,-19.536,-15.083,-45.487,-12.66,892.594,-11.685,-269.632
1.4699940999998944,-32.273,-30.592,-246.613,-9.481,287.015,-79.841,-19.638,-7.286,-9.081,-36.508,-33.263,-36.618,-40.411,-16.194,-66.38,-4.539,17.547,-24.921,-26.88,-40.777,33.927,-33.206,-28.226,-27.876,-53.639,-19.82,882.479,-31.141,-288.318
1.4700573999998596,-31.729,-37.222,-254.051,-15.107,276.994,-85.397,-31.401,-6.254,-10.096,-38.521,-37.328,-39.655,-40.37,-17.714,-68.875,-6.071,15.48,-27.97,-28.39,-38.175,34.405,-30.099,-30.247,-28.873,-61.27,-19.8,883.646,-32.647,-292.64
1.4850274999998874,-24.012,-26.426,-246.112,-5.87,285.426,-76.09,-25.222,2.462,-0.864,-29.773,-30.119,-29.881,-31.109,-11.549,-65.22,2.644,26.735,-15.647,-21.702,-29.427,35.396,-23.409,-20.483,-18.598,-55.061,-13.12,891.472,-20.831,-285.688
1.4850879999999052,-27.575,-25.375,-242.792,-4.84,292.313,-71.403,-18.025,6.558,5.796,-26.157,-27.015,-27.802,-29.028,-5.39,-66.179,0.592,32.344,-11.02,-16.557,-31.447,33.311,-24.41,-19.438,-20.116,-51.932,-14.644,893.142,-21.835,-284.377
1.5000215000000026,-30.108,-30.473,-248.185,-6.372,286.385,-75.942,-15.957,5.526,1.692,-30.742,-34.16,-32.898,-33.098,-8.97,-69.699,-4.531,27.701,-20.231,-21.664,-37.051,32.765,-28.996,-24.029,-28.805,-60.589,-18.728,888.15,-31.547,-289.728
1.5149701000000277,-27.517,-29.93,-248.961,-5.853,284.562,-76.379,-13.892,6.033,-3.433,-31.735,-34.126,-32.352,-33.065,-13.572,-69.117,-0.428,28.697,-20.723,-27.79,-36.502,27.609,-33.066,-24.005,-29.801,-64.627,-18.197,886.75,-35.101,-292.0
1.5166544999997313,-29.539,-34.511,-251.786,-13.02,286.327,-76.815,-18.489,2.953,-1.892,-30.679,-31.53,-33.345,-33.031,-10.997,-68.536,-0.94,29.181,-18.653,-30.324,-35.953,22.459,-37.643,-28.079,-31.82,-67.124,-21.764,884.838,-39.165,-294.782
1.5300833000001148,-31.046,-42.161,-260.244,-20.179,283.479,-81.349,-23.594,-5.247,-5.477,-32.698,-38.159,-38.947,-37.097,-14.06,-69.492,-4.526,19.93,-30.417,-31.318,-39.503,23.461,-37.606,-32.662,-35.887,-74.229,-27.378,882.417,-44.761,-303.709
1.5301543000000493,-31.015,-44.68,-265.619,-21.696,282.171,-85.366,-22.033,-8.315,-10.594,-36.763,-41.707,-40.445,-41.671,-24.292,-71.984,-2.984,11.201,-40.633,-32.311,-40.488,22.413,-35.007,-30.58,-37.388,-76.204,-28.375,883.583,-48.302,-311.602
1.5454862999999932,-34.058,-46.172,-268.939,-22.186,283.425,-86.817,-26.109,-1.647,-10.071,-38.264,-37.566,-39.38,-40.604,-26.829,-73.449,-6.055,10.678,-33.42,-30.23,-39.935,15.218,-35.996,-30.037,-36.326,-77.665,-27.835,882.188,-51.84,-311.803
1.545549800000117,-31.974,-43.565,-272.256,-21.652,285.703,-84.169,-26.596,3.99,-5.963,-33.102,-32.918,-35.754,-34.416,-17.581,-68.765,-3.487,19.889,-22.628,-23.027,-37.846,18.789,-30.325,-24.372,-29.63,-77.587,-23.196,882.842,-50.764,-308.929
1.5600730000001022,-25.282,-39.935,-273.009,-22.655,290.028,-80.498,-15.811,-0.625,-3.395,-27.434,-27.762,-26.497,-31.308,-8.342,-64.085,8.812,26.529,-22.093,-16.344,-30.124,30.041,-16.974,-14.614,-21.403,-67.776,-16.001,890.156,-46.614,-308.108
1.5601323000000775,-28.843,-45.018,-277.859,-31.341,284.615,-85.029,-21.942,-8.821,-6.978,-32.529,-29.784,-26.47,-34.35,-11.92,-68.632,8.29,19.33,-26.17,-17.352,-29.581,28.986,-15.421,-18.698,-25.48,-63.097,-18.034,888.754,-51.179,-312.411
1.5750778999999966,-34.45,-47.535,-281.68,-34.896,276.134,-90.579,-40.364,-10.349,-12.606,-35.571,-36.414,-33.616,-36.365,-18.055,-73.174,-0.939,16.237,-25.119,-19.897,-36.212,21.785,-22.065,-20.216,-32.115,-67.645,-20.577,879.156,-52.664,-312.611
1.5768942999998217,-30.829,-40.827,-270.639,-27.177,283.03,-85.878,-38.786,-3.679,-10.032,-29.9,-33.816,-31.021,-33.767,-10.865,-70.027,3.672,25.954,-19.458,-15.778,-34.639,22.276,-16.408,-8.925,-24.398,-63.479,-15.434,878.789,-40.316,-302.052
1.5902525000001333,-28.237,-37.2,-260.123,-21.002,288.382,-83.23,-35.161,-1.626,-7.461,-32.431,-30.196,-27.916,-32.709,-5.219,-69.445,5.206,28.49,-16.365,-13.713,-29.993,22.766,-7.17,-4.305,-16.177,-56.243,-12.857,882.009,-34.641,-296.114
1.5903109000000768,-24.623,-31.528,-259.35,-16.37,287.069,-83.147,-46.397,-3.161,-12.576,-34.96,-29.141,-31.474,-32.676,-12.898,-69.375,2.639,24.363,-16.349,-12.163,-29.963,21.718,-4.089,-0.202,-12.574,-53.113,-9.258,883.176,-33.581,-296.331
1.605117699999937,-11.278,-15.614,-249.357,-3.546,302.664,-69.744,-40.715,6.576,-5.391,-18.532,-18.866,-24.271,-27.52,-10.324,-60.084,14.419,29.974,-14.795,-6.515,-25.322,28.869,0.014,12.606,-1.291,-43.326,3.047,897.15,-18.179,-286.813
1.605171899999732,-2.557,-6.377,-237.325,8.753,316.193,-57.379,-19.67,18.352,5.885,-7.242,-11.162,-15.025,-24.419,-2.629,-51.827,22.602,31.481,-13.756,-7.021,-19.149,33.451,2.063,12.081,4.346,-40.209,5.605,908.548,-8.426,-279.354
1.6202038000001266,-5.629,-11.494,-244.772,7.719,307.68,-62.957,-21.187,12.699,-1.293,-16.457,-15.762,-20.645,-31.055,-12.872,-54.849,12.333,20.691,-19.378,-16.235,-25.79,26.245,-4.087,2.335,-7.442,-49.902,-2.085,901.492,-17.127,-284.71
1.6202620999997634,-8.697,-15.581,-247.601,4.126,302.25,-70.579,-31.412,5.001,-8.977,-22.588,-18.308,-26.772,-36.147,-20.032,-59.918,8.734,12.986,-24.481,-19.805,-30.887,22.633,-9.718,1.82,-10.508,-50.365,-3.107,901.103,-16.598,-282.888
1.6351543000000675,-13.811,-16.078,-239.156,1.56,301.435,-73.069,-22.671,5.509,-8.455,-24.615,-22.388,-27.258,-34.574,-14.889,-64.469,10.263,10.923,-23.944,-20.298,-30.857,19.536,-11.245,1.306,-4.35,-46.216,-3.104,908.911,-9.921,-275.945
1.6368591000000379,-20.97,-20.672,-247.114,-7.663,294.986,-76.07,-24.698,-2.181,-14.595,-32.275,-34.148,-32.353,-36.076,-16.923,-69.015,1.543,12.449,-21.359,-23.864,-36.461,8.758,-11.234,0.792,-9.469,-51.293,-6.687,900.829,-17.084,-280.28
1.6502044999997452,-18.387,-19.115,-251.478,-7.143,298.789,-73.433,-40.555,-2.692,-12.531,-28.144,-29.504,-31.297,-34.503,-18.443,-64.335,2.566,18.072,-15.19,-17.18,-36.425,8.237,-6.612,6.939,-9.459,-47.655,-3.094,896.342,-18.091,-277.438
1.6502689999997529,-12.733,-9.362,-234.832,9.77,306.175,-65.675,-29.756,12.68,0.802,-18.382,-15.642,-19.482,-25.759,-8.691,-56.074,13.834,21.128,-7.49,-7.941,-25.63,16.426,-3.532,7.445,-0.228,-40.948,0.495,909.278,-7.827,-265.378
1.6652328999998645,-16.307,-8.84,-232.548,11.81,299.721,-70.22,-9.746,11.131,-1.248,-22.974,-20.749,-16.901,-24.709,-4.071,-56.018,12.284,21.107,-7.995,-14.081,-27.141,13.335,-6.602,1.802,-3.814,-47.054,-3.604,910.418,-9.356,-267.674
1.6812933999999586,-14.241,-13.954,-244.611,-1.522,300.959,-76.297,-23.056,1.386,-6.882,-25.513,-25.851,-23.544,-28.783,-3.555,-60.572,7.148,24.672,-7.475,-16.116,-34.286,10.248,-6.083,3.337,-7.909,-49.057,-1.551,904.897,-10.884,-273.041
1.681372200000169,-5.006,-7.793,-236.682,4.627,310.904,-69.049,-38.915,14.704,3.371,-16.266,-14.555,-18.91,-26.192,-0.478,-58.975,12.777,27.721,1.754,-5.341,-25.543,16.386,0.583,8.969,2.345,-38.249,7.16,916.288,1.935,-263.547
1.6952966999997443,-9.099,-4.711,-229.785,13.332,304.957,-65.906,-29.142,17.251,1.83,-19.836,-16.077,-16.842,-25.654,-5.088,-55.33,12.764,23.595,-0.297,-11.996,-22.956,9.709,-5.053,5.886,-1.243,-39.235,4.079,923.056,2.445,-261.234
1.695364199999858,-20.873,-15.465,-246.462,-3.588,290.82,-76.086,-28.088,-6.844,-17.127,-35.185,-31.943,-32.706,-35.362,-16.866,-58.861,-1.081,11.276,-16.178,-32.989,-39.839,-6.694,-26.052,-11.026,-23.271,-57.127,-12.832,910.862,-18.049,-276.342
1.710309199999756,-19.828,-19.548,-257.486,-13.83,289.505,-77.034,-45.479,-9.911,-20.184,-34.638,-33.96,-40.871,-40.45,-20.435,-66.999,-11.326,0.506,-18.211,-36.542,-45.434,-12.835,-35.248,-24.847,-34.006,-69.365,-21.528,903.804,-27.253,-285.8
1.7103744000000916,-12.635,-10.307,-250.056,1.04,296.388,-64.15,-46.97,13.152,-7.356,-22.307,-25.217,-29.559,-33.749,-15.804,-65.395,-3.63,7.678,-9.483,-25.747,-36.68,-7.699,-22.917,-16.113,-26.288,-62.636,-12.285,912.634,-16.467,-279.366
1.7253535999998348,-10.061,-8.247,-247.245,5.138,299.165,-62.036,-30.529,13.139,-4.275,-20.236,-23.655,-24.406,-29.617,-15.276,-59.694,6.619,15.867,-8.962,-22.647,-34.082,-3.593,-13.16,-5.851,-20.114,-51.815,-2.539,918.893,-10.303,-276.525
1.7254167999999481,-14.662,-16.948,-254.682,-13.311,293.743,-72.733,-22.302,-3.78,-10.93,-25.339,-28.242,-31.042,-32.661,-17.822,-65.27,0.465,6.118,-11.002,-25.698,-37.121,-4.614,-15.709,-13.017,-23.68,-55.861,-5.61,912.851,-22.076,-287.519
1.7403294999999162,-17.209,-18.981,-255.964,-16.883,289.351,-73.685,-26.89,-1.727,-7.333,-20.703,-29.75,-30.499,-31.092,-14.218,-70.328,-4.146,3.038,-5.868,-19.525,-32.986,-4.61,-11.595,-11.467,-24.168,-59.392,-9.191,908.352,-28.714,-291.33
1.7403934999997546,-11.556,-10.765,-247.511,2.089,296.746,-63.365,-32.499,11.082,2.408,-10.948,-21.011,-22.784,-22.351,-10.105,-61.036,6.616,16.867,2.847,-8.747,-25.78,-1.531,-1.849,3.913,-14.41,-48.062,-1.497,915.641,-18.951,-279.768
1.7553342999999586,-15.131,-11.778,-247.264,1.062,294.912,-63.814,-33.491,7.485,-1.693,-14.523,-18.941,-24.81,-20.792,-16.755,-56.364,5.073,15.825,2.332,-13.349,-30.878,-9.214,-9.532,0.323,-17.47,-45.964,-3.032,916.775,-23.543,-280.001
1.7553933999997753,-30.997,-28.673,-260.337,-21.48,274.637,-77.582,-35.507,-1.744,-12.45,-26.804,-34.292,-38.105,-29.48,-25.448,-69.627,-13.888,1.977,-9.453,-29.73,-44.679,-23.55,-25.916,-17.096,-36.408,-61.8,-19.423,905.099,-42.987,-292.529
1.7703685000001315,-32.503,-36.841,-261.613,-23.508,270.264,-82.115,-41.107,1.332,-10.388,-26.777,-39.893,-42.678,-33.549,-21.836,-73.656,-15.923,4.537,-11.493,-30.212,-43.098,-21.989,-25.89,-17.078,-37.908,-63.275,-22.99,903.17,-45.506,-294.798
1.7854317999999694,-23.761,-29.632,-250.593,-11.702,281.777,-76.398,-40.041,2.355,-6.791,-22.652,-28.582,-35.463,-30.442,-16.691,-64.873,-5.661,8.631,-2.772,-21.473,-34.345,-16.332,-19.205,-9.889,-29.161,-53.478,-14.258,906.365,-39.825,-295.015
1.7854965000001357,-28.348,-31.652,-258.027,-19.374,277.397,-77.858,-36.415,-4.82,-14.982,-32.876,-32.652,-36.964,-31.436,-19.748,-68.395,-9.241,1.45,-3.794,-28.623,-40.459,-24.512,-23.796,-16.027,-38.866,-61.109,-18.342,898.798,-49.006,-302.405
1.7855399999998554,-30.369,-34.694,-273.651,-25.503,270.972,-80.342,-38.427,-2.253,-19.065,-37.966,-41.841,-42.05,-36.016,-18.192,-73.449,-13.843,5.547,-6.352,-34.23,-42.467,-25.512,-24.285,-20.622,-44.975,-69.245,-20.885,899.437,-52.544,-302.102
1.8007847999997466,-19.58,-25.438,-268.766,-14.719,281.971,-76.676,-36.34,6.458,-12.898,-27.682,-31.04,-31.25,-32.906,-10.489,-63.642,-2.558,18.349,1.339,-22.925,-32.179,-15.241,-14.014,-13.429,-35.196,-60.466,-11.13,911.857,-42.757,-297.189
1.8008427999998275,-16.487,-25.412,-262.862,-13.679,287.325,-74.55,-31.693,6.452,-7.762,-24.068,-22.3,-18.923,-23.651,-9.454,-56.406,9.227,17.306,4.412,-15.73,-29.073,-15.226,-9.389,-9.317,-34.648,-56.82,-7.533,914.019,-41.69,-298.941
1.8154214999999567,-12.884,-27.948,-263.624,-15.203,288.062,-71.914,-35.759,6.957,-5.193,-23.019,-19.204,-14.806,-19.017,-9.444,-54.813,15.878,13.703,2.358,-14.177,-24.945,-13.673,-3.745,-5.209,-30.515,-55.738,-2.402,916.691,-40.624,-293.519
1.8154801999999108,0.448,-12.551,-249.016,-3.404,303.656,-64.669,-35.724,15.66,-0.577,-10.189,-3.816,-6.082,-17.461,-6.873,-47.073,25.596,19.837,7.479,-5.454,-12.625,-1.364,13.165,8.116,-9.48,-41.85,13.481,929.095,-25.726,-277.857
1.830511099999967,3.01,-7.415,-239.033,-0.327,310.012,-63.58,-29.028,17.693,-2.113,-8.641,-0.226,-5.051,-15.907,-13.014,-46.514,24.546,15.206,2.86,-5.448,-17.735,-3.412,16.738,10.67,-8.446,-39.247,14.493,928.678,-19.04,-274.505
1.830573899999763,-6.215,-18.679,-249.04,-6.987,299.456,-68.127,-36.171,10.503,-5.185,-17.342,-16.107,-17.341,-18.964,-18.637,-54.152,7.615,5.969,-10.463,-16.202,-31.038,-16.729,3.402,-2.661,-21.758,-49.966,2.695,918.528,-30.292,-281.403
1.8455676999997195,-10.82,-15.586,-245.205,-2.881,296.083,-67.547,-45.357,9.468,-1.082,-12.714,-19.677,-22.447,-21.507,-12.983,-57.172,-0.077,11.086,-7.891,-17.722,-29.47,-21.323,-0.188,-3.171,-16.1,-44.281,3.205,921.708,-33.336,-276.511
1.860491599999932,-15.419,-12.497,-232.664,0.195,294.762,-68.504,-33.016,8.434,-4.154,-14.238,-19.657,-23.449,-23.022,-11.945,-62.238,-3.151,12.612,-3.272,-18.729,-29.952,-27.449,-1.725,1.956,-13.523,-36.552,2.177,924.372,-28.691,-270.086
1.8605561999997917,-22.576,-24.78,-243.19,-9.026,285.246,-74.583,-23.249,-0.284,-17.982,-28.568,-31.421,-32.135,-30.172,-22.691,-70.372,-17.492,0.304,-17.101,-33.055,-43.242,-38.18,-15.043,-11.366,-29.391,-48.811,-9.096,914.738,-38.909,-281.087
1.8755190000001676,-25.115,-31.415,-259.853,-14.14,281.374,-76.045,-41.157,-2.332,-18.989,-24.954,-32.414,-37.738,-34.752,-26.767,-68.253,-23.622,-5.331,-26.818,-38.657,-45.761,-39.167,-22.2,-22.113,-36.021,-56.959,-14.21,909.213,-56.288,-294.638
1.8755891999999221,-25.603,-34.457,-263.179,-16.688,280.58,-75.969,-54.435,0.231,-13.335,-17.756,-25.209,-34.627,-32.156,-21.105,-65.623,-13.865,0.309,-19.618,-31.446,-39.567,-35.029,-17.055,-13.894,-32.399,-51.779,-14.196,909.841,-58.281,-293.831
1.8905893999999535,-21.991,-38.009,-263.428,-23.331,277.738,-78.455,-40.036,-5.404,-16.908,-24.911,-24.672,-28.445,-30.075,-15.449,-65.045,-6.679,6.969,-10.377,-22.706,-35.429,-33.969,-9.866,-5.171,-28.268,-44.555,-9.571,911.492,-50.026,-289.439
1.8923915000000306,-13.26,-28.749,-259.579,-24.332,284.121,-71.717,-29.75,-0.276,-11.255,-19.763,-17.475,-20.219,-25.434,-10.822,-53.709,2.549,14.134,-7.293,-13.974,-26.685,-26.763,1.415,1.494,-18.506,-35.289,2.734,919.29,-47.415,-288.637
1.9055818000001636,-11.197,-23.598,-251.122,-17.136,287.935,-62.423,-38.942,9.971,-0.998,-10.522,-11.822,-16.613,-20.798,-11.836,-46.996,9.719,14.12,-9.335,-12.423,-23.584,-22.638,4.487,5.591,-19.0,-30.642,1.707,920.42,-51.466,-287.324
1.905645899999854,-18.87,-30.234,-250.359,-9.946,280.987,-67.996,-45.563,-1.31,-9.706,-21.27,-21.544,-24.281,-27.437,-18.997,-57.195,-2.074,6.421,-17.01,-21.632,-35.856,-32.861,-9.862,-5.173,-31.789,-37.784,-11.615,905.667,-55.0,-286.012
1.9209952000001067,-24.487,-27.13,-249.084,-8.912,279.169,-73.564,-43.98,-8.481,-16.356,-26.371,-26.133,-27.33,-30.996,-19.49,-61.236,-10.781,3.341,-18.53,-26.221,-39.406,-41.538,-17.024,-15.927,-36.368,-43.894,-16.214,898.102,-59.044,-284.701
1.921063199999935,-26.512,-31.714,-247.81,-18.124,279.402,-72.465,-42.912,2.798,-8.143,-20.71,-22.521,-24.229,-25.841,-16.909,-57.589,-5.647,1.289,-14.926,-27.732,-37.318,-41.496,-17.519,-17.448,-39.917,-46.924,-18.247,899.253,-68.206,-288.003
1.935597499999858,-34.17,-52.174,-256.784,-35.525,265.803,-83.664,-45.431,-10.525,-15.82,-32.472,-33.257,-35.988,-31.963,-24.064,-66.24,-15.375,-6.397,-21.571,-38.975,-47.526,-47.602,-30.31,-26.652,-51.148,-57.636,-27.45,890.157,-81.458,-300.523
1.9356620999997176,-40.283,-52.634,-262.675,-41.125,254.779,-91.265,-51.533,-31.006,-29.124,-42.173,-47.056,-49.784,-42.178,-28.651,-75.396,-34.315,-8.953,-28.209,-45.596,-55.163,-58.313,-38.476,-34.31,-54.683,-64.75,-28.96,884.656,-84.451,-306.37
1.950601000000006,-36.657,-36.7,-255.752,-28.276,262.208,-77.853,-52.506,-16.631,-21.41,-31.373,-42.91,-45.636,-38.037,-26.573,-68.148,-33.768,-6.894,-23.57,-40.94,-50.498,-56.206,-31.778,-28.128,-49.506,-60.587,-20.734,895.042,-73.095,-295.305
1.9523346000000856,-32.009,-34.614,-249.861,-22.612,268.606,-71.628,-48.355,-6.88,-15.241,-27.755,-35.183,-42.004,-36.974,-30.645,-64.494,-31.173,-14.06,-27.645,-43.46,-52.496,-52.563,-33.795,-30.149,-49.456,-62.063,-18.152,896.196,-63.801,-287.325
1.9656718000001092,-36.588,-37.141,-249.611,-30.786,262.702,-80.266,-55.991,-23.267,-22.398,-34.9,-40.271,-49.647,-42.06,-36.762,-74.675,-38.314,-21.73,-38.376,-51.101,-58.591,-59.683,-42.471,-42.414,-55.554,-74.809,-26.843,884.029,-70.397,-294.21
1.9657321999998203,-39.626,-34.542,-247.824,-27.682,259.878,-79.673,-61.058,-21.195,-20.326,-33.328,-43.304,-49.085,-38.944,-34.164,-75.113,-35.202,-17.098,-34.239,-46.952,-54.434,-59.111,-40.891,-41.859,-61.646,-76.783,-33.988,881.096,-78.011,-296.477
1.9807419999997364,-37.024,-35.533,-245.015,-18.433,261.667,-76.519,-46.653,-7.341,-17.232,-32.27,-38.138,-40.839,-37.369,-31.568,-65.816,-25.945,-10.933,-25.495,-38.708,-49.769,-49.83,-38.801,-36.182,-59.023,-66.46,-29.344,882.264,-76.396,-289.521
1.9808185000001686,-35.963,-40.108,-246.307,-24.05,255.77,-80.541,-43.532,-15.019,-26.436,-37.873,-40.149,-45.921,-43.479,-35.635,-69.336,-31.043,-14.508,-29.056,-42.255,-52.281,-51.83,-42.348,-40.757,-54.866,-67.931,-26.24,877.795,-76.32,-290.768
1.9956911999997828,-37.464,-39.043,-249.135,-25.562,252.953,-76.362,-59.882,-22.688,-28.972,-36.811,-44.207,-52.535,-44.46,-37.136,-75.927,-36.647,-16.031,-31.076,-48.361,-54.278,-55.876,-43.331,-43.277,-59.422,-74.011,-31.85,877.43,-78.805,-292.014
1.9957484000001386,-39.475,-31.319,-243.762,-12.729,259.36,-69.114,-62.896,-13.444,-18.696,-31.139,-38.015,-48.384,-42.879,-31.976,-68.167,-33.024,-11.916,-25.41,-42.677,-52.687,-51.722,-39.701,-36.574,-56.801,-65.227,-27.719,878.089,-72.066,-283.525
2.0107057999998688,-39.948,-28.727,-236.346,-10.667,257.564,-72.631,-58.735,-8.82,-14.579,-31.107,-37.465,-46.799,-44.373,-29.383,-65.537,-34.528,-12.417,-21.798,-38.024,-51.097,-51.67,-35.563,-32.439,-42.912,-54.916,-16.933,875.674,-64.31,-276.582
2.0123782999999094,-39.908,-34.333,-237.647,-15.267,251.671,-78.706,-64.312,-15.983,-19.175,-34.15,-46.649,-50.851,-42.791,-31.915,-73.156,-36.03,-13.429,-20.752,-41.572,-52.583,-52.131,-36.04,-32.919,-41.844,-55.886,-19.99,875.823,-65.782,-277.33
2.02575139999999,-42.942,-35.836,-242.02,-12.691,253.981,-76.066,-61.686,-22.627,-20.693,-36.165,-46.09,-50.287,-41.724,-30.346,-73.595,-31.384,-9.317,-21.756,-42.555,-53.555,-47.468,-38.565,-32.374,-47.438,-59.416,-27.142,876.484,-68.79,-278.077
2.0258128999998917,-44.949,-36.312,-244.339,-19.85,250.653,-75.477,-55.476,-27.215,-21.697,-37.154,-42.97,-51.774,-47.318,-26.217,-71.985,-33.914,-10.332,-25.832,-39.438,-54.014,-49.47,-40.576,-32.854,-45.853,-60.894,-25.578,873.559,-74.357,-283.947
2.040846699999747,-39.268,-41.911,-249.731,-34.175,243.23,-81.037,-61.569,-31.287,-27.311,-40.19,-50.612,-57.87,-51.881,-29.777,-76.011,-39.515,-14.42,-23.757,-36.837,-55.497,-49.933,-41.048,-31.796,-47.344,-63.906,-23.503,873.197,-80.43,-290.835
2.0409113999999136,-32.057,-33.673,-245.895,-22.87,249.647,-80.956,-59.97,-24.083,-29.845,-43.224,-51.586,-54.738,-49.268,-29.235,-71.837,-35.89,-9.795,-16.049,-31.677,-52.88,-40.661,-34.347,-25.104,-44.223,-59.232,-18.869,878.984,-71.64,-282.347
2.056189699999777,-31.0,-19.294,-235.403,-2.355,257.594,-72.166,-51.713,-12.788,-20.594,-39.595,-43.337,-49.048,-46.145,-24.595,-65.617,-33.292,-7.224,-17.058,-31.133,-50.777,-37.034,-29.189,-19.956,-33.933,-49.439,-11.678,878.105,-59.786,-272.844
2.0707683999999063,-35.067,-29.521,-241.827,-12.086,254.775,-70.044,-55.76,-14.312,-12.888,-31.358,-42.782,-50.024,-45.074,-27.132,-72.724,-36.333,-14.901,-27.287,-39.299,-56.362,-41.096,-38.382,-28.133,-41.583,-55.025,-18.839,870.055,-71.509,-283.842
2.0708267999998498,-37.594,-43.324,-255.93,-30.517,258.618,-74.073,-59.803,-15.323,-11.339,-27.228,-38.64,-41.777,-38.881,-27.617,-73.163,-25.538,-12.837,-26.747,-37.211,-53.232,-36.444,-43.979,-36.302,-54.862,-69.827,-30.603,867.648,-86.807,-295.341
2.085887599999751,-32.946,-36.108,-250.551,-22.802,267.581,-70.925,-48.984,-5.061,-6.717,-24.127,-25.794,-26.366,-30.133,-19.905,-58.746,-2.458,-0.529,-14.937,-25.39,-38.322,-27.698,-33.688,-29.093,-48.147,-68.732,-25.961,872.416,-80.06,-287.873
2.0859498999998323,-30.351,-33.511,-238.005,-12.021,264.752,-70.342,-41.251,-5.568,-3.636,-20.517,-25.256,-21.729,-28.566,-19.373,-56.125,3.692,3.57,-13.898,-26.902,-39.82,-26.646,-30.069,-24.966,-44.513,-63.54,-19.788,872.056,-73.832,-279.901
2.10096620000013,-37.493,-40.137,-238.279,-20.718,257.315,-75.907,-50.943,-11.71,-9.78,-22.546,-34.452,-28.879,-31.611,-24.476,-65.803,-8.607,-2.581,-24.642,-36.609,-52.588,-30.206,-39.26,-33.65,-53.177,-70.649,-23.866,869.134,-82.468,-282.695
2.1010293999997884,-38.48,-33.949,-237.016,-20.697,256.033,-74.806,-63.7,-5.551,-12.844,-27.134,-34.93,-33.461,-32.604,-21.378,-65.737,-12.185,-5.14,-26.667,-37.085,-50.486,-30.175,-39.733,-34.129,-49.538,-70.578,-22.306,874.413,-81.361,-279.85
2.1159238000000187,-33.319,-26.231,-230.119,-9.406,255.777,-74.731,-58.513,-9.132,-12.319,-29.156,-36.432,-33.94,-34.621,-18.795,-64.135,-8.587,-1.549,-20.493,-33.974,-46.85,-28.096,-36.62,-23.848,-40.267,-58.725,-17.16,880.711,-69.496,-270.349
2.115987600000153,-38.921,-27.229,-226.815,-9.397,255.009,-82.854,-43.598,-23.979,-17.942,-33.225,-45.105,-40.566,-41.246,-22.362,-71.243,-16.775,-6.158,-20.984,-37.014,-55.512,-31.142,-41.706,-23.825,-41.764,-59.178,-20.217,876.244,-64.303,-268.029
2.1308650000000853,-42.98,-22.591,-222.49,-7.85,260.39,-80.722,-48.165,-18.32,-20.486,-35.754,-47.109,-50.772,-46.328,-23.365,-77.831,-27.004,-15.886,-24.549,-41.075,-59.555,-35.209,-42.177,-27.387,-39.673,-64.755,-18.66,871.781,-60.653,-263.663
2.130921699999817,-34.74,-14.372,-212.022,2.404,267.814,-68.858,-55.802,-7.031,-17.391,-29.57,-40.402,-49.184,-44.232,-23.341,-74.168,-24.928,-15.357,-24.013,-40.522,-54.885,-29.026,-34.962,-20.187,-30.924,-57.005,-7.883,873.471,-55.469,-250.079
2.147392100000161,-30.607,-16.919,-208.736,-0.672,269.083,-68.277,-42.938,-12.659,-18.398,-27.491,-33.189,-39.913,-39.065,-24.855,-63.335,-17.219,-9.194,-23.476,-33.821,-50.219,-18.239,-28.779,-11.458,-24.745,-49.264,-4.801,875.159,-55.926,-248.292
2.1475133999997524,-30.064,-23.049,-218.773,-9.381,269.838,-70.258,-39.309,-13.159,-15.819,-29.513,-28.033,-35.775,-37.489,-22.781,-57.636,-10.029,-9.185,-20.891,-25.59,-44.533,-12.585,-23.115,-7.348,-21.134,-49.214,-5.309,876.333,-60.993,-259.827
2.160952499999894,-25.936,-27.637,-228.8,-16.544,271.618,-66.089,-55.664,-8.535,-9.655,-24.873,-26.98,-29.591,-35.402,-19.684,-60.14,-2.847,-6.614,-15.747,-22.491,-42.44,-13.085,-21.555,-7.34,-22.65,-51.727,-2.742,874.432,-67.592,-265.203
2.1610178000000815,-31.545,-33.245,-234.207,-26.261,266.735,-69.097,-59.706,-14.674,-11.695,-24.336,-30.027,-27.0,-33.318,-19.152,-62.641,-1.819,0.052,-17.781,-25.542,-45.471,-16.658,-31.78,-16.555,-34.41,-60.896,-10.936,864.849,-74.697,-268.011
2.175944499999787,-38.174,-35.261,-234.485,-24.698,264.932,-76.2,-51.45,-15.172,-11.171,-27.897,-32.046,-32.096,-32.772,-17.084,-61.042,-5.916,1.589,-24.423,-30.127,-46.45,-22.789,-40.457,-27.297,-42.573,-68.52,-21.683,858.861,-74.622,-275.428
2.1760008000001108,-29.426,-28.566,-228.103,-9.304,273.888,-71.513,-47.3,-4.398,-0.913,-19.16,-27.404,-26.941,-28.641,-12.456,-59.956,-1.811,6.711,-20.3,-30.097,-44.355,-20.717,-37.855,-26.245,-39.457,-62.816,-18.588,863.637,-70.962,-271.566
2.1899772000001576,-19.663,-19.316,-218.653,-3.659,285.91,-61.707,-35.982,4.315,4.211,-6.846,-18.155,-13.082,-20.415,-3.734,-55.286,12.023,22.073,-8.497,-22.895,-38.675,-9.938,-32.182,-17.509,-34.294,-54.557,-12.934,869.434,-67.304,-257.462
2.1900400999998055,-14.008,-10.075,-207.164,4.029,296.382,-54.986,-15.453,15.582,8.305,-2.74,-11.476,-6.921,-13.223,6.516,-47.546,23.281,33.322,-0.804,-13.65,-29.415,0.318,-24.465,-9.807,-27.6,-48.354,-8.822,875.737,-55.966,-249.52
2.205046499999753,-4.26,0.694,-191.588,25.542,302.234,-49.808,-0.581,29.911,17.006,1.873,-9.928,-5.377,-9.623,9.583,-45.449,24.283,34.313,2.783,-10.051,-26.311,2.88,-17.269,-3.65,-16.814,-39.597,-0.104,882.545,-38.492,-240.562
2.2051132999999936,0.355,7.865,-185.761,33.201,301.419,-46.684,7.104,32.443,19.038,2.383,-7.869,-5.884,-12.687,7.012,-47.453,20.672,29.156,5.854,-10.041,-30.896,-0.709,-15.202,1.477,-12.186,-34.434,5.531,882.687,-24.621,-230.075
2.2200380999997833,1.379,14.518,-187.624,34.192,307.265,-43.051,6.072,34.459,19.019,1.356,-4.787,-7.415,-12.675,9.566,-43.819,22.189,23.491,10.459,-6.957,-26.766,2.365,-11.088,7.623,-8.588,-27.227,8.087,885.391,-8.203,-223.697
2.220098599999801,12.136,28.335,-173.604,52.089,321.303,-33.787,5.042,45.696,25.66,10.577,1.365,0.277,-4.977,14.168,-36.603,28.826,25.517,21.207,4.833,-13.932,13.634,2.243,20.936,8.839,-8.245,18.837,898.85,12.298,-210.153
2.2350212000001193,20.834,39.065,-158.574,61.771,329.691,-27.605,15.795,45.138,27.171,15.177,8.024,5.912,-3.436,12.617,-30.419,32.384,30.102,32.969,17.124,-8.283,17.206,15.048,33.723,25.224,1.497,28.552,908.71,25.093,-195.599
2.235076399999798,18.251,41.588,-162.001,56.586,328.849,-27.578,17.829,35.871,23.046,7.989,4.942,-0.242,-10.092,11.579,-25.777,33.376,29.56,34.473,21.205,-6.737,17.189,18.107,37.275,21.101,-6.189,30.573,911.9,27.63,-197.964
2.250014899999769,19.257,44.108,-161.839,63.189,325.958,-24.988,5.003,35.835,25.584,8.494,0.326,1.295,-8.545,14.129,-23.19,35.392,28.505,32.902,22.209,-2.12,22.295,17.577,37.238,15.444,-6.182,33.104,914.574,29.651,-202.377
2.265018300000065,21.287,43.039,-157.067,66.712,322.046,-24.963,4.998,37.848,26.071,12.071,4.937,7.954,-2.901,14.627,-23.679,36.893,26.94,37.48,23.211,-1.093,20.223,19.096,37.2,20.039,-3.615,33.071,914.684,34.745,-200.126
2.266807599999993,18.705,38.385,-164.082,54.862,320.7,-30.062,10.628,38.323,21.946,13.596,11.08,7.434,-1.361,12.564,-27.754,39.418,21.79,39.491,21.139,-1.092,16.617,18.565,33.577,17.458,-11.808,25.866,912.232,37.272,-202.487
2.2801478999999745,19.711,38.347,-169.553,51.734,323.965,-27.47,-0.653,47.506,31.146,24.341,15.167,15.111,5.812,15.113,-25.165,45.014,21.256,36.89,20.605,5.057,20.699,15.472,28.42,9.756,-16.407,21.741,909.783,33.648,-206.383
2.2802130999998553,19.691,36.259,-170.92,56.805,325.178,-19.758,-8.337,53.094,43.922,32.001,20.787,25.854,17.077,19.196,-18.48,48.043,24.309,37.366,21.609,5.052,17.604,10.846,22.244,5.135,-19.464,20.183,904.263,25.418,-209.763
2.2951961999997366,10.962,27.514,-181.508,50.088,320.242,-19.226,1.405,48.942,39.78,26.334,21.279,20.706,15.523,15.078,-22.047,43.896,20.186,32.718,14.415,-1.613,4.779,-0.436,13.001,-6.141,-34.814,10.429,901.309,12.584,-221.848
2.295260800000051,9.414,22.363,-187.474,41.329,315.311,-21.768,7.552,48.381,32.056,24.258,15.622,15.049,7.311,9.94,-29.71,38.729,15.555,20.389,7.228,-1.1,3.237,-8.632,7.864,-13.819,-41.952,3.758,901.432,3.863,-229.824
2.310562199999822,15.552,23.878,-182.676,39.238,315.508,-22.771,4.47,46.284,32.536,23.722,14.582,14.522,5.767,10.955,-26.606,34.08,12.978,14.734,7.734,-2.123,5.283,-4.525,10.418,-5.096,-32.688,9.39,898.482,8.469,-223.446
2.3106253000000834,11.951,24.366,-187.616,36.125,315.192,-27.359,-7.317,33.43,24.819,12.94,9.444,1.7,0.638,5.308,-27.092,22.263,2.206,10.621,-0.471,-11.855,-4.968,-7.082,8.871,-4.066,-33.68,7.843,895.022,9.486,-220.661
2.3252042999997684,4.254,16.657,-196.65,29.941,302.07,-37.065,-23.192,22.125,10.962,1.144,-6.959,-14.183,-13.195,-10.578,-39.36,7.896,-9.579,0.876,-15.328,-19.015,-16.234,-20.907,-1.384,-16.87,-42.868,-1.898,891.565,-0.77,-229.15
2.326896300000044,2.201,7.419,-198.503,23.764,287.423,-47.275,-19.07,18.005,4.803,-9.104,-17.711,-21.854,-20.867,-13.642,-44.444,-0.821,-9.057,-1.174,-15.312,-20.533,-18.779,-22.423,-5.481,-14.804,-40.776,2.202,888.624,-1.282,-232.507
2.340204300000096,0.661,12.535,-195.743,25.789,288.16,-50.301,-5.219,13.376,2.749,-14.73,-14.619,-22.344,-19.821,-6.456,-38.764,-0.308,-3.925,4.975,-11.198,-21.025,-15.174,-12.667,-1.89,-6.592,-36.637,9.372,892.346,8.966,-223.565
2.3402682000000823,6.808,26.867,-188.375,36.01,300.167,-38.98,-13.923,20.023,6.845,-3.957,-6.92,-13.1,-16.727,-7.474,-34.115,9.426,-2.896,4.458,-8.626,-14.344,-10.036,-9.068,0.674,-8.122,-38.137,7.826,899.139,14.592,-213.095
2.3552552999999534,18.072,30.938,-186.137,40.584,308.576,-26.646,-27.741,35.884,16.572,6.806,1.284,-3.866,-9.538,-7.466,-30.494,18.638,0.18,5.478,2.141,-7.157,-6.44,-3.424,5.284,-2.991,-36.05,11.404,899.776,17.652,-210.833
2.355316799999855,16.005,23.735,-194.66,37.982,309.292,-31.23,-26.689,31.238,12.969,-0.886,2.82,-4.374,-5.43,2.275,-28.927,19.644,4.791,13.669,5.213,-8.175,-7.458,3.752,9.889,4.184,-32.94,16.004,899.389,18.146,-217.282
2.370372800000041,13.428,21.15,-198.052,35.895,310.008,-37.346,-25.637,12.251,7.321,-1.909,1.28,2.29,-5.425,7.396,-29.923,23.723,12.471,19.803,5.208,-4.068,-5.914,5.797,13.978,5.717,-34.444,14.963,905.662,12.493,-221.163
2.3704524999998284,22.636,26.764,-194.78,36.371,319.432,-25.526,-36.37,16.849,24.219,18.072,12.037,18.682,3.29,7.901,-23.745,38.044,20.143,23.369,20.06,4.645,1.777,14.501,22.673,14.42,-32.872,22.12,909.879,14.529,-218.893
2.385274400000071,16.978,22.127,-204.831,25.064,315.526,-20.89,-51.703,24.517,30.343,21.128,14.074,15.077,8.409,6.868,-20.135,35.444,13.975,18.223,19.015,-1.507,-2.323,14.999,22.65,14.918,-35.401,22.611,903.334,13.49,-228.408
2.3870723999998518,-4.044,1.612,-222.045,-0.576,289.083,-42.386,-46.528,6.05,3.673,-0.922,-8.481,-2.869,-3.894,-0.311,-31.386,12.355,0.129,3.86,-3.033,-14.313,-20.252,-4.996,7.771,-0.978,-47.661,7.731,894.746,-2.405,-246.11
2.4003570999998374,0.571,-0.951,-220.286,-3.137,287.257,-47.466,-23.94,3.994,2.132,-0.921,-6.936,1.745,-4.915,1.226,-33.916,12.342,8.326,7.955,1.58,-8.151,-20.232,-4.991,9.812,3.633,-44.027,10.797,903.073,-2.402,-242.79
2.41534079999974,25.673,19.542,-210.844,25.043,318.733,-20.779,-35.187,29.093,34.918,24.695,23.809,21.723,12.508,13.008,-15.439,39.482,24.199,23.316,17.973,5.689,-3.305,14.481,23.635,16.95,-31.175,22.569,921.638,13.482,-230.764
2.4154067999998006,20.525,14.4,-221.904,22.969,316.365,-20.758,-64.353,23.941,25.149,18.01,16.101,16.578,5.323,6.847,-14.911,35.344,12.391,8.436,1.049,-6.612,-13.036,-1.415,6.193,-3.047,-50.1,5.641,915.593,-1.389,-245.39
2.4307199999998375,-6.648,-14.304,-239.101,-9.33,283.773,-51.988,-44.821,-5.797,-7.152,-14.283,-16.191,-9.054,-20.81,-10.066,-36.925,4.058,-7.601,-16.163,-15.859,-24.536,-36.589,-30.103,-17.38,-26.61,-79.763,-16.394,894.185,-30.077,-265.637
2.430781399999887,-6.129,-15.314,-237.324,-11.882,284.514,-54.498,-21.723,-6.303,-7.657,-16.83,-12.076,-12.119,-22.326,-8.519,-38.938,3.542,-1.446,-12.561,-8.67,-16.315,-31.429,-20.851,-11.215,-21.461,-77.122,-12.279,895.34,-30.559,-265.884
2.4453284000001076,7.197,-5.565,-238.112,3.499,302.672,-38.562,-53.976,-0.149,14.38,-1.444,1.256,-0.323,-13.594,-1.338,-27.628,15.322,8.802,-6.401,-6.613,-8.101,-22.689,-10.584,-8.129,-19.902,-71.922,-8.681,904.691,-28.991,-270.741
2.4453843999999663,-4.081,-19.392,-252.218,-11.361,291.099,-43.134,-72.878,-12.444,8.218,-7.59,-11.553,-5.446,-18.704,-2.873,-34.773,4.548,5.719,-12.542,-9.167,-17.827,-32.4,-20.819,-18.367,-28.591,-84.145,-15.332,897.638,-44.332,-282.254
2.460397700000158,-9.2,-22.446,-243.769,-13.911,285.172,-43.603,-46.677,-6.796,7.697,-7.583,-10.004,-7.49,-18.685,3.277,-37.299,4.543,10.837,-7.919,0.063,-13.711,-27.757,-11.065,-3.492,-15.755,-73.303,-8.145,902.376,-37.115,-269.164
2.4604638999999224,8.74,-1.419,-215.348,13.255,300.769,-30.239,-45.094,14.727,25.108,5.232,8.449,4.813,-9.445,9.421,-25.479,18.371,20.56,0.286,6.211,0.135,-12.36,10.975,21.102,7.314,-46.077,7.745,922.478,-10.438,-244.816
2.4754385999999613,11.293,5.242,-207.448,19.902,303.542,-33.795,-57.856,14.2,22.522,2.153,3.83,3.783,-8.923,3.777,-24.941,11.693,17.465,-2.276,4.668,-2.939,-16.958,8.915,20.056,13.455,-41.933,12.348,927.704,-5.817,-237.399
2.475504600000022,0.011,-0.911,-212.876,9.635,296.066,-38.372,-44.991,5.989,13.277,-2.972,-4.371,-6.466,-11.476,4.285,-31.064,2.459,18.472,-1.249,5.688,-7.547,-24.626,3.783,11.327,10.88,-48.038,10.287,921.141,-10.934,-238.698
2.49042210000016,-0.502,2.164,-212.151,13.724,295.258,-30.649,-43.409,9.057,15.826,0.105,-2.83,-2.362,-11.464,7.867,-31.033,5.531,27.163,-0.735,3.633,-5.49,-21.527,5.316,11.828,9.844,-50.552,8.227,919.707,-7.849,-239.997
2.4904802999999447,-2.55,3.186,-211.427,19.346,291.376,-36.254,-55.148,5.974,14.273,-6.043,-10.512,-2.359,-11.965,2.224,-35.613,1.939,23.038,-8.419,-0.469,-8.046,-25.092,-1.349,9.767,4.711,-58.698,5.657,916.738,-11.427,-242.318
2.5054316999999173,-9.208,-1.427,-211.728,16.765,291.085,-43.902,-46.896,0.333,16.308,-6.037,-11.526,-5.943,-7.342,5.808,-40.188,0.4,20.453,-6.874,0.556,-7.526,-28.141,-3.397,6.171,1.121,-59.664,5.139,915.309,-14.49,-240.539
2.505491699999766,-6.637,-5.012,-217.151,4.965,294.892,-34.637,-41.726,4.943,26.538,7.289,-0.756,5.846,-1.699,16.56,-35.025,7.572,28.629,-3.281,0.043,-4.444,-24.526,1.217,6.165,3.169,-54.994,5.134,919.005,-14.988,-246.446
2.5205746999999974,-3.557,-11.667,-230.254,-9.384,287.937,-36.139,-43.734,10.061,21.9,4.208,-3.317,7.377,-5.796,12.445,-31.403,5.515,25.015,-13.524,-4.056,-8.026,-27.063,-5.956,5.134,1.116,-61.599,1.543,918.086,-26.243,-261.057
2.5206420999998045,-3.553,-10.119,-228.999,0.359,284.576,-47.374,-31.395,16.199,13.682,-5.018,-7.412,-5.95,-8.352,5.773,-32.909,0.899,13.719,-22.732,-6.613,-10.067,-30.622,-10.561,3.592,-4.008,-67.685,0.517,916.655,-29.291,-259.771
2.5355430999998134,2.086,2.187,-216.987,19.826,295.049,-41.179,-32.9,20.281,20.84,2.672,-0.232,-2.87,-3.221,6.792,-30.827,-1.663,9.094,-25.783,-12.754,-10.569,-28.543,-7.989,0.515,-4.516,-64.543,2.053,919.837,-19.016,-250.802
2.5356087999998635,8.744,6.283,-214.209,18.782,300.39,-28.33,-52.335,15.138,24.918,10.866,0.281,3.792,-5.267,2.687,-27.21,-9.859,6.524,-32.929,-17.864,-15.682,-30.563,-12.592,-2.047,-0.926,-66.016,3.588,919.942,-18.997,-251.576
2.550866799999767,15.907,8.326,-207.334,25.423,302.651,-27.277,-46.647,15.635,19.258,8.294,0.793,-1.334,-9.36,2.172,-26.158,-7.287,10.103,-29.823,-11.699,-12.08,-29.508,-7.456,5.127,6.248,-61.339,10.244,920.559,-13.342,-243.127
2.5509266999997635,18.453,13.953,-195.344,39.23,307.471,-32.373,-35.33,21.255,17.701,4.699,4.89,-2.87,-7.301,11.391,-29.206,0.917,20.852,-16.473,-5.027,-4.896,-25.38,4.847,11.269,10.852,-52.056,12.796,922.712,0.503,-229.564
2.5656150999998317,6.651,2.668,-205.395,22.797,301.016,-41.05,-54.762,10.475,14.61,-0.941,-3.824,-4.916,-13.442,9.843,-33.787,-6.769,21.856,-17.481,-7.071,-10.526,-30.99,-1.818,3.574,3.669,-60.201,3.561,914.105,-10.768,-239.068
2.565682200000083,0.497,-11.679,-217.485,7.405,293.543,-43.57,-60.343,0.731,8.96,-3.501,-7.406,-10.035,-19.576,3.685,-33.241,-10.86,19.272,-21.562,-5.015,-10.516,-31.471,-4.378,3.058,-2.482,-69.362,-0.541,905.506,-26.639,-251.125
2.580647499999941,9.718,-3.983,-208.046,18.668,298.885,-35.842,-28.007,12.513,10.488,2.138,4.897,1.759,-10.335,12.903,-26.036,3.495,28.987,-10.27,4.724,3.327,-19.145,14.07,15.862,8.791,-59.047,10.218,909.211,-17.903,-244.726
2.580718700000034,10.221,2.169,-206.301,15.576,301.66,-32.732,-17.733,21.21,16.625,5.722,8.478,15.077,-2.64,20.575,-22.423,13.738,39.716,-1.55,13.941,7.422,-16.564,20.203,21.482,19.028,-51.303,16.868,911.376,-16.86,-243.456
2.59564249999994,-1.573,-9.104,-218.39,3.777,298.284,-36.286,-40.257,14.529,20.195,4.691,3.346,14.037,-4.174,18.505,-23.426,14.236,40.189,-4.622,14.439,2.804,-23.72,14.035,17.874,13.374,-57.399,11.728,901.755,-32.725,-254.996
2.595706699999937,-7.206,-16.267,-220.733,11.97,296.961,-37.274,-38.68,11.44,17.101,3.15,2.831,10.437,-3.145,18.486,-26.988,11.661,35.538,-6.155,6.228,2.289,-27.282,9.411,14.27,6.7,-64.514,4.032,895.73,-38.84,-262.938
2.6106261999998424,-9.761,-13.689,-215.902,14.007,286.93,-41.335,-16.612,13.99,8.374,-2.489,-5.369,2.742,-4.679,16.419,-32.597,0.378,30.892,-11.784,-4.537,-4.886,-35.964,-4.431,6.059,4.645,-66.499,-2.632,896.372,-36.752,-259.601
2.6106825000001663,-14.362,-12.139,-209.026,8.87,275.373,-47.954,-23.255,13.976,7.341,-11.196,-17.659,-11.093,-15.433,10.767,-37.687,-14.479,27.787,-19.457,-11.193,-14.614,-47.199,-14.16,-3.169,1.054,-67.969,-5.191,893.938,-35.69,-245.509
2.62557919999972,-14.86,-12.126,-197.546,18.595,278.171,-47.394,-40.65,10.376,10.408,-17.844,-20.715,-19.279,-21.565,7.17,-40.723,-23.686,23.148,-20.462,-15.792,-16.649,-49.713,-11.072,-4.702,-0.484,-70.463,-4.161,890.995,-31.556,-236.042
2.640610999999808,-14.332,-12.114,-195.299,20.114,280.967,-45.809,-41.122,3.193,1.176,-22.95,-25.818,-26.432,-25.642,-0.01,-42.732,-34.421,15.44,-28.126,-24.998,-23.805,-54.786,-20.283,-9.821,-6.119,-75.516,-8.768,893.69,-35.111,-240.417
2.642299799999819,-16.88,-13.127,-200.739,7.286,273.514,-47.3,-48.253,-5.519,-7.535,-27.025,-32.964,-38.189,-34.838,-7.182,-45.251,-46.17,8.253,-40.393,-35.219,-33.515,-61.904,-29.484,-20.569,-16.359,-82.612,-13.37,894.846,-42.76,-241.714
2.6557020000000193,-13.277,-9.528,-193.366,10.865,274.265,-44.691,-58.451,-11.149,-3.941,-26.486,-29.345,-38.663,-38.901,-5.638,-47.255,-46.123,5.683,-39.841,-34.672,-30.92,-56.207,-22.282,-19.524,-14.294,-85.604,-7.209,896.513,-35.033,-231.226
2.655768099999932,2.618,7.9,-173.705,32.371,289.36,-38.499,-45.585,-0.379,0.161,-17.75,-18.045,-25.816,-33.227,-0.509,-39.01,-32.757,9.263,-32.628,-24.391,-21.155,-43.855,-16.112,-8.234,2.627,-73.735,4.069,907.399,-12.969,-214.088
2.6717917000000853,16.96,30.434,-158.162,53.343,301.366,-35.387,-31.195,23.187,2.723,-9.535,-7.781,-18.106,-28.071,2.565,-24.627,-22.991,17.963,-30.034,-20.268,-16.523,-39.201,-10.973,-2.59,15.944,-58.804,11.237,915.713,4.975,-197.993
2.671856200000093,15.406,36.039,-156.979,62.511,299.527,-32.278,-39.36,22.652,1.183,-13.624,-7.261,-22.186,-31.117,2.563,-24.09,-26.554,16.921,-33.59,-25.883,-17.531,-38.649,-4.302,-3.1,17.465,-60.282,14.812,912.236,6.507,-198.819
2.685774499999752,10.78,24.732,-167.069,54.252,294.617,-32.758,-42.907,0.088,-5.99,-19.758,-11.352,-21.652,-31.598,-4.612,-28.677,-28.577,9.219,-42.778,-26.369,-18.538,-37.073,-6.859,-2.585,14.886,-66.37,14.285,910.811,-5.795,-213.99
2.685833399999865,13.843,17.535,-173.562,41.39,301.495,-34.262,-29.544,2.649,-2.398,-11.03,-0.582,-5.236,-21.832,-4.095,-19.939,-12.666,12.284,-41.199,-17.634,-11.86,-33.963,-3.266,-0.533,16.921,-63.742,12.734,916.561,-16.035,-222.997
2.700822899999821,14.854,12.395,-175.949,35.201,308.366,-32.691,-19.781,18.528,7.338,1.277,14.275,10.138,-9.515,6.667,-14.283,5.277,18.932,-32.448,-9.419,-3.651,-29.318,10.057,1.005,17.928,-68.801,16.307,916.669,-19.605,-227.385
2.7025582000001123,12.278,6.747,-181.921,31.579,306.52,-33.17,-21.298,17.485,8.868,5.886,13.237,13.202,-4.895,7.173,-19.392,9.37,16.351,-35.49,-5.824,-2.623,-25.19,13.121,2.541,13.3,-75.905,18.34,913.19,-23.684,-233.305
2.7158414999998968,12.265,6.74,-185.325,33.085,307.751,-32.112,-27.937,22.59,17.056,8.954,11.174,17.287,-2.841,3.067,-17.836,10.898,18.896,-34.942,-0.695,0.966,-23.628,15.669,8.173,16.872,-64.046,17.297,914.327,-23.148,-230.51
2.7159029999997983,1.495,-1.464,-189.239,28.441,301.808,-32.08,-32.52,31.277,26.26,5.359,9.114,15.221,-2.326,5.113,-18.33,9.35,24.0,-25.685,4.429,3.527,-31.801,17.703,12.776,21.979,-53.223,13.694,911.875,-25.174,-229.255
2.73086770000009,-18.999,-20.418,-203.394,4.846,276.403,-42.807,-29.925,12.803,12.402,-11.04,-8.826,-3.238,-13.082,-0.015,-33.681,-6.541,16.804,-32.832,-3.26,-7.748,-45.089,2.828,6.103,9.149,-62.392,2.922,904.816,-45.642,-241.834
2.730928500000118,-20.517,-27.569,-211.9,-7.966,265.368,-49.936,-31.432,-5.141,1.631,-19.226,-20.088,-12.456,-22.802,-5.65,-38.771,-16.781,11.664,-39.459,-9.917,-15.937,-45.557,-3.323,1.486,1.455,-67.965,-2.717,904.936,-60.965,-250.301
2.7458480999998756,-3.591,-18.833,-207.077,3.825,279.447,-41.177,-42.672,0.5,11.875,-10.497,-8.797,-2.197,-16.632,2.04,-27.461,-6.005,20.874,-25.075,-1.198,-6.187,-37.314,13.075,11.219,15.286,-58.675,9.069,913.252,-51.17,-243.903
2.7459076000000096,1.024,-13.691,-205.333,10.993,284.291,-39.599,-47.752,3.061,13.4,-8.95,-3.153,-0.146,-11.492,7.674,-26.921,0.148,26.489,-20.439,5.464,-2.595,-36.252,16.135,15.818,21.931,-56.055,17.769,917.974,-42.41,-240.585
2.760856800000056,-7.174,-14.702,-208.714,7.908,275.297,-52.367,-42.581,-2.578,0.067,-19.187,-12.371,-10.904,-20.19,1.006,-36.116,-11.635,20.314,-30.153,-3.251,-13.863,-40.314,2.799,5.556,12.687,-67.27,11.092,910.396,-49.027,-245.468
2.7626979000001484,-7.167,-14.687,-209.018,7.388,276.046,-53.852,-41.002,-3.087,-1.47,-19.68,-14.408,-14.992,-21.707,0.493,-37.617,-19.308,17.22,-32.172,-11.957,-21.021,-42.836,-1.814,-2.646,6.527,-78.473,5.957,899.752,-52.565,-250.346
2.7760293999999703,-6.135,-14.672,-212.395,3.795,279.869,-47.65,-51.207,-4.621,4.167,-14.025,-10.295,-12.928,-14.513,6.127,-35.018,-16.727,20.789,-33.676,-13.482,-19.463,-45.354,-4.886,-6.23,-1.677,-82.493,2.365,897.315,-56.611,-254.706
2.7760935000001155,-14.326,-22.342,-217.818,-9.017,271.392,-52.725,-58.84,-8.715,-2.497,-21.183,-14.384,-15.476,-18.597,3.56,-39.081,-21.321,21.793,-36.717,-16.03,-22.005,-49.92,-14.103,-13.908,-11.921,-88.046,-6.859,893.344,-70.899,-262.648
2.7909089999998287,-20.972,-34.103,-216.575,-21.303,258.313,-60.357,-48.535,-13.83,-15.303,-32.945,-22.054,-21.608,-25.75,-2.079,-45.19,-31.034,17.673,-31.557,-21.137,-28.131,-54.993,-16.65,-17.48,-13.958,-95.13,-9.413,876.057,-79.025,-269.046
2.8054701000000932,-17.364,-32.532,-211.748,-15.647,261.641,-58.248,-37.728,-14.84,-12.213,-28.302,-19.47,-19.025,-19.577,5.095,-43.608,-23.83,23.803,-22.816,-15.993,-23.492,-50.327,-8.437,-10.29,-8.821,-90.937,-2.744,853.152,-74.847,-264.166
2.8055387999997947,-11.712,-21.229,-209.487,2.3,277.773,-51.529,-46.4,-7.141,2.656,-15.466,-8.692,-2.612,-9.311,17.898,-33.318,-5.363,39.148,-13.572,-0.095,-9.636,-37.981,1.305,-1.059,-2.665,-79.575,0.845,838.466,-70.161,-251.606
2.8199879999997393,-12.725,-24.794,-206.204,1.785,280.569,-50.966,-52.501,-4.572,6.239,-13.401,-6.122,6.099,-5.203,22.491,-30.211,4.376,44.745,-5.873,8.102,-3.991,-32.308,5.915,3.041,1.436,-81.032,3.406,834.554,-69.067,-249.305
2.820049899999958,-14.249,-30.404,-204.46,-7.438,271.067,-53.476,-42.203,-13.789,0.085,-14.925,-8.165,1.995,-3.149,22.468,-33.254,8.982,42.651,-8.429,8.606,-4.5,-31.763,8.47,6.624,3.996,-86.074,6.989,837.818,-64.387,-250.593
2.835095999999794,-7.062,-14.492,-197.084,12.037,278.993,-46.763,-41.648,-8.14,6.745,-7.225,1.577,11.214,1.465,26.032,-23.487,19.732,47.731,-8.421,18.843,3.189,-20.973,20.245,16.351,12.702,-72.668,9.543,841.591,-51.002,-233.949
2.8351589999997486,2.679,3.453,-178.956,34.054,293.059,-34.421,-51.853,10.824,17.497,-0.045,13.358,23.499,5.05,23.957,-10.656,26.372,46.659,-3.802,24.46,5.235,-13.78,29.446,21.97,24.984,-53.64,15.681,845.872,-38.144,-212.198
2.8500708000001396,1.139,0.376,-171.605,25.311,286.105,-35.923,-44.116,10.3,12.356,-6.705,4.636,12.717,-0.079,15.736,-15.768,19.686,35.854,-14.044,10.091,-6.553,-21.451,18.146,14.264,24.959,-53.587,19.252,845.539,-34.519,-210.449
2.850133399999777,-7.571,-10.895,-183.728,7.867,275.061,-48.695,-32.289,-3.542,2.098,-17.969,-10.226,-2.153,-10.325,8.035,-28.048,8.395,30.182,-28.887,-1.19,-13.206,-28.602,2.759,3.491,14.688,-63.267,10.523,833.422,-38.583,-219.972
2.865057500000148,-9.101,-14.471,-197.377,1.712,277.86,-51.72,-37.38,-3.026,1.583,-20.513,-11.24,-4.712,-14.925,2.904,-30.069,1.727,27.078,-29.882,-4.775,-12.681,-29.085,1.219,-0.099,8.014,-67.302,3.34,822.343,-46.229,-226.924
2.8651184000000285,-3.969,-12.919,-206.401,0.685,281.168,-46.545,-41.441,1.075,2.094,-17.419,-9.18,-7.269,-12.861,4.438,-29.527,0.7,27.563,-27.291,-8.869,-16.767,-30.081,-0.831,-4.197,5.956,-69.284,4.362,823.057,-52.331,-233.357
2.8800928000000567,-1.403,-12.394,-210.293,3.759,280.374,-45.986,-38.326,-2.512,-1.494,-19.963,-8.658,-6.75,-12.848,12.118,-29.497,2.237,34.196,-26.751,-7.323,-15.725,-28.514,-5.441,-6.242,2.877,-72.801,3.333,826.333,-52.791,-240.809
2.8801564000000326,-3.451,-14.431,-208.034,5.804,282.143,-46.453,-48.533,-1.997,-3.03,-22.504,-7.113,-2.645,-13.86,13.131,-25.882,3.259,34.162,-23.651,-3.729,-11.611,-25.924,1.736,-0.6,2.874,-73.24,2.817,825.506,-54.787,-244.666
2.895136000000093,-9.595,-18.515,-212.949,-5.473,277.25,-49.48,-59.756,-4.044,-2.002,-19.408,-13.766,-7.253,-13.846,9.019,-27.905,1.207,30.541,-21.066,-6.8,-16.722,-29.996,3.272,-1.112,2.871,-73.679,4.863,825.706,-63.442,-245.446
2.8952015999998366,-17.27,-26.693,-222.47,-21.861,266.215,-58.652,-55.085,-17.36,-3.024,-22.462,-23.486,-12.881,-14.857,13.621,-37.611,-3.405,35.634,-21.045,-8.33,-21.829,-34.065,-6.465,-5.722,-1.743,-76.68,-0.264,816.171,-70.038,-245.713
2.910150799999883,-18.79,-30.765,-217.124,-19.79,265.949,-62.18,-46.833,-15.806,-0.972,-27.563,-17.827,-7.745,-13.305,17.194,-40.135,-1.865,37.648,-21.024,-3.198,-19.245,-28.908,-2.361,1.456,0.308,-75.578,-2.826,802.034,-69.456,-242.906
2.910212599999795,-12.623,-22.537,-211.784,-1.839,274.392,-54.945,-45.762,-4.007,4.664,-18.826,-7.563,-2.614,-7.656,14.615,-32.922,7.358,38.122,-18.441,2.953,-14.103,-20.17,10.962,13.238,11.066,-68.33,5.374,795.597,-65.288,-234.466
2.925479699999869,-12.098,-19.441,-215.158,-3.374,274.117,-51.816,-50.327,-10.663,5.172,-11.635,-12.166,-1.587,-8.161,16.137,-32.377,8.376,45.769,-16.373,5.511,-12.04,-17.588,9.414,12.712,13.617,-65.188,7.93,786.092,-63.174,-230.645
2.925536700000066,-14.648,-25.057,-209.82,-16.691,268.72,-53.814,-55.399,-15.263,1.58,-16.747,-13.691,-1.073,-13.788,16.121,-35.419,4.781,45.723,-19.431,4.481,-12.54,-16.546,7.355,10.138,8.992,-67.685,2.799,774.548,-64.647,-234.001
2.9401302999999643,-5.924,-17.86,-198.852,-1.305,276.648,-47.1,-52.27,1.146,5.677,-10.582,-0.869,0.977,-9.676,8.42,-27.186,13.998,34.919,-21.461,7.038,-8.941,-8.332,16.057,13.202,11.545,-67.105,7.407,782.995,-58.947,-228.644
2.940189200000077,6.377,-1.96,-192.505,21.238,293.278,-38.856,-46.582,6.78,14.381,1.212,6.816,8.149,-1.982,6.875,-18.45,26.792,33.859,-19.902,13.691,-0.223,2.947,23.726,16.262,18.706,-60.89,17.134,796.556,-46.081,-216.12
2.955239399999755,7.396,2.14,-182.579,19.68,300.669,-38.305,-49.097,1.65,14.879,-2.376,6.297,13.264,-2.492,11.479,-20.481,25.74,39.461,-20.395,15.727,-1.248,6.53,25.751,18.808,20.736,-55.706,21.727,792.686,-40.911,-213.854
2.9553047999997943,-0.809,-2.985,-178.81,20.685,292.684,-41.853,-42.901,7.796,9.229,-9.033,4.241,7.103,-6.076,9.931,-25.071,18.03,37.372,-23.96,10.588,-10.98,0.376,19.065,14.69,14.055,-59.749,18.119,788.307,-49.58,-221.325
2.9702472999997553,-13.616,-14.765,-194.0,18.102,274.973,-51.545,-32.612,1.641,2.047,-16.709,-6.521,-4.175,-8.631,7.359,-31.706,4.692,29.138,-32.646,-4.792,-19.678,-13.457,1.116,-2.743,-2.865,-77.62,5.294,783.933,-68.998,-233.912
2.9852560999997877,-24.873,-30.632,-210.713,-9.58,260.353,-62.252,-49.485,-22.952,-7.689,-30.012,-21.884,-15.954,-15.282,4.278,-43.457,-13.244,19.887,-43.371,-21.693,-29.905,-25.739,-13.23,-19.646,-21.817,-98.547,-10.081,767.779,-83.273,-249.047
2.985332700000072,-31.508,-36.749,-214.6,-26.477,250.871,-63.214,-70.953,-29.589,-13.317,-35.105,-32.108,-27.721,-23.976,-0.85,-50.074,-23.477,18.33,-43.84,-24.746,-37.047,-28.787,-17.315,-23.213,-28.968,-103.059,-16.219,757.79,-83.703,-252.384
3.0002527999999984,-38.649,-36.712,-212.849,-22.864,238.325,-64.175,-61.148,-25.461,-14.328,-39.681,-42.835,-36.403,-30.612,-0.336,-53.098,-30.625,24.46,-38.673,-23.696,-41.109,-30.295,-23.958,-23.189,-28.939,-96.808,-17.739,754.471,-84.131,-246.496
3.0003175000001647,-42.708,-38.725,-210.587,-24.891,229.378,-69.746,-50.84,-30.558,-15.85,-48.351,-49.452,-39.952,-31.606,2.738,-58.168,-37.255,24.435,-44.782,-30.332,-45.678,-31.289,-28.032,-26.24,-29.422,-92.613,-17.722,739.884,-87.121,-241.639
3.0152164000000994,-30.37,-31.001,-200.642,-14.107,239.394,-65.578,-56.937,-22.331,-14.298,-43.179,-39.156,-36.326,-23.89,1.198,-54.523,-28.508,20.312,-44.738,-26.716,-38.46,-22.036,-17.246,-22.628,-23.245,-82.786,-9.507,737.095,-73.714,-232.176
3.0169110000001638,-13.434,-15.601,-183.536,10.497,256.061,-53.217,-47.659,-2.841,-7.623,-32.378,-27.334,-27.068,-19.768,-0.852,-41.661,-13.623,22.853,-31.373,-12.857,-25.614,-9.207,-3.909,-12.359,-8.877,-68.871,1.261,754.801,-58.271,-217.599
3.030319200000122,-11.883,-9.95,-169.52,18.684,264.002,-45.479,-29.168,1.773,-3.005,-29.784,-24.233,-22.431,-20.773,-0.851,-36.496,-13.609,22.318,-28.78,-11.819,-26.613,-6.124,-1.343,-4.15,0.353,-61.118,3.821,760.706,-59.749,-209.184
3.0303814999997485,-15.97,-10.452,-163.715,23.788,269.373,-40.823,-26.065,2.283,3.658,-18.483,-16.524,-19.334,-13.58,-0.851,-39.534,-14.108,16.148,-36.436,-15.394,-29.148,-3.556,-3.391,-2.096,0.353,-55.934,2.793,754.31,-62.251,-207.438
3.0453487999998288,-12.368,-16.59,-167.137,26.326,269.616,-39.758,-26.551,4.33,10.314,-10.78,-9.847,-12.143,-6.394,-3.411,-36.933,-6.409,15.108,-36.912,-11.792,-22.459,0.546,-1.851,-5.168,-3.746,-55.878,0.741,752.531,-67.312,-213.379
3.0454122000001007,-11.843,-26.819,-173.118,10.931,264.736,-44.841,-26.012,-1.822,6.206,-15.892,-8.813,-5.983,-7.924,-6.994,-32.285,0.769,13.556,-34.313,-7.682,-19.875,1.57,1.737,-5.675,-5.791,-61.457,-1.821,750.242,-78.003,-220.85
3.060796599999776,-13.881,-24.743,-170.383,7.846,270.619,-41.21,-34.696,1.766,5.687,-7.679,-0.095,1.708,-1.256,0.185,-33.277,8.453,20.202,-25.057,-1.014,-16.781,5.667,6.858,4.064,-0.663,-56.273,1.767,753.078,-72.29,-215.506
3.0608781000000818,-15.404,-19.083,-168.164,19.621,275.984,-37.583,-43.37,8.424,14.391,-0.499,2.467,8.366,6.43,18.116,-34.781,13.056,43.748,-10.175,5.647,-12.154,8.223,7.876,7.134,-0.15,-46.995,3.302,757.448,-65.558,-209.655
3.075449699999808,-25.634,-32.896,-181.828,5.257,255.215,-50.353,-46.913,-6.953,6.179,-19.454,-17.003,-4.962,-2.798,23.221,-39.869,1.259,57.024,-10.678,-2.556,-22.388,-1.007,-5.452,-5.681,-10.908,-55.657,-8.997,745.932,-83.935,-222.765
3.077317100000073,-34.83,-43.622,-189.33,-15.753,239.079,-57.987,-44.305,-16.168,-5.61,-29.681,-27.233,-18.79,-10.48,16.538,-44.952,-8.988,49.795,-16.815,-10.75,-30.562,-4.08,-14.155,-10.798,-13.971,-61.749,-15.136,741.6,-95.634,-232.789
3.0903865000000224,-23.012,-30.771,-177.358,-4.979,253.184,-46.658,-26.329,1.779,10.277,-14.282,-13.885,-6.475,-0.736,19.595,-39.272,-0.27,48.72,-6.039,-1.518,-20.286,10.781,-3.895,2.02,-0.637,-46.83,-2.313,758.789,-77.095,-220.261
3.0904523999997764,-10.694,-19.469,-167.447,16.031,264.714,-37.39,-10.422,14.073,27.685,-4.022,-6.699,3.777,6.949,23.674,-32.06,6.903,48.672,0.627,1.045,-17.704,17.431,3.793,5.605,4.999,-38.074,6.911,766.227,-58.575,-207.233
3.1056534999997893,-10.171,-16.376,-162.156,28.822,265.474,-36.84,-10.411,14.059,25.096,-2.993,-8.229,-4.936,3.869,15.453,-34.59,1.773,36.84,-10.645,-8.177,-25.371,15.364,-2.87,-3.11,-0.129,-39.573,1.269,761.874,-49.295,-200.365
3.1057190000001356,-0.939,-4.576,-146.113,41.601,278.016,-30.144,-4.253,25.315,27.12,1.108,-0.536,-6.468,4.377,12.364,-31.481,2.283,33.217,-14.733,-6.632,-20.735,22.521,-4.404,-0.033,3.457,-30.312,3.317,772.896,-32.852,-184.283
3.1204721999997673,11.869,11.31,-128.036,48.732,289.521,-21.404,11.12,38.098,34.778,6.23,8.173,4.809,10.008,16.45,-21.716,11.503,35.745,-9.082,3.62,-10.98,33.769,7.895,12.774,15.237,-18.499,16.121,786.467,-12.839,-170.267
3.120539799999733,18.005,22.057,-119.711,53.294,292.818,-17.284,15.72,41.134,35.255,10.835,12.264,9.928,12.047,10.798,-17.084,15.59,31.099,-9.586,8.228,-7.895,42.957,20.183,23.52,27.005,-11.308,24.302,790.804,3.055,-165.998
3.13541959999975,29.258,35.355,-117.542,68.61,308.407,-10.095,15.192,44.166,35.732,14.923,17.887,12.479,11.011,7.201,-10.407,21.722,29.531,-9.064,17.441,-3.789,57.258,30.921,35.28,37.224,3.048,30.425,801.796,15.86,-158.148
3.1371014999999716,41.012,48.127,-114.863,82.374,323.98,-0.351,15.689,51.294,38.77,20.031,26.578,21.688,15.098,17.44,-1.687,35.532,37.186,2.728,32.793,2.875,68.984,42.673,45.49,45.384,14.316,41.666,812.265,25.578,-150.817
3.1505152999998245,45.069,53.202,-109.113,83.316,324.168,3.748,16.698,59.952,44.367,30.769,37.31,36.524,25.329,27.157,1.389,51.378,46.37,19.632,41.981,11.581,76.088,50.827,49.543,50.461,15.326,47.259,811.453,31.188,-147.08
3.1655476999999337,50.147,52.637,-107.466,83.745,325.893,3.744,20.78,65.528,53.544,36.374,46.494,48.27,34.013,34.302,7.535,63.11,57.082,35.494,50.649,22.841,86.77,52.826,52.568,52.972,18.897,45.675,809.617,35.255,-142.835
3.1656104999997297,48.56,47.461,-118.63,81.1,325.055,0.667,21.271,57.778,52.466,29.165,43.886,48.734,36.028,41.952,11.114,66.633,63.685,39.557,57.258,24.355,87.708,48.675,53.027,49.846,20.927,43.58,804.197,33.17,-149.864
3.1815433000001576,32.118,40.241,-133.368,69.235,309.361,-8.043,9.979,42.351,41.655,19.914,30.01,38.439,31.382,41.91,0.856,54.783,60.548,32.345,46.955,13.06,74.3,37.355,45.802,39.037,9.123,35.852,794.171,20.842,-168.67
3.181608099999721,17.741,29.955,-144.505,56.358,293.17,-17.769,-6.425,34.111,37.003,10.673,17.172,24.056,22.129,33.159,-11.44,35.261,49.729,25.652,29.489,1.776,63.98,19.387,30.387,22.604,-4.206,21.472,782.618,6.476,-178.235
3.1954952999999477,10.039,16.605,-154.607,44.519,281.606,-25.436,-16.152,27.417,33.892,0.416,6.397,11.737,13.91,22.367,-20.138,19.856,37.384,17.43,17.677,-6.935,55.206,0.925,12.938,5.163,-11.886,9.155,766.466,-2.239,-182.667
3.195554599999923,2.344,9.416,-161.113,34.228,271.078,-31.558,-12.037,19.705,26.686,-2.146,-4.368,3.016,8.773,13.123,-28.827,7.029,27.612,3.068,4.851,-16.15,43.88,-15.47,-0.395,-4.576,-23.657,-0.588,753.917,-6.336,-191.706
3.2106049999997595,1.317,11.968,-160.951,35.731,272.344,-29.477,-3.316,18.661,25.122,1.442,-3.339,-6.209,4.665,7.987,-33.409,-6.298,20.412,-8.718,-7.961,-20.745,39.226,-26.213,-7.054,-5.083,-32.855,-5.711,755.212,-9.915,-192.027
3.2106708000001163,5.414,15.542,-156.18,40.818,279.756,-22.788,-7.924,20.691,25.609,0.416,0.763,-13.375,0.05,-0.218,-34.4,-14.489,12.707,-15.882,-11.027,-22.261,40.211,-25.162,-10.633,-3.541,-27.187,-0.07,754.969,-7.344,-184.15
3.2256333999998787,9.507,18.088,-149.364,39.241,276.915,-24.814,-12.526,20.671,19.436,-4.707,-4.361,-14.898,-3.536,-9.951,-33.341,-14.987,6.035,-21.501,-9.479,-22.238,44.269,-16.94,-4.987,2.098,-14.865,10.689,755.751,0.348,-178.843
3.2257002000001194,15.133,23.706,-145.116,41.251,269.978,-26.326,1.831,25.261,15.83,-7.776,-5.894,-12.834,-6.607,-11.991,-24.086,-10.361,7.566,-15.844,-1.785,-15.044,58.058,-5.653,9.362,15.415,-8.19,20.412,770.877,4.958,-174.566
3.2405290000001514,19.216,28.293,-140.872,45.82,268.171,-16.054,9.001,32.408,25.036,-2.645,4.358,-6.674,-3.014,-7.88,-16.377,-3.691,11.144,-5.582,11.537,-4.27,67.733,6.136,18.574,21.035,-5.62,23.978,778.303,5.978,-171.829
3.240585799999735,19.709,28.264,-140.219,45.774,271.489,-10.915,-0.742,34.425,35.769,8.628,9.989,4.604,6.723,0.837,-18.41,8.096,14.719,-1.478,16.648,1.369,65.104,7.667,17.531,15.379,-8.176,19.855,770.352,7.509,-176.781
3.25553919999993,17.641,23.113,-149.813,44.192,278.39,-18.589,1.821,32.853,36.758,11.181,9.979,13.821,13.889,16.718,-18.904,20.384,24.438,9.794,18.168,3.417,66.576,3.561,17.001,11.777,-14.315,14.712,768.557,4.428,-182.752
3.2555951999997887,12.5,12.844,-161.446,36.975,280.161,-23.181,8.991,31.284,36.209,5.534,13.043,20.979,20.535,30.021,-17.861,26.511,34.66,25.153,24.81,6.488,71.632,5.094,18.521,9.716,-15.326,11.624,766.252,-7.872,-189.229
3.270626099999845,5.827,3.097,-166.407,19.52,272.708,-24.694,1.298,28.178,37.198,3.992,8.419,20.958,23.076,27.942,-22.966,23.41,34.625,23.079,19.662,6.481,65.413,-0.034,13.38,-0.539,-17.36,7.001,756.264,-20.16,-200.823
3.2706955999997263,-0.326,-2.029,-172.389,8.229,265.263,-33.379,-1.778,25.076,31.525,2.451,-0.298,12.228,13.319,19.717,-28.066,14.166,26.394,15.371,6.835,1.352,57.663,-15.403,1.583,-9.248,-26.564,0.334,756.02,-25.775,-207.794
3.2856535000000804,-3.912,-3.052,-173.753,14.881,263.973,-37.444,0.273,24.027,25.346,-2.675,-2.86,5.043,4.596,14.062,-30.087,6.467,21.244,16.893,6.828,-4.285,59.142,-17.949,-0.468,-8.214,-28.586,-5.301,760.387,-27.798,-201.951
3.2857186999999612,-0.322,1.05,-161.284,25.112,267.808,-32.796,-2.288,24.003,28.394,-4.209,-1.32,5.551,8.178,9.949,-30.569,6.46,19.686,14.827,8.358,-3.769,63.182,-12.296,6.705,-5.132,-20.873,-3.759,762.701,-25.209,-196.114
3.3010166999997637,10.949,12.32,-148.315,33.797,277.786,-28.152,2.837,31.663,31.952,1.431,5.341,8.107,10.731,9.939,-26.44,12.089,17.105,11.738,8.35,3.407,70.291,-10.234,10.797,1.021,-17.266,7.515,773.721,-13.913,-188.745
3.301075999999739,25.795,26.652,-137.921,52.206,295.951,-18.903,11.031,47.001,37.556,15.774,21.73,18.857,13.282,12.491,-17.192,24.373,19.137,20.435,22.174,12.113,86.614,3.608,20.52,17.413,-9.052,18.779,790.366,4.032,-173.187
3.315675800000008,41.139,40.458,-126.0,69.06,314.098,-7.101,13.069,51.052,45.203,29.078,36.565,36.769,23.515,14.528,-6.417,41.254,30.389,30.149,37.009,21.835,100.872,21.535,37.406,32.253,9.4,27.469,801.871,18.372,-161.231
3.3157335000000785,49.294,47.589,-121.263,70.015,321.469,-5.044,21.253,47.927,45.67,29.049,43.701,44.929,27.59,18.612,1.274,53.508,37.531,33.705,37.996,31.035,107.431,23.051,40.442,34.27,14.514,36.151,810.29,21.94,-159.021
3.3307512000001225,46.683,46.517,-119.092,71.482,322.172,-6.064,21.744,54.539,46.136,27.995,46.731,46.421,26.538,21.667,3.322,56.529,34.932,35.72,39.495,32.028,109.373,23.028,36.816,32.186,8.352,38.676,811.017,17.82,-155.275
3.330817600000046,37.928,40.323,-114.363,71.923,318.264,-9.644,-0.307,49.874,47.627,29.504,40.024,44.325,27.536,19.596,-1.804,49.3,30.286,28.0,37.406,23.287,102.604,22.492,35.754,24.982,3.732,32.49,799.96,11.654,-155.632
3.345813299999918,25.594,29.524,-118.859,53.92,301.039,-23.467,-18.237,26.258,33.235,16.155,22.566,29.424,19.311,12.916,-14.61,29.783,21.034,12.603,19.951,10.456,90.206,3.514,20.349,11.125,-8.567,22.211,786.865,-0.141,-163.161
3.3458786000001055,18.909,19.761,-119.765,40.546,284.345,-32.665,-17.707,18.035,17.832,1.794,10.248,16.075,9.558,10.342,-24.842,13.872,15.378,11.566,9.172,2.761,84.993,-10.321,2.91,7.015,-15.73,14.504,781.467,-6.8,-161.974
3.360783099999935,19.914,20.766,-96.591,48.703,285.597,-30.583,-19.738,22.628,18.327,1.28,8.701,14.009,13.647,11.868,-23.28,12.321,20.485,20.776,14.798,2.758,86.957,-6.725,9.055,12.131,-4.444,13.978,781.198,-0.646,-149.516
3.3757535999998254,16.308,22.794,-76.515,51.728,282.75,-33.626,-23.305,14.92,17.796,-3.844,2.544,8.36,11.584,12.369,-24.281,5.136,17.903,20.242,11.71,0.706,82.259,-12.866,13.144,4.947,-4.439,12.939,773.757,-0.645,-139.633
3.37581420000015,8.607,19.185,-70.803,47.578,273.758,-35.642,-18.158,12.856,15.217,-10.501,-5.143,0.155,1.839,6.209,-30.405,-7.164,6.615,14.075,0.427,-5.442,73.98,-22.587,-0.189,-3.767,-17.755,4.729,760.175,-7.817,-133.346
3.390793600000052,10.136,19.166,-56.387,50.604,278.095,-30.995,-11.48,19.503,20.325,-2.805,-0.527,1.692,2.861,-1.994,-26.788,-7.157,4.046,10.474,-1.11,-4.924,75.443,-18.466,-2.75,-0.178,-16.713,2.163,757.366,-5.76,-121.941
3.3924849999998514,14.736,22.221,-42.499,45.943,281.915,-33.014,-10.444,13.849,22.354,-1.266,5.109,3.227,5.42,-4.554,-22.15,-1.002,3.018,7.39,4.014,0.204,83.052,-14.349,8.011,3.921,-9.524,8.308,763.268,-1.143,-110.549
3.4058851999998296,20.357,26.809,-37.845,41.798,280.609,-33.493,-11.97,14.347,21.307,-4.851,5.616,2.711,5.415,-1.988,-24.69,1.048,-0.571,8.407,8.109,1.74,87.067,-10.748,13.126,8.016,-6.44,13.936,768.653,2.956,-103.266
3.405948900000112,28.021,36.516,-29.098,58.15,292.624,-24.75,-9.909,32.263,27.945,7.45,12.783,8.856,12.069,-0.961,-21.079,4.121,3.528,9.936,13.224,2.251,89.03,-2.541,17.724,17.229,-1.311,19.045,774.032,11.663,-95.478
3.4213261999998394,26.969,39.554,-27.02,66.289,300.016,-21.139,-6.826,35.817,28.942,14.102,17.893,10.897,13.082,-7.108,-15.422,1.043,2.499,7.364,10.649,3.273,90.477,-5.612,21.805,15.163,-5.408,19.538,773.258,13.188,-93.846
3.4213896000001114,18.745,31.829,-32.628,54.952,288.957,-23.68,-5.794,25.023,25.327,6.916,12.24,8.324,7.946,-7.613,-20.018,-3.057,-0.577,8.894,7.564,2.758,90.387,-11.242,23.832,9.0,-8.989,15.932,767.361,9.076,-99.899
3.4359260999999606,19.751,32.31,-25.936,55.409,286.107,-21.607,-4.251,26.535,30.937,9.47,11.203,11.902,13.573,5.202,-19.486,4.631,10.694,18.619,13.704,3.78,90.809,-2.521,28.931,15.139,-0.27,18.478,769.668,14.702,-98.775
3.435989199999767,20.755,35.864,-23.86,61.502,287.87,-22.097,-3.735,29.07,32.443,10.486,12.216,14.452,17.658,9.808,-17.929,5.651,17.856,22.699,14.715,4.288,89.181,-2.519,30.439,18.197,0.242,18.459,771.972,14.688,-95.09
3.450869199999943,12.538,28.143,-36.644,54.268,277.848,-27.711,-8.854,19.819,22.164,0.741,4.52,8.289,9.956,-0.448,-25.596,-3.576,8.617,19.602,7.016,0.698,83.457,-15.836,22.724,9.982,-12.053,9.732,763.003,8.013,-101.655
3.4527382999999645,11.501,25.554,-36.608,49.091,275.521,-26.658,-13.456,17.75,22.655,3.814,2.978,5.72,7.896,2.114,-26.082,-4.597,6.047,18.046,7.521,-1.865,81.324,-16.333,22.189,12.534,-14.603,9.21,762.753,13.64,-102.578
3.4659702999997535,18.149,30.651,-33.497,51.603,282.418,-22.533,-14.467,23.88,28.267,8.934,8.611,8.788,10.962,8.259,-19.909,-3.056,10.651,20.589,12.124,-1.35,83.804,-10.681,26.265,16.107,-15.613,14.836,768.65,17.213,-95.815
3.466038099999878,17.106,26.522,-44.734,47.965,277.525,-25.072,-15.99,20.783,21.067,1.24,5.528,5.705,7.365,-0.458,-24.5,-9.713,8.591,20.568,4.94,-1.861,83.208,-16.306,17.53,2.771,-21.233,10.21,762.758,4.9,-101.355
3.480022100000042,13.503,20.348,-47.251,43.819,273.149,-27.609,-12.9,17.688,16.435,1.751,1.424,2.626,4.284,-4.044,-25.5,-12.777,5.509,14.912,0.324,-2.372,80.051,-18.851,12.902,-0.818,-17.113,7.638,759.946,0.285,-108.938
3.480087800000092,14.514,21.352,-43.618,44.287,279.535,-25.02,-8.276,22.793,23.078,9.434,2.96,4.672,6.841,1.596,-18.302,-12.252,4.991,12.336,7.496,-0.32,80.996,-13.197,21.086,11.991,-12.485,12.242,765.334,4.383,-107.292
3.4949828999997408,8.864,14.158,-59.456,37.583,273.62,-28.068,-13.391,20.209,22.031,3.277,0.907,4.668,6.835,-4.041,-24.431,-13.776,3.962,16.422,6.464,-1.345,77.328,-16.77,17.478,4.806,-22.207,6.594,757.396,-7.917,-117.943
3.495043099999748,-2.928,-0.2,-76.815,24.738,259.515,-37.774,-18.501,9.943,11.763,-5.948,-5.241,2.101,0.68,-9.16,-33.628,-15.3,4.47,19.48,0.822,-5.442,69.566,-25.462,7.215,-11.08,-31.406,-2.122,746.905,-25.327,-137.293
3.5099750999997923,-5.999,-4.811,-79.299,19.078,260.792,-40.81,-18.482,7.883,9.189,-5.43,-8.31,-0.462,-1.882,-3.516,-31.033,-17.334,4.978,19.972,5.432,-5.949,69.497,-22.363,13.868,-5.946,-29.325,0.954,750.769,-28.376,-142.279
3.5250357999998414,-4.968,-2.757,-83.831,16.497,263.605,-36.671,-24.099,9.412,12.766,-4.4,-5.74,-1.486,2.218,0.074,-28.441,-18.341,4.973,23.026,6.964,-3.893,71.989,-18.242,20.001,-2.354,-27.247,3.002,755.653,-28.348,-144.698
3.5251005000000077,-3.938,-3.779,-92.456,13.407,259.755,-33.56,-30.223,6.842,15.827,-2.858,-0.611,3.126,5.29,2.635,-27.9,-14.736,11.115,26.077,2.858,-5.426,71.405,-22.322,14.858,-9.011,-30.293,0.95,755.922,-33.955,-153.263
3.5251439999997274,-3.934,-5.824,-99.536,13.393,259.496,-31.99,-28.143,5.81,16.324,-2.343,-2.147,5.172,2.211,6.731,-24.798,-13.697,15.203,26.051,5.417,-5.421,70.821,-23.325,17.405,-5.416,-33.337,3.511,759.777,-37.507,-155.159
3.540103199999976,-12.64,-15.04,-113.781,4.671,251.551,-42.204,-36.312,-1.368,7.598,-12.587,-14.953,-6.104,-3.939,0.064,-31.946,-22.905,4.429,19.365,-1.248,-9.002,62.553,-29.449,12.265,-9.509,-36.377,-3.665,753.894,-44.129,-160.127
3.540169999999762,-29.021,-33.468,-129.549,-13.265,229.783,-61.63,-52.157,-17.761,-4.705,-26.919,-28.258,-21.467,-10.595,-9.67,-44.209,-37.739,-7.358,8.075,-20.202,-24.362,47.121,-45.301,-6.703,-29.992,-45.562,-18.006,735.722,-57.918,-175.336
3.555442999999741,-36.164,-40.095,-135.567,-15.301,217.77,-63.105,-51.593,-21.841,-6.749,-27.917,-31.816,-25.032,-13.659,-8.635,-45.702,-45.898,-4.277,4.481,-21.207,-29.461,43.488,-51.403,-11.307,-33.548,-55.763,-20.037,728.326,-65.032,-183.87
3.5700332999999773,-35.616,-32.882,-137.481,-9.138,218.577,-51.259,-42.32,-11.573,-3.669,-24.815,-32.296,-25.519,-12.62,-8.114,-46.681,-49.438,-2.224,3.964,-15.038,-23.796,45.494,-48.278,-7.197,-24.805,-55.707,-17.968,732.721,-61.381,-183.686
3.5700944999998683,-37.117,-32.849,-142.466,-9.641,214.772,-56.843,-44.839,-13.611,-9.3,-31.962,-36.363,-31.641,-17.731,-16.303,-51.757,-57.586,-12.468,-3.212,-25.269,-29.407,39.813,-53.353,-16.924,-29.904,-52.578,-21.024,729.427,-64.393,-190.674
3.585198400000081,-36.055,-33.841,-144.373,-2.459,215.07,-63.958,-50.942,-22.307,-14.414,-36.541,-36.326,-33.147,-23.348,-19.873,-51.193,-57.528,-12.967,-3.209,-27.293,-32.964,40.285,-53.812,-18.444,-32.435,-51.501,-18.954,727.16,-69.964,-198.168
3.585258000000067,-31.408,-28.172,-143.204,4.203,224.076,-55.697,-51.915,-14.6,-9.277,-29.845,-31.679,-25.941,-18.202,-12.169,-45.506,-43.126,-0.659,10.626,-10.872,-21.148,49.467,-40.95,-4.081,-20.62,-43.764,-12.787,734.63,-63.234,-194.896
3.6001688999999715,-29.84,-26.094,-148.696,-5.535,231.024,-52.568,-43.667,-2.29,-1.583,-23.667,-24.475,-13.62,-8.962,-3.447,-41.875,-32.324,4.977,16.763,-3.689,-14.467,52.491,-33.737,3.095,-12.402,-36.548,-9.188,739.019,-56.511,-191.628
3.6002306999998837,-23.663,-25.556,-157.769,-0.918,235.916,-51.491,-32.864,-1.263,4.567,-16.471,-13.18,-0.286,-2.293,1.679,-36.71,-25.12,10.095,17.771,-2.66,-12.403,56.025,-32.167,3.092,-11.877,-38.049,-4.568,741.353,-60.553,-198.608
3.6151042000001326,-16.467,-21.432,-160.173,14.452,240.804,-39.656,-34.881,-1.774,9.173,-8.77,-7.019,5.862,3.344,3.215,-33.087,-13.824,18.794,25.438,5.539,-3.682,59.555,-27.524,7.188,-13.403,-37.498,-6.1,745.735,-62.029,-206.607
3.6151660999998967,-22.598,-26.534,-161.55,-0.42,245.174,-42.178,-39.457,0.277,9.164,-10.298,-11.11,3.294,2.316,1.675,-35.615,-13.81,16.214,24.9,6.046,-5.727,55.397,-29.033,7.18,-15.951,-35.924,-10.193,741.916,-61.967,-207.937
3.63008869999976,-27.186,-29.069,-166.511,-16.813,246.978,-53.919,-30.196,2.326,8.642,-14.899,-12.124,1.242,-1.784,3.21,-37.117,-20.456,9.025,18.215,-0.108,-14.943,52.268,-34.639,2.563,-15.935,-38.45,-7.621,738.1,-66.004,-210.803
3.6301456000001053,-19.474,-19.818,-168.394,-2.452,244.169,-49.254,-31.19,0.787,8.633,-12.322,-10.575,-0.296,-1.27,2.182,-36.567,-20.436,6.455,14.611,-3.694,-14.928,53.752,-35.629,-3.588,-15.406,-39.436,-9.15,745.559,-63.889,-211.617
3.645223999999871,-19.455,-20.31,-168.738,3.699,235.216,-50.742,-48.065,-9.46,-0.084,-16.408,-19.274,-11.567,-9.466,-8.066,-42.166,-31.686,-5.335,3.838,-12.399,-19.012,48.063,-41.741,-13.318,-24.1,-45.032,-17.338,746.862,-62.288,-207.819
3.6453043000001344,-21.997,-25.413,-173.18,-9.625,202.705,-47.617,-50.579,-17.135,-7.257,-23.052,-26.427,-21.801,-19.19,-16.768,-35.976,-49.073,-16.6,-8.974,-19.559,-23.091,45.966,-48.36,-18.428,-34.835,-56.77,-18.858,763.022,-70.935,-209.148
3.66025320000017,0.054,-18.728,-175.568,-6.542,170.227,-14.782,-47.966,-4.31,4.534,-8.684,-10.519,-14.607,-9.437,-16.238,-3.153,-43.901,-12.997,-5.891,-9.294,-2.063,67.949,-40.114,-11.749,-32.751,-53.127,-16.277,795.046,-73.425,-214.574
3.6603218000000197,29.256,-15.123,-174.368,2.174,137.781,18.02,-56.628,4.916,18.874,12.841,12.033,-2.297,3.38,-15.198,29.638,-33.098,-11.448,-0.762,5.573,25.091,95.033,-29.828,-6.102,-25.033,-40.266,-13.7,827.039,-64.13,-212.823
3.676269300000058,32.3,-18.182,-172.145,-4.488,106.393,19.027,-55.034,-7.897,14.756,13.341,14.583,-0.246,0.303,-12.621,34.732,-34.09,-11.436,-4.347,10.178,28.652,95.451,-25.7,-4.559,-22.447,-38.177,-6.514,823.138,-62.017,-207.999
3.6763310000001184,25.096,-11.503,-167.874,-4.996,139.074,-9.169,-40.122,-11.475,10.643,5.13,10.47,2.828,0.302,-7.485,9.082,-26.884,-2.203,-0.757,14.778,24.525,87.158,-16.453,2.618,-16.789,-30.966,1.178,790.04,-59.906,-205.23
3.690284199999951,29.682,-6.881,-170.78,3.718,158.403,-7.623,-40.594,2.368,18.317,10.248,17.632,11.535,8.499,-5.428,12.146,-13.024,2.41,5.904,20.399,27.574,95.78,-10.288,10.3,-5.501,-18.64,3.738,793.86,-53.186,-204.512
3.6903489000001173,30.164,-17.12,-181.88,-2.945,125.969,1.094,-49.775,1.854,19.836,14.337,18.639,13.572,7.466,-5.935,24.43,-14.036,-0.154,3.849,19.354,29.596,99.271,-14.377,7.728,-4.471,-22.72,2.71,803.313,-57.231,-209.943
3.705339499999809,20.4,-23.763,-184.772,-11.652,154.02,-10.69,-47.676,-4.296,17.767,10.224,10.423,12.534,6.946,-3.88,11.597,-16.583,2.92,4.357,15.748,26.493,85.852,-15.899,5.159,-13.176,-27.82,-0.879,783.554,-65.883,-214.344
3.705406000000039,17.306,-22.715,-182.026,-2.931,186.654,-15.802,-39.944,5.442,24.409,11.238,11.95,12.009,11.55,-1.315,4.414,-12.468,5.479,7.427,12.659,23.905,81.667,-17.42,6.69,-16.749,-23.694,-4.465,776.11,-67.354,-215.666
3.7203558000001067,16.264,-29.865,-187.991,-0.879,161.876,-7.077,-39.392,6.462,24.897,13.789,15.012,5.85,7.952,-4.387,8.508,-19.628,-0.675,-0.265,6.499,19.782,81.073,-29.186,-3.562,-21.855,-31.867,-8.559,779.433,-75.996,-222.111
3.7353008999998565,10.612,-34.445,-194.463,-14.71,168.374,-13.218,-38.84,-4.303,13.089,4.041,6.8,-0.816,-0.253,-8.481,-1.235,-30.879,-3.748,-6.413,-1.193,13.615,70.234,-36.841,-17.904,-29.006,-40.032,-14.698,764.821,-87.191,-230.085
3.7353643999999804,13.676,-28.776,-189.658,-15.208,200.994,-28.574,-31.117,-0.713,8.465,-2.111,4.744,1.234,-0.765,-6.936,-6.357,-26.238,-2.207,-3.332,-1.704,11.04,67.09,-32.706,-14.812,-25.903,-28.721,-12.634,755.347,-79.931,-227.294
3.7503145999999106,16.223,-26.698,-187.931,-2.385,212.063,-30.082,-32.622,5.948,11.018,3.527,9.862,3.282,0.773,-4.367,-2.252,-20.576,-3.742,-6.403,0.347,10.004,67.535,-31.136,-10.698,-21.778,-23.569,-8.523,754.079,-71.654,-222.456
3.7503719999999703,4.936,-31.282,-195.94,-5.968,227.221,-31.077,-52.057,-2.255,8.958,0.449,3.704,-1.844,-2.814,-8.974,-15.057,-28.24,-5.787,-13.569,-5.801,4.358,55.684,-38.277,-20.934,-29.441,-35.841,-14.662,738.981,-78.243,-228.381
3.765306299999793,-2.753,-31.25,-202.404,-17.233,259.269,-42.829,-59.178,-7.376,4.338,-10.822,-6.033,-5.941,-7.422,-9.99,-28.875,-32.31,-3.22,-13.043,-10.918,-0.769,48.456,-42.85,-23.987,-34.535,-39.391,-19.77,725.434,-85.849,-235.837
3.767149199999949,-0.189,-30.707,-203.739,-14.142,275.403,-50.471,-47.335,-6.344,2.797,-10.811,-4.49,-3.886,-6.902,-2.295,-26.284,-25.618,0.882,-9.956,-6.809,1.281,49.432,-37.684,-14.741,-30.914,-33.717,-14.627,723.171,-88.325,-236.626
3.780430599999818,-3.775,-33.238,-207.121,-11.567,292.546,-52.982,-48.313,-12.485,2.282,-7.726,-4.486,-2.857,-3.821,-2.293,-28.307,-23.031,3.442,-11.483,-3.728,0.767,45.285,-33.548,-14.727,-29.859,-35.732,-14.1,710.665,-92.847,-239.463
3.780494799999815,-9.406,-37.303,-214.087,-21.801,316.845,-61.638,-61.584,-15.034,0.743,-11.817,-9.604,-5.928,-4.842,-8.438,-39.037,-23.52,4.976,-11.984,-5.774,-2.819,39.604,-37.1,-17.273,-29.317,-34.672,-19.209,694.585,-93.267,-246.396
3.7954980999998043,-13.495,-38.803,-220.02,-26.39,330.36,-71.31,-62.547,-8.872,0.742,-13.342,-10.107,-4.386,-4.837,-2.282,-44.121,-18.886,10.094,-3.263,-2.694,-0.767,37.515,-36.039,-11.108,-24.164,-25.416,-16.629,688.768,-89.075,-244.613
3.795563199999833,-19.117,-36.202,-219.288,-22.265,348.473,-73.288,-56.337,-8.35,3.815,-9.743,-8.56,0.742,0.29,6.43,-46.126,-16.818,14.182,6.475,1.92,-0.767,33.379,-29.855,-8.023,-20.042,-21.292,-10.977,683.468,-88.474,-239.757
3.8108297999997376,-20.123,-34.629,-214.97,-19.681,369.641,-75.776,-54.744,-10.904,4.323,-10.758,-12.65,-1.82,-0.222,3.862,-51.203,-20.387,9.557,4.419,-3.718,-9.987,25.661,-32.899,-13.139,-19.509,-23.32,-12.503,675.1,-88.385,-242.079
3.8108893999997235,-20.103,-34.594,-210.657,-17.613,380.542,-81.848,-51.615,-10.893,-2.853,-15.87,-15.199,-6.429,-3.808,0.784,-55.763,-19.854,8.011,1.341,-9.349,-12.539,18.975,-35.94,-12.101,-17.44,-19.198,-13.515,668.79,-84.198,-238.763
3.8255380000000514,-23.156,-28.412,-204.298,-15.033,402.191,-84.84,-46.953,-13.956,-3.875,-17.903,-14.159,-4.374,-1.755,6.931,-56.219,-16.761,15.687,2.876,-5.242,-7.916,18.956,-31.293,-5.429,-14.349,-13.543,-9.403,665.047,-78.991,-227.254
3.8272250999998505,-24.67,-26.847,-202.045,-14.506,430.99,-89.879,-49.98,-18.04,0.227,-16.861,-15.682,-5.906,-2.778,5.899,-59.237,-20.33,13.623,-4.299,-5.749,-14.568,16.376,-34.336,-11.059,-16.896,-19.165,-8.881,657.21,-77.375,-228.051
3.840517600000112,-31.306,-35.529,-206.966,-15.004,442.855,-103.621,-53.516,-19.047,-5.921,-24.016,-25.4,-16.659,-9.435,-3.84,-74.035,-27.994,-0.736,-14.541,-14.452,-26.336,3.552,-42.498,-22.831,-22.002,-26.831,-13.995,639.646,-81.396,-238.581
3.8405846000000565,-42.545,-37.543,-205.222,-16.526,457.781,-118.887,-51.413,-22.102,-17.698,-36.8,-36.133,-21.765,-14.036,-2.812,-85.744,-30.528,0.802,-11.452,-15.975,-27.847,-4.136,-39.382,-22.296,-25.054,-25.267,-19.104,624.662,-86.438,-238.343
3.855536099999881,-44.552,-34.432,-201.943,-15.485,481.914,-123.891,-52.386,-23.616,-18.192,-41.886,-37.634,-19.694,-16.584,3.851,-84.633,-28.448,12.072,-7.343,-11.86,-23.721,-5.157,-36.269,-16.126,-26.566,-23.192,-20.11,624.55,-89.425,-234.006
3.855598999999984,-45.532,-41.057,-211.987,-12.908,495.265,-125.816,-54.896,-22.568,-15.1,-40.307,-39.133,-22.236,-19.641,-0.251,-89.16,-28.42,7.961,-13.995,-15.435,-27.795,-16.422,-42.893,-19.696,-27.564,-28.805,-17.528,618.802,-93.434,-239.92
3.8705331999999544,-52.659,-48.188,-217.923,-21.092,511.163,-133.375,-46.132,-26.132,-20.208,-44.366,-47.291,-29.898,-23.208,-4.862,-101.366,-31.977,-1.268,-19.104,-21.567,-35.452,-25.115,-44.899,-22.237,-26.0,-30.313,-18.535,601.277,-96.415,-248.389
3.870597199999793,-53.631,-46.603,-211.557,-29.267,541.39,-139.902,-39.425,-25.593,-21.213,-47.395,-47.244,-31.405,-23.184,-2.808,-103.826,-33.482,-0.755,-19.085,-23.082,-36.954,-24.065,-42.805,-17.604,-23.412,-21.573,-22.103,591.454,-94.269,-245.067
3.8855030999998235,-55.626,-47.069,-212.883,-20.017,569.026,-143.348,-49.12,-18.395,-15.044,-44.274,-41.561,-28.3,-21.624,-4.342,-107.821,-33.961,-1.778,-19.066,-26.133,-38.966,-34.288,-47.885,-22.198,-25.95,-20.015,-23.105,584.203,-93.662,-241.236
3.887205300000005,-68.378,-54.194,-221.891,-18.46,589.462,-153.451,-56.243,-27.086,-22.201,-48.328,-50.229,-33.395,-26.214,-9.461,-122.057,-40.075,-7.924,-20.072,-33.279,-49.685,-52.184,-57.571,-33.958,-33.097,-31.265,-27.181,564.151,-101.253,-247.654
3.9005808000001707,-72.921,-56.189,-222.694,-33.298,620.123,-168.154,-54.138,-41.404,-32.425,-54.94,-58.888,-38.997,-28.749,-9.964,-129.62,-42.084,-9.453,-20.564,-36.832,-55.783,-55.206,-60.075,-33.924,-37.162,-35.333,-32.789,548.73,-104.226,-249.456
3.915571099999852,-62.089,-43.325,-216.836,-30.703,652.29,-173.621,-57.67,-30.092,-24.708,-47.712,-46.021,-27.687,-21.548,-5.855,-128.466,-29.234,-1.247,-14.908,-29.623,-48.043,-47.978,-49.256,-23.132,-25.854,-23.514,-23.535,541.521,-90.802,-238.448
3.915646099999776,-53.83,-26.376,-210.471,-12.23,684.426,-173.448,-59.149,-15.205,-18.023,-37.931,-33.68,-16.901,-17.94,0.811,-131.411,-15.373,11.05,-1.061,-21.909,-43.384,-46.906,-36.399,-14.4,-8.922,-10.171,-7.63,531.758,-74.317,-228.988
3.915692300000046,-55.826,-24.3,-208.724,-11.193,700.135,-177.885,-53.967,-23.899,-24.665,-43.528,-41.843,-24.569,-21.508,5.933,-135.89,-18.944,15.137,1.502,-24.96,-50.001,-52.494,-36.875,-15.41,-10.45,-10.16,-8.647,524.054,-74.243,-231.833
3.930896400000165,-56.282,-29.399,-212.101,-16.305,693.287,-182.83,-54.425,-32.072,-26.177,-52.194,-48.973,-30.692,-19.95,3.365,-138.828,-27.122,11.536,-11.307,-28.522,-53.025,-58.077,-40.425,-19.493,-19.149,-18.86,-14.786,521.993,-82.366,-235.7
3.945448099999794,-48.541,-21.685,-203.18,-3.481,709.5,-180.598,-49.76,-22.818,-16.93,-44.457,-37.654,-18.366,-13.27,3.874,-134.591,-14.799,15.11,-10.784,-18.759,-41.701,-51.871,-27.577,-9.74,-5.81,-14.23,-6.062,520.446,-73.574,-226.755
3.9455050000001393,-34.148,-5.269,-184.534,16.503,740.042,-169.659,-36.902,-6.914,-4.617,-25.97,-18.661,0.096,-5.06,13.604,-120.624,13.905,26.878,6.133,-0.81,-27.827,-34.401,-6.032,12.299,18.787,7.814,10.851,524.024,-51.983,-208.085
