Timestamp,Cz,Fz,Fp1,F3,C1,C3,T7,C5,CP5,CP3,CP1,P1,P3,O1,CPz,Pz,Oz,O2,P4,P2,CP2,CP4,CP6,C6,T8,C4,C2,F4,Fp2
0.0,-3.998,10.265,-14.496,3.532,48.526,-5.603,-13.713,-2.116,13.114,9.958,-4.886,-6.061,-9.382,-4.519,-11.433,-10.158,-21.993,16.042,-0.788,-6.346,-29.954,-4.44,7.827,0.646,12.064,2.543,37.34,4.659,-12.31
6.209999992279336e-05,0.105,6.157,-20.117,1.479,42.842,-8.671,9.867,-2.114,5.928,4.825,-6.418,-2.981,-9.372,-5.539,-7.835,-12.71,-25.558,14.489,-1.812,-5.315,-26.851,-2.899,6.282,2.694,13.077,4.077,41.913,2.605,-14.859
0.014981899999838788,-1.432,6.663,-25.219,-0.06,44.848,-10.2,11.907,-9.796,1.824,3.283,-4.363,-2.466,-6.801,-4.509,-5.778,-7.574,-24.507,18.06,4.338,-2.236,-17.602,3.764,11.911,5.765,14.089,8.172,40.847,6.701,-8.696
0.0300969999998415,4.205,9.73,-15.973,3.527,54.025,-3.529,-3.475,0.972,15.142,14.551,4.863,9.32,-2.696,1.643,1.4,7.803,-15.261,24.702,16.117,8.525,-4.265,15.031,22.145,13.956,20.222,16.36,41.318,13.867,-3.052
0.03183679999983724,13.422,12.794,-10.321,6.085,60.631,-0.452,1.652,9.68,19.226,17.098,12.031,22.118,1.405,4.715,9.595,19.066,-9.098,29.801,21.736,16.201,1.887,20.652,23.66,18.553,26.35,19.418,43.326,12.828,-5.611
0.04502450000018143,11.872,14.83,-17.996,3.517,61.083,-5.575,9.847,-5.698,5.374,7.347,8.432,21.071,2.428,4.711,9.073,22.121,-9.602,27.209,18.128,13.111,0.861,14.996,13.903,9.313,18.126,15.812,40.209,7.692,-8.167
0.045087899999998626,6.224,10.717,-24.125,-2.634,55.386,-11.205,-1.433,-16.451,-3.341,3.753,1.764,15.927,-0.136,4.706,5.478,17.488,-9.592,21.034,10.425,6.438,-3.751,3.71,4.667,1.107,8.374,9.649,35.045,6.66,-8.671
0.06046359999982087,9.292,12.243,-21.027,2.492,56.356,-5.558,-6.555,-4.139,2.81,12.459,8.422,18.985,1.914,9.824,7.522,15.421,-4.972,24.599,11.952,6.943,0.351,6.78,9.273,9.303,18.612,11.176,36.035,12.801,-5.588
0.06052570000019841,12.869,21.453,-14.346,15.809,62.959,0.595,1.648,7.136,11.005,16.545,15.074,22.04,7.547,15.45,10.076,20.016,-2.405,29.186,16.551,7.449,9.573,15.483,16.949,16.978,29.864,16.288,37.536,17.911,2.102
0.0750567999998566,9.782,17.333,-10.746,15.793,53.675,-7.602,5.745,2.005,9.969,6.794,3.788,14.333,-0.657,13.898,5.455,10.263,-8.038,18.91,6.288,-0.756,3.928,2.659,10.272,8.252,21.638,11.661,28.277,12.258,3.124
0.07512249999990672,8.748,12.192,-13.297,10.142,40.813,-11.181,6.252,-7.218,3.811,1.152,-4.413,3.561,-10.39,12.859,-2.747,-8.191,-13.665,9.67,-2.428,-5.366,-1.712,-8.102,2.064,2.096,13.419,4.989,19.539,9.172,-0.465
0.09007400000018606,12.838,23.451,-15.333,11.157,48.457,0.101,3.172,-9.773,6.881,7.811,3.276,3.045,-5.769,13.358,-4.281,-8.695,-12.115,11.197,2.698,-2.799,4.95,-0.921,3.087,5.168,14.942,10.107,23.106,15.823,1.072
0.09193490000006932,7.702,22.915,-17.879,11.145,54.044,-2.46,-3.491,-7.714,9.436,7.803,1.224,3.042,-5.251,3.611,-4.277,-8.174,-14.664,8.112,-1.403,-4.845,1.359,-3.482,1.035,1.064,12.878,10.097,22.058,13.245,-3.027
0.10516580000012254,-6.651,3.425,-25.546,1.913,41.695,-22.95,1.635,-6.681,-4.918,-2.963,-11.585,-9.257,-16.517,-6.639,-12.982,-21.486,-20.797,-2.142,-13.697,-14.062,-7.352,-16.799,-7.163,-8.159,4.669,-3.745,1.544,-0.6,-12.758
0.1052282999999079,-13.304,-4.776,-31.668,-11.409,39.091,-28.05,6.244,-7.699,-12.598,-9.108,-14.135,-14.37,-17.525,-4.583,-22.703,-24.026,-19.24,-7.775,-14.708,-17.122,-5.295,-20.368,-10.742,-14.81,0.053,-11.938,-11.778,-9.309,-17.868
0.12020510000002105,-6.631,-0.673,-29.587,-13.447,53.909,-15.727,-2.471,-9.741,1.247,-3.463,-6.436,-1.036,-8.798,-4.066,-17.557,-11.194,-11.023,-5.718,-10.595,-9.932,0.858,-16.249,-8.17,-14.796,2.615,-6.291,-4.081,-6.226,-16.313
0.12027149999994435,6.184,9.062,-19.823,3.473,68.2,-10.588,4.704,-7.682,10.98,8.323,4.328,12.797,-0.08,-0.476,-2.17,3.674,2.308,3.509,-0.338,1.349,15.202,-3.937,2.084,-0.436,11.833,4.474,4.12,7.613,-3.489
0.1351806000002398,13.35,21.861,-9.557,13.203,73.255,-14.164,22.63,2.572,7.383,10.364,9.447,18.42,4.019,10.283,7.566,17.503,14.088,12.214,13.494,8.52,34.142,9.387,12.841,11.347,18.994,14.715,5.14,19.901,5.736
0.13524099999995087,9.75,17.74,-12.622,4.48,68.059,-16.711,10.824,8.717,8.4,1.132,3.29,15.328,-3.158,4.638,2.947,16.973,7.414,8.616,7.845,4.925,32.059,5.791,8.729,4.164,14.876,14.188,4.623,15.782,-6.053
0.15022330000010697,5.642,6.452,-19.781,2.939,64.917,-16.694,-5.068,0.512,11.465,1.643,-0.299,9.165,-9.302,-5.613,-4.74,4.661,-2.327,4.509,-2.409,-2.252,25.366,-0.362,3.085,-1.988,9.226,8.026,2.569,8.082,-14.244
0.1519717999999557,8.71,14.13,-19.249,9.596,70.999,-15.653,5.695,-1.026,10.429,8.814,5.336,11.717,-3.145,4.126,-2.174,5.168,5.872,11.165,5.278,-0.201,37.124,5.273,8.718,6.211,13.828,11.605,1.542,11.148,-6.033
0.16522040000018023,10.238,19.239,-20.767,11.636,72.465,-16.15,7.226,14.857,10.931,3.682,6.868,13.242,-2.63,6.684,1.927,9.774,9.965,13.715,7.322,3.385,44.772,5.268,10.758,11.328,17.912,16.204,-0.509,13.698,-10.125
0.16528740000012476,7.667,15.121,-19.722,14.186,70.856,-14.084,-4.052,17.916,11.432,-1.957,2.763,4.52,-8.263,-6.131,-2.686,0.542,-2.853,4.992,-1.906,-2.766,40.116,0.14,4.087,7.73,15.845,11.064,-3.582,10.098,-15.751
0.18028000000003885,7.147,17.668,-10.48,11.098,73.859,-10.484,7.223,0.479,6.298,1.631,1.735,0.929,-6.717,-8.686,-5.757,-6.118,-9.51,-0.136,-2.417,-7.374,41.613,0.652,-0.015,5.161,13.268,8.492,-3.066,8.551,-4.976
0.1803490000002057,5.603,13.551,-14.568,-0.184,65.588,-15.084,15.413,-5.669,0.656,-1.957,-0.316,3.49,-12.858,-6.116,-4.215,-5.087,-8.476,-0.648,-1.902,-4.805,44.133,-3.96,-3.601,-0.48,8.132,5.922,-8.186,5.981,-5.996
0.19559320000007574,2.523,3.292,-23.263,0.328,57.838,-17.631,-2.533,2.534,4.754,-5.029,0.709,0.925,-17.969,-8.159,-4.21,-6.107,-8.467,-4.234,-6.511,-6.337,45.626,-7.542,-6.159,-4.065,4.025,1.305,-15.351,4.438,-16.236
0.19566459999987273,5.082,10.461,-14.53,11.599,67.514,-7.367,-6.629,5.605,12.434,2.661,6.856,3.485,-5.143,-4.052,-2.669,-0.978,-2.824,-3.205,-0.869,-4.281,53.777,0.663,-2.055,0.55,8.632,2.328,-8.675,10.582,-6.998
0.21024390000002313,3.028,15.061,-10.417,8.001,65.397,-7.36,10.283,1.501,9.348,0.609,3.775,6.043,-2.576,0.05,-4.716,3.122,-0.259,-0.128,-0.868,-1.203,55.26,-1.9,-5.639,-1.5,6.574,0.277,-7.13,9.034,-3.405
0.2123170999998365,-11.832,-2.372,-24.752,-5.327,40.741,-25.283,7.199,-7.21,-3.982,-14.761,-10.061,-2.16,-18.455,-5.585,-13.42,-8.152,-6.407,-6.788,-15.724,-12.473,43.422,-22.902,-22.027,-17.893,-10.339,-13.043,-26.59,-6.344,-19.283
0.22520510000003924,-18.993,-11.079,-29.338,-10.445,30.966,-32.43,-8.177,-13.35,-11.15,-20.894,-15.686,-8.305,-21.511,-8.141,-18.018,-17.878,-5.376,-12.416,-17.245,-19.12,36.718,-29.539,-24.054,-24.535,-14.939,-15.592,-35.785,-13.51,-27.973
0.24023329999999987,-8.215,2.764,-17.013,-2.237,45.28,-19.59,-3.558,-2.066,-4.991,-13.188,-7.473,-1.637,-11.755,1.601,-12.364,-7.102,7.95,-3.182,0.19,-5.781,50.002,-9.53,-3.538,-7.092,-0.58,-0.207,-22.942,-1.714,-19.236
0.2402950000000601,2.039,16.081,-9.824,11.085,58.042,-10.861,7.204,13.305,6.285,-3.953,1.243,8.611,-6.108,12.358,-1.593,7.763,17.163,8.604,10.949,4.983,66.858,9.947,12.86,11.358,9.667,13.625,-14.722,10.071,-6.922
0.25518259999989823,3.062,17.09,-10.838,12.611,62.595,-10.85,2.074,8.169,6.278,-2.412,3.291,11.164,-4.565,8.247,1.994,10.829,15.609,6.546,9.401,1.392,69.352,9.937,13.359,10.835,13.243,13.612,-13.682,11.086,-3.841
0.25524129999985234,0.497,11.95,-13.389,3.889,61.508,-11.864,-3.564,-3.622,-2.949,-5.484,2.263,4.493,-6.61,-2.008,-5.18,4.158,12.008,-0.121,4.78,-4.757,64.16,3.78,10.272,7.238,15.792,8.475,-12.132,8.001,-9.985
0.2701326000001245,-1.553,7.839,-14.913,3.373,58.373,-12.365,0.538,-2.594,-1.922,-2.917,4.823,-0.123,-8.652,-1.493,-7.224,-0.969,11.483,-2.682,2.214,-4.24,65.633,5.313,10.774,9.792,13.727,8.979,-14.169,8.505,-6.901
0.27019030000019484,-1.551,7.831,-12.849,10.029,59.339,-9.278,-3.561,6.118,7.302,2.209,7.379,4.488,-5.058,0.045,0.468,2.105,8.398,-3.704,3.749,-0.137,68.129,5.82,9.226,9.27,8.59,13.581,-15.692,11.058,-1.771
0.28523059999997713,3.574,11.922,-7.713,16.679,65.94,-4.658,-10.217,11.747,7.807,0.158,10.446,11.656,-1.466,-2.516,3.541,9.276,10.439,-6.262,7.331,2.937,70.11,5.814,9.217,7.211,9.094,14.592,-12.602,15.146,-3.818
0.2852923999998893,10.742,18.57,-2.582,19.224,75.095,-4.654,2.088,10.711,5.75,0.157,14.534,13.694,0.584,2.609,4.562,14.902,17.601,-5.231,9.373,4.471,77.724,10.419,13.306,13.864,15.745,16.114,-10.54,21.79,2.846
0.3002070000002277,9.707,20.088,-5.653,12.545,70.922,-8.235,12.845,3.015,5.744,1.694,9.909,10.094,-2.49,4.144,7.632,12.325,13.485,-8.299,6.802,3.954,77.134,6.823,13.293,15.9,17.778,19.172,-11.554,21.256,8.478
0.30027460000019346,0.476,12.384,-15.894,4.335,52.92,-10.788,-4.074,-2.111,-0.41,-5.992,-0.347,4.448,-11.197,-7.644,0.964,1.042,3.225,-19.562,-1.401,-2.71,65.786,-4.455,5.595,7.175,7.002,11.98,-15.641,9.964,-6.387
0.316341900000225,1.5,5.711,-24.587,4.331,46.207,-11.29,-23.538,2.502,-2.971,-12.134,0.165,1.37,-13.747,-9.173,-6.722,-5.107,7.832,-24.153,-7.035,-9.367,64.184,-7.524,-2.095,-1.03,-6.325,1.722,-18.187,1.757,-14.066
0.3164086000001589,7.646,6.73,-24.05,4.839,49.747,-8.717,-20.953,6.086,2.668,-8.023,4.776,2.906,-11.172,1.595,-3.641,-1.515,16.022,-19.006,-6.004,-7.821,70.267,-8.029,-6.192,-2.565,-8.88,3.77,-15.608,2.268,-6.367
0.3302539999999681,3.54,7.236,-19.415,3.297,48.673,-4.098,-10.686,-0.58,-1.434,-6.478,2.722,3.415,-12.185,5.692,-1.076,-3.051,19.592,-15.913,-4.461,-4.739,68.66,-9.046,-4.649,1.536,-4.773,9.401,-14.567,5.339,-7.385
0.33031919999984893,4.049,9.79,-15.81,9.442,54.772,0.005,-0.941,1.469,-2.969,-4.422,6.305,4.436,-8.587,9.272,-3.124,-3.56,25.72,-13.336,-0.358,-1.149,69.616,-0.84,5.602,12.805,1.892,10.929,-16.09,12.506,-6.865
0.34529639999982464,12.242,17.977,-8.109,18.654,65.475,1.03,11.867,20.423,12.915,3.779,14.496,10.067,-1.918,15.41,-1.072,6.69,27.231,-12.298,6.302,1.414,75.694,3.772,15.33,22.014,10.087,15.529,-13.0,19.154,3.9
0.345361099999991,11.205,21.033,-0.416,23.758,65.41,0.004,16.466,25.526,20.075,5.824,16.531,13.643,-0.892,12.833,2.003,13.343,26.179,-13.31,9.882,2.437,77.668,5.305,18.389,21.991,14.687,20.636,-8.888,20.159,6.97
0.3605891000001975,11.194,18.963,0.096,26.296,68.931,3.59,5.691,16.791,12.37,4.282,19.076,15.679,0.134,10.259,6.1,14.354,32.813,-10.735,12.434,8.583,81.176,15.033,21.444,24.019,14.16,20.616,-4.269,22.701,6.963
0.3606494999999086,14.256,17.407,-6.052,23.196,72.448,6.66,-10.196,19.848,12.87,4.79,18.032,16.688,1.67,11.786,8.655,18.951,31.755,-13.798,10.372,8.574,81.095,12.457,16.3,23.482,7.999,16.497,-4.777,20.117,1.833
0.3753744000000552,2.971,10.217,-14.242,10.877,55.469,-1.031,-20.432,14.193,6.71,-3.924,4.182,7.962,-7.553,3.577,0.45,11.247,19.428,-27.104,-0.909,-4.242,69.231,-8.56,0.914,6.553,-6.866,7.259,-17.067,4.215,-15.075
0.3754429999999047,-6.253,3.547,-19.864,5.231,37.483,-7.178,-19.387,-5.801,-9.691,-13.654,-1.458,-1.268,-14.205,-1.037,-7.748,-0.035,20.434,-29.127,-6.031,-7.312,66.088,-13.675,-3.185,-3.7,-14.032,2.128,-24.222,-1.937,-20.183
0.3903261000000384,2.974,7.13,-18.307,11.373,41.544,4.1,-14.757,-3.234,-3.534,-7.493,8.277,4.881,-7.019,8.185,-0.055,9.187,30.147,-21.413,2.172,5.503,74.731,-0.853,5.015,8.087,-7.358,7.761,-17.538,8.823,-11.966
0.3903854999998657,5.021,9.172,-18.801,12.899,45.601,13.318,-16.279,7.528,8.765,1.224,10.831,12.049,-2.913,9.202,6.605,16.862,29.092,-22.928,4.731,7.547,75.168,-1.877,3.986,11.153,-6.838,8.778,-18.033,9.839,-15.54
0.4053745000001072,-4.206,2.503,-25.442,4.689,36.846,3.058,-15.75,-2.213,-2.002,-5.438,3.135,5.377,-8.546,0.996,-1.087,6.087,23.94,-30.59,-1.421,-1.17,70.482,-9.56,-0.629,2.945,-10.417,2.622,-24.163,1.12,-21.16
0.42044410000016796,-4.202,-2.623,-25.929,-0.439,36.297,-4.117,-14.71,-5.285,-6.611,-11.58,1.083,0.248,-9.049,-0.03,-6.721,1.982,26.99,-33.633,-3.981,-2.706,68.875,-6.476,2.958,8.065,-4.772,5.181,-19.015,2.144,-16.016
0.4205093999999008,-1.636,-1.596,-25.903,0.586,48.044,2.547,-24.941,4.966,2.617,-5.42,2.106,2.297,-6.479,0.482,-2.103,4.029,31.574,-34.112,-0.903,-0.654,66.757,-2.884,5.004,15.229,-2.718,9.786,-17.46,2.654,-16.512
0.43582229999992705,-4.196,-0.57,-29.463,-0.439,56.705,7.155,-25.429,2.912,0.053,-5.927,1.592,0.758,-9.034,-0.543,-2.614,-2.122,31.03,-35.102,0.122,-3.215,66.69,-5.955,1.925,9.578,-9.375,7.727,-25.127,-2.984,-19.569
0.43588069999987056,-3.679,0.456,-22.774,0.074,56.648,8.173,-6.96,0.348,-1.484,-14.118,3.127,1.269,-10.562,6.118,-8.246,-4.682,29.974,-35.067,-1.415,-3.724,68.16,-6.461,3.46,10.081,-9.366,10.281,-24.077,0.093,-12.89
0.44934879999982513,-2.651,1.992,-17.628,0.586,51.981,12.775,-1.318,3.421,1.592,-15.641,1.075,1.268,-9.527,11.235,-8.238,-2.115,31.481,-35.032,-3.463,-3.208,65.018,-7.479,3.969,13.145,-7.307,14.882,-23.028,3.166,-10.828
0.44940970000016023,-6.234,1.478,-27.856,-3.513,48.343,13.275,-12.075,-3.242,-12.242,-16.65,-4.562,-5.393,-11.566,7.125,-9.255,-5.699,30.937,-37.046,-7.045,-7.815,61.879,-12.595,0.891,7.496,-12.423,7.694,-29.153,-2.472,-15.428
0.4643575999998575,-6.228,1.476,-27.316,-0.435,50.856,13.262,-14.624,-2.214,-14.792,-17.658,-3.02,-3.851,-12.067,5.581,-10.782,-5.181,29.882,-37.522,-5.502,-10.369,64.379,-13.095,4.989,8.513,-13.435,3.076,-24.513,-1.957,-12.851
0.46604059999981473,-1.611,7.623,-10.383,13.91,58.49,20.933,-13.585,14.182,7.765,-11.493,2.618,7.936,-4.883,10.186,-5.136,3.021,36.512,-31.849,2.701,-1.137,66.364,-4.885,11.644,19.263,-5.737,10.757,-15.267,8.803,-3.616
0.47945819999995365,-3.147,10.689,-7.298,16.97,60.993,21.424,-13.059,15.704,11.855,-11.994,0.566,9.465,-2.829,9.151,-1.032,6.604,41.086,-30.792,5.26,4.5,65.785,-1.294,10.095,20.269,-1.633,16.894,-19.862,13.405,-0.027
0.4795193999998446,-6.73,5.043,-12.927,8.243,58.37,11.669,-0.751,4.418,-1.989,-20.691,-3.533,3.308,-6.924,2.995,-5.642,6.085,33.873,-38.446,-0.381,-2.165,63.67,-4.878,9.573,15.638,-4.705,12.779,-24.453,9.805,-3.1
0.4945366000001741,-3.137,5.038,-6.254,12.846,58.312,13.707,4.885,6.975,4.161,-15.035,3.131,6.891,-6.917,2.479,-3.587,9.153,35.376,-38.92,2.181,-1.651,64.631,-3.849,14.174,18.696,-6.237,11.229,-19.306,8.771,-3.61
0.494597899999917,2.502,15.279,1.95,24.104,64.913,23.939,-9.976,13.628,12.866,-5.286,13.374,12.519,-3.837,7.088,5.126,16.316,46.611,-31.709,10.376,7.06,72.251,3.84,15.697,23.8,-3.157,17.878,-17.237,16.447,-0.532
0.5095077999999376,-1.087,15.776,-0.102,21.006,68.435,19.817,-23.286,7.467,3.119,-12.965,10.799,11.482,-4.857,9.642,2.559,17.836,41.954,-32.189,5.755,2.443,72.179,2.811,13.119,22.752,-3.154,19.909,-21.318,20.016,-1.044
0.5095903999999791,-9.795,8.075,-8.298,8.177,62.218,9.551,-21.214,-3.811,-2.519,-20.125,0.03,5.323,-7.414,6.558,-8.714,7.06,31.666,-39.33,-5.522,-8.318,57.25,-7.95,7.471,15.557,-10.323,8.619,-24.883,9.75,-6.166
0.5244880999998713,-11.834,8.067,-13.413,4.07,53.959,11.078,-15.045,-7.906,0.045,-15.494,-2.019,-1.342,-8.431,5.527,-10.243,-3.193,35.22,-43.901,-6.541,-9.335,51.557,-12.041,2.34,14.004,-11.85,2.463,-26.908,4.617,-6.672
0.5262391999999636,-6.187,12.67,-1.617,13.288,56.467,16.702,-10.419,0.299,3.119,-13.429,2.081,1.221,-6.886,9.62,-5.109,0.396,39.283,-42.832,-1.924,-7.276,60.215,-3.832,5.924,22.699,-0.567,10.657,-23.807,18.445,2.044
0.5395889999999781,1.504,16.244,14.266,22.496,65.12,16.173,-10.409,14.643,6.702,-14.44,2.079,8.392,-3.805,14.221,-2.543,7.568,39.244,-39.203,0.64,-3.17,63.741,2.32,13.603,28.824,6.606,16.282,-17.123,28.161,13.825
0.5396501999998691,4.576,19.301,14.764,21.449,67.616,17.182,-5.788,17.702,5.158,-11.864,3.614,6.334,-2.777,12.67,-0.491,8.073,41.254,-42.75,1.664,1.444,63.677,-0.244,12.565,27.259,0.964,16.778,-16.081,24.034,16.885
0.5545535000001109,2.01,16.208,7.065,20.403,63.962,22.288,11.637,9.488,-0.995,-14.414,5.659,2.229,-3.286,9.071,1.046,7.04,38.651,-51.929,-0.899,-2.656,64.126,-3.318,5.892,25.182,-4.672,16.249,-18.115,21.961,10.72
0.5546147999998539,-1.066,10.044,3.984,19.87,61.849,17.655,17.26,3.843,1.568,-20.035,2.068,6.838,-1.234,11.112,0.533,7.033,37.076,-50.853,-2.948,-6.752,59.963,-4.851,1.275,20.034,-3.131,8.035,-18.096,20.914,4.562
0.5699321000001873,1.497,11.059,6.542,13.19,68.447,11.489,2.386,5.888,11.3,-14.379,2.578,11.442,3.891,18.273,2.582,9.075,46.773,-41.58,3.203,-0.598,58.879,-4.846,2.811,19.502,2.508,3.417,-17.054,17.307,6.607
0.5845264999998108,9.18,19.245,16.269,17.788,80.162,19.675,0.847,16.128,17.436,-5.656,12.821,15.016,10.547,21.841,6.165,16.751,52.361,-37.44,12.421,2.477,63.43,1.306,14.079,30.241,10.19,11.61,-13.963,23.95,15.309
0.5845835999998599,11.22,22.811,22.913,33.139,79.057,20.68,18.264,22.772,20.493,-6.675,16.395,17.563,10.536,18.745,4.11,20.833,48.723,-36.89,18.556,0.937,63.879,8.989,24.823,36.87,17.352,14.672,-12.924,32.123,18.88
0.5996289999998226,3.524,19.202,18.791,27.471,66.683,3.24,23.882,14.553,17.911,-9.742,9.718,12.935,3.866,15.14,0.007,14.664,50.723,-36.341,22.636,4.523,61.254,10.517,23.262,32.223,14.773,7.998,-17.01,25.943,11.176
0.5996961000000738,3.008,18.671,11.088,18.734,68.665,4.262,16.685,9.415,12.77,-7.171,11.758,11.897,4.374,17.686,3.081,13.625,53.746,-35.793,25.175,7.08,62.73,9.482,18.115,31.166,8.098,5.941,-16.993,22.331,4.505
0.6146655000002283,12.227,24.288,7.491,27.937,74.232,22.188,12.058,16.578,14.806,-4.09,17.894,17.008,11.542,22.792,7.689,19.247,51.643,-33.195,24.638,7.072,63.691,8.96,13.999,26.524,1.942,6.447,-13.902,24.87,5.525
0.6147274999998444,10.677,22.726,6.971,26.372,58.788,18.58,11.021,11.95,17.353,-8.696,10.191,11.356,6.92,22.769,5.12,12.567,49.542,-34.699,20.515,6.041,59.017,2.291,7.325,14.714,-6.256,3.367,-15.425,16.648,1.934
0.6296508000000358,2.982,17.581,7.989,17.124,44.897,11.389,9.473,-0.357,17.336,-11.761,1.472,2.635,-0.772,15.574,2.041,0.772,43.345,-41.324,15.371,1.936,55.884,-4.883,3.731,14.7,-7.787,2.339,-17.459,8.947,-3.704
0.6297104000000218,7.078,22.686,4.907,22.743,49.976,22.649,9.464,6.816,22.954,-6.114,6.081,5.194,5.377,9.411,3.063,0.259,35.105,-45.381,12.794,1.934,58.902,-3.854,5.777,21.857,1.442,5.41,-14.88,15.086,-1.138
0.6446215999999367,11.169,24.2,1.828,19.646,49.413,21.089,14.577,16.543,18.32,-7.133,6.587,4.677,6.908,7.864,2.548,-1.279,35.582,-47.898,8.683,1.932,58.331,-6.924,2.697,14.151,0.928,3.868,-17.426,18.657,1.424
0.6446823000001132,7.572,16.492,5.412,9.892,39.63,3.137,18.149,7.305,6.519,-18.909,0.433,-2.5,-2.833,8.369,0.496,-6.913,36.571,-49.387,4.063,-3.193,53.15,-16.138,-6.527,3.378,-10.343,-3.821,-22.532,15.052,0.398
0.6596809000002395,10.638,19.037,11.555,20.641,42.152,4.671,11.471,1.662,18.807,-16.328,7.605,4.162,2.293,12.459,4.594,0.267,37.047,-43.702,8.67,3.471,59.756,-9.974,-4.984,8.498,-11.357,-1.768,-21.485,17.086,5.521
0.6747728000000279,18.312,28.239,14.617,28.305,51.844,21.06,8.898,12.419,33.133,-0.943,18.868,17.99,13.562,18.594,13.299,15.635,43.158,-36.998,20.957,16.787,70.967,6.429,6.804,18.736,-4.174,11.042,-18.39,20.655,10.126
0.6748467000002165,21.88,30.772,15.115,24.178,55.89,24.625,20.672,19.579,24.391,1.107,17.312,23.095,11.499,21.649,19.433,20.231,47.725,-33.887,26.571,16.77,73.97,11.034,14.994,23.84,0.441,17.178,-13.76,23.708,11.141
0.6748874999998407,28.006,36.889,17.661,32.351,55.834,19.477,26.799,20.071,21.293,-1.455,18.832,24.609,10.975,21.628,23.0,21.235,49.214,-31.804,26.545,16.754,79.532,12.047,17.029,29.964,7.613,19.723,-2.476,35.98,21.376
0.6901431000001139,30.027,41.463,22.254,37.442,53.217,21.507,17.038,19.027,26.394,2.132,25.473,23.56,15.063,18.02,22.977,23.775,47.116,-33.309,24.981,20.323,82.526,17.158,17.012,31.983,11.192,23.289,-0.936,40.555,31.088
0.690205700000206,21.288,32.713,24.793,30.744,47.016,20.461,17.534,13.372,18.683,-2.48,17.251,15.852,6.851,10.317,17.319,17.092,38.872,-36.35,21.882,14.667,74.247,12.018,15.97,24.266,6.057,16.606,-13.231,25.657,24.909
0.7047081000000617,18.705,29.094,25.281,29.689,41.846,13.268,22.639,12.334,18.152,-7.089,9.549,13.274,2.233,7.745,12.69,10.414,38.833,-34.264,24.422,13.628,76.222,7.395,15.954,21.681,8.613,9.929,-14.755,18.459,20.274
0.7047637999999097,26.883,36.237,27.817,31.196,40.78,14.792,2.124,19.494,25.819,0.603,15.175,16.847,9.915,15.935,16.776,15.015,45.966,-30.132,31.058,20.787,87.416,15.585,21.061,29.856,16.801,18.116,-7.055,29.199,29.987
0.7197823999999855,28.393,36.713,40.597,28.091,36.64,17.851,-20.932,10.253,15.035,-2.472,12.598,14.781,7.344,18.48,19.833,14.487,36.699,-31.126,24.367,14.618,84.767,14.032,21.04,30.338,11.149,20.147,-10.122,33.781,41.228
0.719847899999877,17.606,33.09,71.295,29.6,20.21,6.562,-2.468,-7.175,1.7,-20.4,-1.247,4.008,-5.983,6.679,9.055,-1.409,21.293,-37.243,4.362,2.821,75.461,-3.4,8.724,18.525,1.404,6.295,-14.723,27.6,53.995
0.7347596999998132,8.367,29.983,104.011,32.644,3.283,-1.129,27.249,-6.144,2.21,-26.527,-6.881,-7.779,-13.15,-6.648,-1.2,-13.703,16.661,-45.402,-4.864,-2.305,72.311,-12.618,-1.531,13.383,-4.745,-2.933,-12.659,23.473,68.797
0.7348218000001907,11.945,28.416,124.912,41.321,7.891,7.069,16.975,3.084,4.77,-18.304,-3.8,-11.87,-11.6,-10.227,3.412,-13.177,11.521,-48.943,-3.834,-6.914,73.776,-12.606,0.52,17.981,-14.474,-4.467,-13.671,23.45,69.753
0.7498710999998366,20.13,32.486,128.885,56.136,21.715,11.673,-5.071,3.593,10.4,-10.601,3.376,-3.661,-5.44,-9.193,6.994,-11.114,8.948,-46.845,-9.466,-7.932,79.85,-17.204,-3.067,15.913,-16.509,-5.999,-13.657,23.427,62.511
0.749933399999918,19.085,30.405,129.781,59.666,17.083,10.637,7.742,6.151,17.562,-6.492,7.983,0.953,-3.386,-5.597,2.377,-11.103,15.087,-44.236,-16.629,-5.874,84.381,-25.896,-15.872,0.528,-4.709,-8.043,-10.57,13.157,59.887
0.7647919000000911,11.381,17.054,116.844,49.873,1.697,14.212,24.64,17.416,13.446,-8.534,3.364,-3.146,-5.432,-1.493,2.374,-11.092,15.072,-41.118,-14.05,-5.869,80.71,-28.944,-18.93,-13.305,-7.266,-10.596,-17.219,-5.299,41.897
0.779761199999939,9.321,12.939,84.964,45.212,-2.404,17.784,12.32,23.546,14.457,-5.452,3.873,0.443,2.771,2.094,5.958,-8.007,12.495,-34.417,-4.815,-1.764,85.753,-21.743,-11.226,-6.631,-20.579,-10.585,-20.276,-12.979,9.579
0.7817540999999437,12.385,13.438,57.727,39.532,0.16,16.229,5.648,16.35,23.152,4.287,13.091,6.591,10.453,4.654,6.977,-2.364,19.143,-24.137,7.485,3.873,101.549,-10.45,-1.993,8.745,-17.485,-3.403,-9.497,-10.404,-4.263
0.7948817000001327,9.811,6.765,44.861,27.197,-4.963,8.016,17.425,-0.06,14.42,-3.402,9.492,3.51,1.733,6.186,4.921,-0.312,20.661,-17.965,13.113,3.869,106.058,-5.829,3.132,7.711,-7.733,1.212,-6.926,-9.881,-2.209
0.794948000000204,5.191,5.221,30.472,21.022,-12.643,0.836,6.137,-7.232,4.159,-15.181,-1.276,0.945,-4.416,4.643,0.305,-2.873,14.492,-18.459,8.489,3.353,103.902,-7.36,1.079,0.531,-10.799,-0.839,-12.554,-10.384,-8.867
0.8110120000001189,5.186,6.753,13.023,19.976,-14.679,4.421,-20.509,-0.565,11.327,-7.482,0.774,1.969,0.711,2.589,1.842,-1.846,16.015,-17.416,7.969,3.862,111.996,-7.353,0.566,4.117,-13.862,-1.863,-6.906,-13.96,-19.104
0.8110884000002443,5.693,0.086,1.739,20.981,-17.226,5.954,-14.341,2.51,11.828,-4.4,2.31,2.991,1.735,5.66,5.938,3.792,20.609,-11.251,13.596,3.346,118.544,-6.321,5.176,7.187,-7.701,-0.324,-2.801,-20.093,-25.233
0.8249437999998008,5.687,1.623,-0.824,29.669,-23.356,0.312,5.141,-4.665,7.718,-13.105,-4.352,5.038,0.709,9.753,3.371,5.837,22.126,-7.141,13.582,6.929,118.425,-3.24,7.22,8.204,-1.033,3.263,-5.36,-16.487,-26.744
0.825009399999999,7.218,10.843,3.275,32.713,-21.796,3.898,1.55,-5.173,11.809,-10.53,-5.372,3.496,2.245,6.157,3.367,4.807,23.128,-7.646,10.495,7.946,121.38,-1.188,7.213,12.807,1.529,4.796,-1.256,-5.712,-19.545
0.8399656000001414,7.211,8.783,7.882,25.508,-13.065,9.53,0.524,2.517,3.6,-9.495,-3.83,-2.655,-5.442,-4.607,5.925,2.24,20.031,-10.2,5.874,1.278,122.796,-9.384,4.132,10.232,0.503,-0.844,1.819,-3.657,-15.427
0.8416955000002417,8.741,8.261,2.751,30.093,-6.392,3.885,6.671,11.224,-5.113,-13.584,-2.289,-2.653,-9.535,-9.213,0.796,-1.861,13.863,-9.678,0.232,-0.26,121.136,-16.034,-3.557,2.025,-4.62,-5.454,1.305,-8.777,-23.609
0.8549747000001844,12.83,14.913,-5.961,42.871,0.787,7.467,-3.07,19.409,11.286,-3.324,3.861,0.936,-1.329,-1.52,-0.741,-1.859,14.362,-7.619,2.281,1.79,125.626,-11.407,-4.578,2.023,-7.69,0.187,5.915,-11.842,-29.733
0.8550405999999384,11.281,10.8,-14.152,37.705,5.909,15.657,-3.579,19.39,16.398,0.777,2.832,-4.7,-1.327,-1.006,2.846,-2.881,13.323,-9.148,1.255,-4.872,129.086,-12.421,-4.573,1.509,-12.293,2.236,7.446,-14.391,-34.826
0.8700469999998859,1.023,2.08,-18.748,24.86,1.805,5.395,18.454,9.637,2.549,-8.445,-7.417,-13.405,-11.06,-11.251,-5.866,-13.125,2.039,-16.311,-9.505,-13.064,125.371,-23.679,-13.79,-7.202,-21.502,-4.938,0.778,-17.451,-43.501
0.8701105000000098,-5.125,2.59,-12.582,24.323,-2.296,-2.295,13.825,3.479,8.694,-5.875,-10.483,-14.416,-11.049,-11.752,-15.594,-20.796,-5.136,-19.881,-14.106,-14.076,121.66,-29.291,-18.9,-11.806,-24.554,-11.081,-5.37,-22.556,-40.383
0.8849905000001854,-7.682,-3.56,-10.008,19.687,-3.83,7.441,-14.878,5.013,19.444,-0.234,-7.399,-12.865,-6.427,-6.105,-13.017,-17.702,-0.52,-14.226,-14.092,-16.111,117.952,-34.897,-19.905,-13.331,-21.968,-16.193,-8.951,-31.243,-36.757
0.885052099999939,-16.896,-18.926,-23.83,5.323,-13.56,3.335,-16.913,3.983,8.666,-5.869,-10.977,-12.34,-6.933,-6.611,-14.029,-16.147,2.555,-7.039,-18.689,-19.169,115.272,-44.083,-27.57,-21.002,-22.458,-24.886,-9.967,-40.946,-51.577
0.9000034999999116,-19.953,-24.03,-33.54,2.244,-22.768,-12.038,0.523,0.905,4.047,-6.888,-14.04,-7.204,-6.414,-4.043,-18.626,-14.594,2.04,-3.446,-15.596,-17.1,119.255,-41.478,-26.005,-24.055,-20.387,-28.447,-10.981,-48.077,-59.21
0.9018442000001414,-4.563,-15.809,-32.994,12.488,-18.647,-7.927,3.596,0.904,11.727,-3.807,-8.903,-0.537,-2.821,1.596,-9.898,-3.821,2.55,-1.394,-5.847,-9.911,128.358,-29.653,-11.635,-12.76,-13.706,-18.173,-3.286,-42.394,-50.954
0.9150930999999218,8.249,-6.059,-36.547,14.525,-9.407,4.889,-1.018,3.977,8.642,-3.803,-0.697,3.05,-1.794,0.57,1.895,5.405,3.572,0.657,-1.743,-2.216,139.5,-17.841,-5.476,-1.476,-10.619,-4.835,15.673,-26.47,-48.854
0.915158799999972,4.654,-1.955,-37.023,5.289,-5.299,2.322,-3.067,9.096,2.998,0.299,-0.184,5.096,-3.329,-0.967,2.406,5.399,2.544,1.169,-0.204,-2.214,146.533,-10.65,-5.982,-1.987,-10.096,-1.756,22.829,-20.808,-46.756
0.9301243999998405,-2.01,-6.564,-28.277,-1.889,-6.831,-7.414,-8.187,7.55,9.142,2.86,-5.82,4.066,-1.276,-0.454,-1.695,1.808,-1.045,-0.882,-1.228,-7.847,141.263,-13.714,-5.464,-5.571,-11.11,-7.39,13.073,-28.984,-37.487
0.9301945000001979,-3.545,-12.705,-26.199,-0.35,-6.824,-8.944,-6.129,-2.191,13.744,0.296,-7.351,0.988,0.262,-5.577,-5.28,1.293,-7.704,1.168,-4.301,-8.352,137.024,-18.311,-8.532,-6.078,-11.612,-9.431,12.547,-32.541,-41.548
0.945433100000173,-2.517,-11.668,-28.222,6.31,-3.743,-9.447,5.66,-3.213,8.607,1.833,-5.294,3.037,-2.812,-9.669,-5.787,4.878,-9.233,9.364,1.851,-3.22,142.01,-13.169,-7.499,-6.584,-6.989,-6.861,23.293,-31.484,-47.655
0.9454949000000852,4.145,-8.582,-24.096,10.915,-0.666,-13.024,7.704,4.987,7.062,1.831,-4.776,6.62,-3.834,-4.537,-0.658,11.021,-2.564,15.502,9.021,0.881,143.917,-7.521,-1.344,-5.041,-5.958,-5.829,30.442,-31.965,-40.435
0.9601250999999138,8.24,-6.012,-22.022,6.293,3.433,-13.011,-4.087,2.42,11.665,-3.806,-3.235,6.101,0.781,-0.946,1.904,14.596,-0.512,18.049,5.426,0.88,142.748,-9.05,-3.392,-4.011,-13.636,-4.286,33.998,-27.834,-38.345
0.9618611000000783,0.035,-6.518,-25.586,-0.373,5.479,-11.973,-9.206,-5.267,5.506,-7.901,-4.256,4.045,-3.831,-6.068,-6.807,9.459,-9.221,17.006,-2.264,-3.731,139.532,-13.652,-10.561,-8.618,-18.746,-6.331,33.964,-27.807,-40.356
0.9752426999998534,-9.699,-16.246,-28.122,0.652,-3.235,-18.109,-9.709,-2.7,-3.209,-10.455,-12.449,-0.057,-14.073,-10.673,-13.972,0.74,-15.871,13.403,-6.36,-9.363,126.585,-22.86,-13.112,-14.245,-19.239,-12.985,30.344,-32.902,-35.192
0.9903257999999369,-8.153,-21.352,-32.193,2.7,-6.306,-22.189,-16.359,-1.16,2.43,-11.981,-15.51,-3.131,-8.936,-8.613,-13.446,2.788,-15.343,16.463,-5.841,-8.329,121.335,-25.398,-11.05,-11.669,-19.22,-13.997,32.363,-33.381,-39.768
0.990425999999843,-4.558,-14.159,-28.574,3.21,4.459,-17.044,-6.609,-4.745,5.501,-6.846,-8.835,-0.054,-2.779,-5.53,-13.433,10.47,-12.766,28.742,3.386,-5.759,130.435,-16.151,-4.379,-3.973,-11.004,-7.323,39.503,-31.811,-44.339
1.0052268999997978,-7.115,-9.022,-9.59,12.94,7.016,-14.978,15.939,0.895,-0.14,-5.302,-8.314,2.508,-7.387,-3.988,-14.444,8.923,-10.704,33.836,5.432,-7.803,128.768,-14.598,-1.3,-2.432,-2.284,-3.729,44.586,-30.754,-25.851
1.0052958999999646,-13.256,-12.599,-0.359,20.1,1.373,-18.036,8.751,8.066,2.422,-11.957,-15.99,-3.643,-10.454,-5.521,-13.917,-0.82,-16.841,27.143,-8.406,-12.918,117.368,-25.342,-10.521,-9.089,-7.917,-9.873,43.005,-30.211,-15.067
1.0201606000000538,-14.78,-14.635,-11.63,16.494,3.934,-18.018,-8.164,3.447,3.444,-11.433,-16.998,-7.737,-9.931,-7.565,-16.977,-3.381,-22.972,28.14,-13.521,-13.929,117.251,-28.391,-16.145,-14.203,-14.569,-14.986,39.376,-37.353,-33.495
1.0202189999999973,-10.154,-16.158,-13.667,11.354,7.003,-16.463,4.652,-3.216,0.367,-5.786,-10.321,-3.119,-9.921,-0.897,-13.374,4.82,-14.24,41.432,-5.31,-8.792,120.207,-18.116,-4.858,-5.48,-4.308,-6.262,44.459,-43.464,-39.097
1.0352616999998645,-9.119,-20.24,-7.506,7.244,1.873,-17.984,9.258,-3.725,6.002,-7.829,-8.774,-1.579,-5.813,2.69,-6.7,7.889,-8.078,45.489,-5.305,-5.198,115.476,-14.0,0.782,1.698,3.381,2.453,48.513,-40.347,-25.738
1.035327000000052,-17.819,-25.855,-19.281,0.065,-5.301,-26.163,-16.879,-7.308,-0.664,-14.482,-17.987,-8.75,-9.393,-10.12,-16.428,-4.927,-22.927,35.197,-16.57,-14.926,104.603,-27.306,-13.051,-11.112,-7.893,-9.844,36.682,-45.942,-35.446
1.0502347000001464,-26.511,-31.977,-33.094,-3.009,-10.419,-34.334,-24.035,-13.96,-20.643,-22.664,-27.703,-16.425,-20.142,-20.356,-29.731,-17.73,-34.175,29.527,-26.287,-27.207,90.153,-40.086,-26.871,-24.42,-23.255,-22.13,29.985,-51.019,-54.878
1.0502940999999737,-20.849,-26.309,-26.914,3.654,-8.871,-31.738,-5.568,-9.848,-14.475,-23.154,-25.114,-17.434,-15.511,-12.651,-25.091,-13.613,-30.042,33.596,-25.749,-25.13,88.526,-33.386,-24.794,-21.834,-26.818,-13.399,40.714,-38.16,-49.7
1.065264500000012,-15.193,-12.451,-21.764,11.847,-4.764,-26.583,-0.951,-1.641,1.933,-12.372,-23.552,-14.855,-7.299,-9.565,-20.967,-7.964,-30.524,33.05,-20.6,-18.957,93.048,-25.668,-20.159,-19.763,-26.279,-9.799,44.259,-30.437,-38.892
1.0653268000000935,-25.936,-19.611,-29.427,5.687,-10.907,-31.679,-9.147,-9.324,-7.29,-13.897,-32.75,-16.889,-17.538,-19.289,-29.143,-15.129,-35.105,27.894,-22.116,-23.037,81.172,-34.864,-26.286,-28.453,-29.838,-22.597,31.407,-41.165,-43.976
1.0806650999998055,-40.255,-40.083,-37.594,-14.811,-19.605,-37.795,-19.897,-22.123,-17.017,-26.178,-38.352,-24.557,-24.692,-23.881,-36.799,-22.798,-37.119,28.89,-26.193,-30.186,65.722,-43.538,-30.871,-35.597,-33.907,-29.747,18.056,-51.37,-51.105
1.0807279000000563,-42.264,-43.117,-40.118,-22.993,-18.049,-35.708,-31.147,-18.002,-7.266,-18.467,-33.703,-20.434,-18.52,-19.758,-37.786,-18.677,-35.032,35.521,-21.043,-28.619,64.119,-40.421,-24.18,-35.049,-31.312,-30.229,11.89,-57.467,-55.152
1.0953395999999884,-38.635,-37.951,-39.053,-11.699,-12.907,-33.623,-22.919,-11.324,-0.086,-5.641,-29.059,-8.118,-14.403,-12.566,-33.138,-8.412,-26.288,45.732,-12.826,-21.418,65.08,-34.233,-14.934,-29.378,-25.133,-30.199,15.464,-59.971,-54.585
1.0954046000001654,-32.449,-39.962,-36.453,-8.101,-9.821,-31.028,-3.429,-16.948,-3.672,-9.734,-23.394,-4.011,-11.827,-6.918,-25.932,0.818,-19.089,53.883,-9.739,-14.737,67.064,-29.075,-12.358,-22.177,-17.935,-25.046,24.158,-54.275,-49.919
1.1103498000002219,-25.756,-39.922,-38.978,-16.802,-8.786,-26.386,-16.745,-18.468,-9.816,-9.724,-16.198,-1.958,-8.229,-6.399,-21.296,6.452,-21.12,56.903,-6.143,-11.136,70.071,-24.948,-10.809,-18.568,-11.769,-19.385,25.671,-52.172,-50.382
1.110417299999881,-26.243,-36.809,-42.525,-19.347,-2.117,-26.36,-45.418,-8.203,-10.831,-5.616,-14.133,5.729,-8.221,-1.782,-16.664,12.081,-16.488,64.531,1.036,-9.075,65.902,-21.337,-4.65,-14.964,-3.048,-20.903,24.62,-54.681,-53.917
1.1253133999998681,-25.704,-37.796,-39.921,-15.229,14.278,-28.895,-41.274,-8.707,-5.185,-7.147,-12.07,10.846,-4.114,9.491,-12.036,21.291,-5.2,77.786,7.182,-6.505,62.762,-14.143,4.576,-7.776,6.688,-18.833,27.157,-49.503,-49.765
1.1403137000002062,-18.993,-36.695,-38.307,-7.518,43.947,-30.372,-17.117,-16.886,2.504,-0.984,-3.338,16.454,3.062,22.268,-6.894,34.559,5.557,93.499,17.408,-1.371,62.64,-1.314,17.878,2.99,20.498,-7.014,31.711,-38.651,-49.157
1.1403700000000754,-16.413,-32.048,-46.465,-6.998,49.027,-28.805,-15.563,-10.722,0.965,6.702,-1.286,16.438,0.498,16.098,-5.35,31.963,-0.596,88.795,15.853,-1.882,60.528,0.736,15.811,4.524,12.792,0.165,34.241,-38.612,-62.428
1.1553278999999748,-17.933,-34.577,-50.005,-14.676,46.928,-29.8,-22.72,-7.637,1.989,-0.99,-5.895,11.299,0.497,13.52,-4.832,28.345,-5.719,85.12,8.153,-5.467,52.271,0.223,11.184,1.958,-0.028,-3.421,35.744,-40.111,-64.927
1.1704006999998455,-23.551,-40.69,-53.029,-23.37,36.123,-36.943,-22.185,-21.974,-4.673,-9.698,-17.16,1.041,-4.626,4.285,-15.586,17.558,-14.422,75.813,-0.564,-12.121,36.337,-13.609,0.414,-12.901,-11.299,-16.225,24.437,-46.731,-63.838
1.1704641999999694,-34.286,-40.137,-57.587,-21.298,27.378,-41.004,-17.039,-22.977,-11.841,-12.25,-25.852,-5.62,-13.843,-5.965,-27.866,3.196,-19.018,68.565,-7.224,-19.794,20.419,-27.428,-14.443,-27.232,-16.411,-27.48,8.531,-50.782,-65.311
1.1844381999999314,-37.325,-33.437,-50.869,-12.567,35.035,-35.84,-10.362,-10.146,-4.145,-11.725,-24.289,-5.614,-11.268,1.213,-28.862,1.143,-17.975,71.57,-9.266,-21.823,19.374,-24.327,-15.453,-24.644,-14.857,-29.502,8.523,-40.998,-53.462
1.1844987999998011,-37.8,-32.891,-41.084,-10.506,37.049,-37.854,-12.914,-19.358,-5.677,-12.226,-27.851,-8.17,-8.695,1.724,-31.907,1.142,-25.129,70.987,-10.793,-25.387,15.769,-25.327,-14.925,-25.643,-19.453,-29.984,9.539,-36.858,-42.138
1.1999344000000747,-48.521,-42.592,-46.166,-16.643,24.717,-52.16,-22.122,-32.658,-23.602,-24.509,-40.119,-18.921,-18.933,-14.159,-40.072,-10.642,-33.301,61.182,-17.955,-34.583,-2.178,-39.646,-27.206,-40.987,-31.217,-35.59,-3.791,-47.58,-50.805
1.200006300000041,-53.083,-46.648,-50.219,-18.675,24.179,-52.621,-16.465,-21.355,-26.653,-28.583,-39.054,-21.463,-23.524,-14.145,-42.594,-14.218,-30.194,62.145,-20.499,-34.549,-6.787,-39.607,-29.228,-41.971,-31.186,-38.628,-8.91,-50.094,-52.291
1.2145125000001826,-48.419,-43.528,-45.045,-18.144,33.889,-40.785,-6.714,-17.747,-14.843,-15.234,-31.843,-11.196,-16.841,-1.323,-39.99,-3.957,-24.016,72.329,-16.38,-28.367,-1.144,-32.395,-21.514,-34.756,-26.544,-37.052,0.833,-48.507,-43.018
1.214578900000106,-58.105,-54.755,-54.222,-28.885,28.22,-40.744,-20.028,-32.587,-14.316,-16.244,-38.471,-12.721,-16.312,0.215,-44.048,-6.002,-24.504,74.818,-20.974,-33.974,-14.976,-43.633,-32.763,-49.066,-40.862,-42.651,-3.779,-64.34,-56.807
1.2295583000000079,-74.441,-75.705,-76.197,-47.299,16.921,-51.974,-34.352,-35.115,-19.937,-30.06,-46.117,-24.492,-20.906,-1.834,-53.226,-16.755,-29.603,70.133,-31.711,-42.649,-31.867,-57.934,-49.124,-67.46,-59.776,-54.391,-22.73,-84.255,-81.853
1.229622400000153,-75.903,-84.851,-88.416,-58.522,12.293,-59.094,-25.096,-37.13,-24.015,-32.079,-49.657,-26.004,-23.447,-4.394,-58.808,-19.812,-32.135,68.526,-34.241,-42.606,-36.446,-59.413,-48.563,-72.516,-68.426,-61.509,-29.368,-91.344,-85.87
1.244525000000067,-71.216,-79.13,-88.328,-52.316,13.818,-58.011,-24.559,-45.802,-23.991,-27.436,-51.657,-22.904,-23.423,-10.025,-57.724,-20.817,-30.053,65.896,-33.695,-42.051,-38.458,-56.792,-46.977,-72.443,-71.431,-57.349,-22.166,-84.08,-79.124
1.2445895999999266,-59.362,-63.682,-77.993,-33.821,30.71,-44.12,-42.465,-33.461,-10.135,-18.187,-39.822,-18.271,-16.228,-6.941,-48.445,-17.722,-27.974,64.805,-31.612,-38.935,-34.322,-45.977,-43.857,-61.612,-63.163,-43.972,-11.898,-64.016,-72.385
1.2595339999998032,-46.495,-51.835,-59.984,-29.176,45.024,-34.342,-38.837,-18.058,-0.391,-10.996,-32.61,-12.617,-10.576,-1.811,-41.737,-14.118,-30.508,67.302,-27.994,-36.335,-31.726,-36.197,-37.665,-49.255,-48.243,-36.755,-6.25,-51.656,-61.554
1.2595898999998099,-58.232,-59.98,-54.801,-41.955,29.098,-45.579,-14.719,-27.774,-17.809,-25.33,-46.922,-21.314,-20.812,-10.518,-49.892,-25.375,-35.6,63.648,-32.577,-41.934,-44.502,-45.895,-40.701,-60.477,-51.78,-47.477,-13.416,-62.363,-60.468
1.2745374000000993,-67.907,-64.531,-56.283,-39.351,20.871,-50.656,-4.971,-28.77,-33.161,-32.989,-48.924,-30.001,-29.5,-16.143,-54.965,-32.522,-37.101,56.925,-32.544,-41.892,-47.019,-49.435,-38.611,-64.515,-56.852,-49.991,-16.989,-65.375,-63.993
1.2745954000001802,-44.785,-43.462,-38.809,-14.209,49.54,-26.527,-11.626,-13.372,-15.197,-8.878,-26.334,-15.115,-19.224,-7.418,-38.004,-14.046,-30.917,64.552,-13.556,-28.018,-30.578,-24.795,-19.105,-39.347,-40.401,-32.01,-1.091,-46.866,-48.56
1.2896080000000438,-30.396,-29.586,-19.302,-0.874,62.81,-9.595,-16.225,-8.748,3.774,3.426,-20.672,-1.267,-11.521,-2.287,-25.671,1.849,-24.738,74.734,-3.297,-21.33,-27.473,-10.425,-7.815,-25.988,-24.991,-21.22,11.206,-33.499,-28.019
1.2896857999999156,-41.636,-34.68,-21.332,-3.435,47.891,-22.393,-16.209,-4.641,-3.915,-9.897,-28.336,-6.901,-14.583,-3.31,-33.842,-1.739,-25.738,72.61,-8.416,-23.87,-34.106,-17.075,-10.369,-31.085,-24.454,-25.81,6.072,-31.417,-26.967
1.3046708000001672,-39.546,-28.497,-28.995,-0.87,49.892,-28.006,-17.217,-1.563,-11.083,-7.326,-20.111,-4.333,-9.958,1.304,-31.246,0.825,-23.663,72.025,-3.285,-19.748,-27.412,-10.91,-6.772,-22.857,-18.282,-22.71,5.553,-23.188,-28.989
1.304738400000133,-26.186,-19.247,-27.942,1.692,61.113,-14.658,-18.737,-17.955,-3.387,5.489,-10.357,10.016,-1.751,7.451,-16.358,13.119,-14.93,77.589,6.452,-13.58,-22.261,1.908,3.481,-11.564,-7.505,-12.441,17.331,-16.505,-21.788
1.320752099999936,-26.672,-22.814,-25.865,-2.408,55.929,-13.618,-24.353,-25.622,-1.335,2.41,-12.908,12.568,-3.286,6.931,-17.366,14.643,-11.841,74.949,6.446,-12.03,-26.338,2.931,10.649,-10.015,-4.424,-7.306,23.973,-18.026,-19.204
1.3346136999998635,-25.621,-21.767,-28.4,-4.455,54.336,-20.777,-36.624,-13.301,-5.432,-2.203,-10.846,7.944,-4.307,4.875,-21.448,12.067,-10.805,72.313,9.513,-12.53,-24.774,7.539,13.713,-2.833,-1.858,-4.737,25.486,-16.983,-19.697
1.334673500000008,-17.398,-18.159,-29.396,-3.938,63.503,-15.633,-44.272,-12.263,-6.451,-0.664,-5.712,8.961,-1.229,4.358,-12.717,16.153,-6.696,77.876,13.602,-12.005,-20.139,15.728,15.236,4.855,5.829,-1.146,29.047,-11.843,-14.042
1.3496208999999908,-15.332,-23.264,-23.219,-2.397,66.513,-13.568,-34.494,-16.861,-9.518,-3.737,-10.829,8.952,-5.839,1.279,-11.167,16.649,-8.226,75.237,10.002,-11.481,-24.729,13.663,19.319,3.825,9.921,-2.169,26.969,-11.319,-13.004
1.3513311000001522,-18.903,-24.265,-21.147,3.753,65.422,-21.752,-29.337,-13.258,-16.169,-7.832,-17.991,3.308,-12.493,-2.82,-18.328,7.923,-13.341,65.427,6.919,-14.543,-34.951,10.064,20.324,1.26,9.399,-7.29,16.696,-14.894,-19.138
1.3647580000001653,-25.031,-25.778,-33.421,2.725,66.381,-24.292,-44.164,-17.856,-17.177,-7.824,-19.51,1.255,-12.993,-0.768,-19.335,3.305,-12.303,64.85,2.813,-19.14,-40.551,11.078,15.181,-1.303,5.803,-9.844,10.531,-17.952,-23.73
1.3648299999999836,-32.179,-34.974,-45.683,-13.672,62.729,-25.292,-46.682,-25.01,-17.16,-7.304,-20.002,2.791,-9.906,1.794,-23.926,5.351,-10.241,65.297,-0.264,-18.608,-41.535,9.018,12.604,-7.449,-0.862,-7.273,8.471,-23.57,-33.44
1.379704099999799,-33.683,-38.525,-48.199,-23.904,59.08,-31.414,-25.118,-22.936,-16.631,-4.735,-20.495,3.813,-7.334,2.817,-27.488,6.882,-8.694,59.084,6.909,-16.028,-38.932,9.009,14.129,-6.93,-0.862,-6.753,6.926,-28.669,-42.628
1.3797715999999127,-26.99,-29.265,-36.88,-7.999,64.144,-25.235,-11.773,-18.302,-6.368,3.467,-13.814,10.469,-3.228,7.425,-17.727,12.511,-3.05,59.025,15.099,-12.426,-31.721,18.221,17.188,1.787,8.873,-6.747,10.505,-23.518,-31.827
1.3946872999999869,-16.204,-17.452,-4.055,13.526,75.863,-10.353,-17.397,-3.427,11.057,15.246,-1.505,22.754,7.021,14.077,-9.0,25.306,4.638,66.651,19.182,-4.216,-24.517,29.474,26.905,11.519,18.598,3.506,21.253,-8.125,-4.131
1.3947449000002052,-11.065,-9.75,28.736,20.685,86.033,-6.244,-18.404,18.093,20.268,23.94,5.669,27.854,17.772,16.113,-7.454,31.941,10.268,67.096,23.774,-1.138,-26.029,34.567,35.587,18.679,22.678,12.724,28.404,3.666,15.853
1.409693800000241,-17.202,-10.765,26.146,18.615,84.923,-16.484,-5.065,14.489,14.612,16.744,-2.534,22.703,14.168,9.949,-8.984,22.687,8.209,60.882,19.652,-8.31,-32.151,29.922,30.429,18.661,23.68,9.125,21.716,3.15,15.838
1.4114070999999058,-29.48,-18.439,18.435,12.448,72.542,-30.3,12.358,-6.53,-0.772,-1.716,-17.9,8.848,-2.24,-0.82,-20.758,5.758,0.004,52.624,8.874,-15.474,-38.267,22.208,23.226,11.982,20.582,2.969,5.813,-4.537,9.162
1.4247908000002099,-34.573,-20.47,23.028,6.801,70.42,-36.417,18.493,-5.499,-6.407,-5.813,-24.03,-0.895,-9.41,-4.917,-28.934,2.166,2.565,49.497,11.426,-14.433,-40.79,23.21,25.764,8.896,19.537,1.429,1.196,-7.607,8.128
1.4248585000000276,-28.391,-14.814,11.734,12.942,83.158,-31.258,6.18,13.974,3.334,3.415,-17.858,6.791,-2.74,-0.302,-20.708,10.873,12.809,52.522,19.1,-10.321,-37.163,30.871,28.3,11.449,22.591,0.915,7.855,-2.988,3.509
1.4398316000001614,-24.777,-12.238,-4.159,17.027,89.222,-27.64,-5.61,13.448,5.892,5.46,-15.791,8.833,-2.737,-2.351,-19.15,8.301,6.648,47.346,13.957,-14.921,-37.126,27.767,21.612,8.364,17.958,0.402,3.748,-0.936,-6.228
1.4398968999998942,-27.826,-11.713,-3.131,9.838,85.035,-31.199,-0.993,-3.471,-2.311,1.869,-18.849,-2.446,-7.858,-6.959,-27.328,-0.416,-2.067,35.003,9.333,-21.054,-41.699,18.005,14.418,3.745,11.28,-1.136,-3.94,1.114,-5.197
1.455149899999924,-21.138,0.594,1.996,19.049,93.146,-26.045,5.668,-0.394,2.814,10.064,-10.121,3.704,-1.19,2.782,-18.079,7.269,6.644,39.067,17.008,-13.348,-32.436,22.086,18.502,9.888,19.466,1.427,5.286,10.334,3.517
1.4552100000000792,-10.358,11.352,7.629,36.961,103.812,-19.871,5.662,12.926,11.009,16.202,-3.451,15.483,5.471,10.976,-9.352,14.946,11.76,46.712,24.163,-8.212,-22.67,32.31,28.729,14.489,27.643,5.012,8.354,15.447,5.563
1.469840600000225,-17.008,3.144,11.72,24.629,91.925,-29.585,14.878,6.253,0.239,3.89,-14.719,4.709,-2.219,6.867,-21.638,3.66,2.527,35.907,21.577,-17.425,-30.332,26.13,24.602,8.839,20.956,-0.116,-7.536,7.235,4.532
1.4717126999998982,-22.626,-3.52,5.048,9.747,80.562,-37.752,22.035,-4.511,-7.446,-5.335,-20.339,-1.955,-7.852,5.835,-25.203,-0.442,2.524,27.674,17.97,-17.92,-34.4,17.394,14.331,4.22,15.299,-5.752,-13.676,4.666,5.04
1.4849259000002348,-11.845,5.193,5.043,24.082,90.215,-30.03,3.058,1.128,0.246,3.891,-10.585,6.756,-3.746,6.342,-14.931,8.268,11.231,31.745,16.415,-9.705,-27.193,20.963,16.879,5.753,14.772,-2.672,-4.953,11.834,8.621
1.4849920999999995,-10.809,8.774,13.747,29.693,97.81,-26.926,-13.851,0.615,2.295,6.961,-12.624,3.163,-4.254,2.237,-16.965,4.161,10.195,29.664,12.812,-14.818,-29.728,20.942,17.886,2.161,8.097,-6.255,-9.046,12.846,13.224
1.4999250000000757,-18.995,4.155,8.098,19.418,93.101,-35.096,1.532,-7.07,-10.002,-6.878,-22.345,-5.037,-10.398,0.698,-24.121,-3.015,8.136,26.048,6.652,-19.927,-37.382,11.187,6.085,-3.477,0.917,-11.372,-20.308,9.76,9.624
1.4999862999998186,-13.34,5.687,0.405,24.521,93.52,-39.159,16.387,0.109,-16.652,-9.945,-19.249,-0.421,-10.387,-1.865,-23.072,1.598,9.152,24.998,5.108,-15.296,-36.833,9.639,-0.068,-2.961,-3.183,-2.652,-17.726,11.799,1.93
1.5149277999998958,-5.13,12.854,3.479,30.644,100.599,-34.509,-0.023,10.355,-2.291,5.434,-11.033,5.214,-3.717,-4.937,-18.951,6.207,9.656,22.411,13.3,-14.768,-32.185,18.339,6.592,0.628,-6.254,2.474,-11.561,14.861,1.928
1.529903000000104,0.51,24.112,6.037,27.54,109.72,-27.815,-14.368,10.857,17.691,16.7,-4.874,11.869,5.508,2.753,-9.71,11.837,14.769,27.512,23.533,-10.143,-23.444,27.542,17.856,8.312,-1.124,2.984,-10.012,23.556,7.561
1.5299650000001748,8.707,31.26,8.08,33.148,117.295,-26.25,-0.009,8.285,15.624,17.195,3.328,20.567,9.601,8.386,-4.065,21.559,19.877,33.632,28.632,-0.399,-14.199,35.711,27.572,18.55,8.611,12.715,-6.416,32.754,12.165
1.5449964999997974,4.087,24.569,6.535,32.602,115.129,-34.933,12.799,0.08,0.752,13.08,1.275,18.497,5.493,-0.844,-11.233,17.951,14.734,25.401,26.555,-5.009,-15.209,34.651,26.007,21.093,9.114,11.677,-8.459,28.622,12.152
1.5450602999999319,-7.7,17.372,-3.205,18.737,108.866,-42.583,-1.046,-2.482,1.263,6.919,-7.947,11.306,1.389,-2.893,-14.296,11.273,11.133,21.278,21.405,-13.201,-21.342,28.981,18.809,16.973,9.105,-0.117,-19.721,23.471,10.091
1.5600835000000188,-3.594,22.99,-1.153,19.743,114.905,-35.88,-14.877,7.767,8.947,8.449,-3.329,14.369,3.437,8.893,-9.158,21.508,17.782,30.478,21.896,-7.04,-20.808,34.587,23.913,22.079,16.781,6.543,-21.239,33.181,16.229
1.5753724000001057,-0.004,27.578,6.021,25.871,119.4,-30.209,-3.592,5.71,7.913,12.539,0.261,15.379,5.483,11.446,-9.149,26.097,19.301,29.935,25.46,-3.959,-18.738,38.651,30.549,28.205,18.813,17.295,-17.631,36.734,22.872
1.5754354000000603,-11.787,21.915,-2.182,20.21,106.986,-39.913,14.343,-4.542,0.733,2.28,-12.035,7.679,-0.67,4.774,-14.263,12.239,9.548,18.634,18.262,-11.64,-24.867,27.342,19.76,18.443,12.647,9.593,-27.347,22.865,14.653
1.575478799999928,-18.435,16.77,-2.693,26.337,98.169,-47.557,20.476,4.172,-0.805,-3.87,-18.171,4.597,-2.719,4.257,-18.86,8.64,6.465,16.566,13.121,-13.678,-29.453,22.191,13.081,13.301,13.659,3.435,-37.054,14.133,6.441
1.5899601000000985,-16.368,17.265,12.679,40.656,101.145,-41.874,23.017,16.975,8.93,6.893,-10.98,9.203,3.944,5.278,-21.915,14.267,11.582,19.624,19.768,-10.59,-26.35,29.342,23.826,24.047,18.256,6.506,-37.017,16.68,11.558
1.5900164999998196,-23.523,14.687,11.13,33.955,97.97,-40.808,22.482,13.884,13.019,3.812,-14.043,4.071,0.866,-1.388,-28.04,4.519,6.447,9.87,13.088,-17.239,-35.032,21.628,22.265,19.412,13.627,-0.673,-44.152,13.077,10.522
1.6050497000001087,-30.672,9.549,1.897,20.601,92.749,-45.378,14.775,10.796,2.76,-8.487,-23.25,-7.204,-8.869,-8.046,-36.209,-7.269,-4.83,-2.435,-3.319,-25.931,-47.293,7.261,9.435,6.585,5.929,-8.869,-56.403,7.941,5.9
1.605120799999895,-21.932,15.175,12.141,26.216,99.316,-42.259,12.198,9.761,-1.341,-2.844,-20.666,-7.709,-7.323,-9.063,-34.636,-6.749,-5.85,-0.383,1.808,-23.344,-39.049,12.889,15.061,14.263,8.484,-3.737,-54.298,19.204,16.653
1.62003199999981,-12.177,24.893,21.863,34.899,103.315,-40.167,21.92,6.165,3.271,2.282,-16.546,-3.603,-6.803,-11.615,-26.405,-4.181,-3.283,2.179,11.027,-18.198,-27.739,23.635,23.243,25.007,14.111,6.0,-46.047,32.505,26.37
1.620102599999882,-14.214,22.819,19.28,33.839,101.675,-43.201,28.558,7.184,-3.392,-4.892,-17.042,-7.185,-13.969,-15.19,-25.866,-2.127,-2.767,-2.947,3.332,-19.204,-34.371,20.538,15.023,20.883,11.535,8.044,-50.099,30.423,24.807
1.635088800000176,-12.662,22.796,25.408,38.929,112.332,-40.084,22.894,12.3,-4.926,-2.838,-12.927,-5.129,-10.369,-10.564,-24.815,4.022,2.359,3.204,5.89,-16.111,-34.337,23.079,19.106,22.912,10.499,9.06,-52.61,30.905,29.393
1.6351503000000776,-2.916,32.507,35.117,50.16,122.978,-33.384,10.576,11.775,6.35,0.751,-7.791,2.561,-2.161,-3.381,-18.131,8.629,7.992,10.885,15.618,-9.947,-24.568,29.715,29.846,31.598,17.149,12.125,-44.361,39.071,38.073
1.6500857999999425,-2.913,30.938,31.495,50.623,116.195,-33.35,6.467,9.714,5.831,-4.885,-9.32,0.509,-6.258,-4.915,-20.162,7.084,7.471,1.653,8.942,-16.085,-27.105,22.001,19.57,26.443,14.57,8.527,-45.853,34.934,34.961
1.6501478000000134,-7.009,20.661,24.291,40.838,108.394,-36.903,21.317,11.241,-1.347,-4.88,-12.384,-1.541,-5.739,-5.934,-23.215,7.077,10.538,-2.959,1.249,-20.68,-31.177,14.295,9.304,16.683,7.383,2.37,-55.541,24.653,26.216
1.6651370999998107,-2.903,19.616,24.267,37.211,108.798,-36.354,38.202,16.353,4.29,-0.265,-7.249,6.658,5.025,0.219,-15.508,10.656,15.138,5.753,8.42,-10.925,-25.51,19.916,16.979,18.716,10.962,4.417,-57.023,22.579,23.629
1.6651983000001565,-3.925,18.571,23.731,38.199,109.714,-30.682,31.504,18.898,11.97,1.272,-3.656,10.75,7.582,1.756,-12.418,11.67,12.561,4.21,10.973,-10.402,-27.022,21.433,17.987,21.259,13.513,5.437,-60.552,18.97,23.605
1.680196000000251,-11.606,12.917,18.071,33.037,107.555,-29.627,20.714,11.195,11.958,2.808,-8.775,5.616,5.525,-0.295,-20.603,8.584,11.012,-5.528,4.814,-20.125,-32.63,16.288,11.821,15.09,6.839,-0.203,-71.762,12.291,19.483
1.6802613999998357,-12.106,9.318,14.467,23.27,104.374,-36.77,21.718,6.573,10.409,-2.83,-12.865,1.512,6.544,4.316,-24.168,5.502,12.538,-3.986,1.735,-19.081,-32.597,18.833,12.322,12.513,7.345,0.309,-74.252,14.84,14.853
1.6951058999998168,-16.193,2.649,12.404,17.612,97.097,-42.88,12.987,12.201,5.276,-14.61,-17.463,-4.637,0.39,3.8,-26.193,0.373,9.451,-5.006,0.197,-20.086,-34.614,15.228,8.723,13.525,5.288,1.333,-75.715,14.313,14.326
1.7105664000000615,-26.423,-2.989,9.83,22.205,85.729,-41.301,4.265,5.529,-1.902,-17.67,-25.642,-11.293,-4.734,-6.963,-32.827,-8.337,6.368,-15.247,-2.365,-27.238,-40.727,3.43,0.005,4.802,-7.013,-6.352,-85.373,4.565,13.799
1.7106278000001112,-20.248,5.211,16.48,29.355,83.594,-33.575,17.58,-9.333,1.174,-11.504,-23.055,-9.232,-0.118,-9.517,-29.721,-4.742,11.485,-15.232,0.711,-18.502,-36.588,10.087,7.178,4.285,-2.395,-1.735,-82.726,10.196,20.445
1.7106693000000632,-1.785,19.55,32.857,35.473,99.392,-25.344,24.223,1.435,13.468,-4.833,-7.15,1.023,3.468,-2.335,-15.858,11.657,22.232,-6.508,10.957,-4.651,-22.207,30.057,24.077,23.749,16.051,14.66,-68.298,34.776,38.355
1.7252225000002,5.389,29.265,41.021,49.782,113.637,-23.27,20.1,25.512,21.139,-0.217,0.542,9.731,6.538,1.765,-8.67,21.891,27.845,-6.501,18.63,-4.134,-15.012,33.1,27.126,34.996,19.621,18.232,-65.669,47.549,48.051
1.7402845000001435,7.433,35.895,39.443,65.102,111.987,-22.734,29.302,28.048,15.995,2.345,-0.484,11.771,10.63,3.3,-8.662,22.894,27.817,-10.593,18.612,-5.155,-15.509,28.456,25.562,29.325,16.015,15.14,-68.677,42.891,45.954
1.7403487999999925,13.573,37.396,44.015,63.5,112.899,-14.514,28.248,16.749,11.368,5.416,5.152,13.296,9.083,4.322,-4.042,24.92,27.789,-14.169,15.519,-4.125,-12.42,31.502,28.611,28.784,15.487,16.661,-65.022,40.286,46.42
1.7552473999999165,14.584,33.773,45.508,56.776,117.397,-9.377,10.289,16.732,17.505,7.46,10.782,16.869,10.611,3.293,0.573,27.457,29.298,-20.814,12.43,-6.682,-9.334,29.933,21.922,28.755,6.762,12.546,-67.006,38.709,42.787
1.7553084000001036,9.959,29.641,36.753,59.281,110.62,-13.978,15.401,23.888,22.098,6.94,9.235,17.877,16.235,5.339,-0.965,27.429,31.831,-20.794,12.93,-5.139,-12.911,24.78,12.679,20.529,0.607,6.898,-76.673,32.01,35.06
1.7703256999998302,6.363,25.0,33.13,59.734,104.874,-13.964,28.706,26.938,20.027,10.519,10.25,16.834,16.219,9.944,-3.525,28.426,36.41,-15.65,14.454,-2.572,-15.972,23.219,14.715,16.922,3.168,6.891,-81.719,27.88,32.976
1.770385400000123,2.258,18.827,30.023,49.941,102.208,-7.29,17.407,23.325,21.031,13.07,11.265,15.793,14.154,9.934,-7.108,24.812,38.422,-22.806,10.341,-8.205,-20.054,16.023,11.627,13.832,-1.958,1.249,-87.273,22.217,27.82
1.7853571000000557,-2.355,13.173,22.308,36.058,90.835,-12.918,9.192,17.154,19.473,6.397,3.569,12.191,13.115,7.875,-12.224,16.59,37.872,-31.493,6.232,-10.246,-25.157,9.347,4.443,10.232,-4.005,-3.363,-96.407,17.071,24.718
1.7873070999999072,-1.841,10.599,24.335,29.875,86.133,-22.639,22.503,13.038,14.843,1.268,0.491,9.617,10.028,8.892,-12.212,18.111,41.42,-29.412,10.324,-3.575,-21.033,21.633,16.734,20.98,10.343,5.862,-97.848,20.128,32.89
1.8003763000001527,3.284,13.15,28.409,37.529,92.195,-20.567,25.042,8.414,13.804,2.804,5.614,10.632,10.53,8.371,-9.638,24.24,44.452,-31.944,13.9,-1.523,-14.352,34.932,30.549,32.742,16.481,13.541,-91.602,23.182,33.882
1.8154429999999593,5.843,21.333,27.356,45.689,93.639,-14.911,7.599,6.869,13.277,3.313,6.633,12.158,11.032,6.825,-7.579,24.728,45.945,-38.06,15.423,-0.497,-12.801,33.36,28.469,33.222,13.39,14.552,-85.875,28.282,32.311
1.8155065000000832,10.96,32.07,36.55,49.742,98.669,-10.286,0.419,18.133,16.338,6.384,9.188,16.757,10.509,10.917,0.625,29.826,52.047,-33.923,20.531,6.164,-6.128,36.912,33.564,38.824,22.599,22.734,-80.666,42.598,48.16
1.8155486999999084,14.023,33.063,41.125,53.79,105.23,-9.763,12.201,20.676,25.031,10.476,12.252,19.814,14.084,14.492,4.723,32.358,55.068,-33.377,19.998,2.572,-5.61,39.949,38.141,42.371,23.088,25.273,-85.197,43.58,51.698
1.831463900000017,1.713,19.71,21.616,46.052,91.805,-21.537,15.263,0.675,17.834,1.244,-0.568,6.987,9.46,11.404,-11.675,16.957,47.329,-48.713,8.195,-11.263,-18.924,24.54,20.172,24.398,1.036,10.391,-100.481,25.606,30.13
1.831530500000099,-6.485,14.055,8.787,32.173,82.491,-29.712,9.1,-3.936,5.008,-7.979,-6.715,-1.73,1.765,9.343,-20.885,8.743,45.744,-56.861,1.527,-12.789,-24.028,15.294,10.931,13.615,-8.187,2.184,-104.991,19.433,20.366
1.8444186000001537,5.817,23.262,19.536,34.191,93.68,-18.924,17.8,16.56,14.225,3.3,9.174,12.617,12.01,13.945,-5.495,22.566,57.482,-47.583,9.722,-2.53,-13.246,26.037,24.752,25.897,4.629,11.403,-94.64,29.147,29.567
1.846107899999879,16.569,25.801,24.64,39.792,99.221,-12.245,29.565,15.519,27.018,13.03,17.874,24.899,22.756,17.005,3.22,30.228,67.158,-42.925,18.934,2.596,-7.597,31.647,29.85,32.531,8.723,17.027,-89.422,31.679,31.074
1.8594670000002225,17.065,23.726,20.517,34.629,100.147,-12.745,20.314,4.745,21.868,7.894,12.733,21.288,16.586,15.451,-1.907,27.124,67.603,-48.517,19.94,4.13,-9.639,30.59,27.259,30.961,8.714,18.547,-90.357,32.16,29.506
1.8595307000000503,19.097,23.702,23.058,34.594,105.17,-8.121,5.949,19.597,19.285,6.862,13.232,18.193,14.008,14.923,1.169,28.634,66.511,-52.055,16.846,2.077,-10.654,31.584,34.404,38.103,14.341,22.627,-90.267,35.714,33.575
1.8744929999998021,12.93,14.457,13.813,33.023,93.282,-13.236,5.431,20.602,20.802,6.855,9.633,13.564,14.506,14.908,-0.369,24.507,66.445,-53.027,13.755,-4.585,-12.18,26.942,33.857,37.552,8.179,17.993,-98.373,25.944,25.345
1.874560499999916,3.696,5.221,-9.767,21.207,76.794,-21.932,10.036,-0.423,15.146,0.188,0.914,8.94,9.881,15.918,-10.103,17.822,66.89,-53.999,13.229,-4.581,-11.656,22.817,26.139,27.781,-2.588,10.291,-109.034,13.623,7.901
1.889412099999845,8.303,13.925,-4.122,26.821,82.353,-13.201,12.588,2.139,18.205,3.262,7.573,16.616,16.531,22.562,-3.945,26.514,71.947,-49.846,17.827,2.596,-8.058,27.405,30.723,32.364,4.075,15.404,-102.777,22.831,15.065
1.889478600000075,10.856,19.546,19.449,41.139,83.295,-5.503,11.038,9.821,26.896,9.406,12.176,20.185,23.174,26.638,5.281,32.123,73.924,-47.747,18.321,3.106,-10.099,27.377,31.205,35.918,9.706,15.9,-96.526,28.956,31.444
1.9043645000001561,-0.938,7.231,0.986,27.265,66.306,-17.281,13.077,-4.533,17.647,-2.387,0.381,8.894,11.368,19.439,-4.971,21.844,67.702,-54.872,12.155,-2.533,-15.724,22.739,20.415,22.05,-2.599,5.126,-107.701,10.996,11.433
1.9194148000001405,-4.011,-1.485,-31.29,12.893,60.604,-24.948,24.847,-6.578,3.797,-13.143,-3.718,4.787,4.697,13.272,-10.089,18.749,64.561,-58.403,8.044,-1.506,-14.172,19.13,18.346,16.392,-6.182,5.121,-115.278,1.764,-14.194
1.919478799999979,0.604,4.152,-16.914,22.614,67.203,-16.214,23.285,4.7,9.429,-5.445,1.409,8.881,11.864,11.721,-1.882,22.316,62.447,-58.857,6.5,-2.016,-14.158,15.525,19.352,23.036,3.045,9.727,-112.088,17.131,3.239
1.9344310000001315,-4.007,4.147,0.009,23.104,69.698,-12.612,5.843,2.646,19.153,-1.853,-0.642,6.31,9.803,5.562,-5.978,15.122,55.724,-65.458,1.37,-10.211,-22.853,10.386,10.111,19.427,-1.568,0.495,-120.686,19.163,17.58
1.934487900000022,-9.639,-2.517,-24.582,9.248,70.653,-18.747,3.276,2.643,12.987,-9.024,-1.666,2.718,4.67,4.532,-15.706,7.934,52.595,-67.442,-1.705,-10.713,-25.904,7.302,6.002,10.698,-10.788,-6.165,-131.836,6.336,-1.905
1.9498325999998087,-6.043,0.56,-29.681,15.387,74.681,-15.654,9.42,8.276,3.752,-7.99,0.898,5.276,8.764,11.7,-13.641,14.074,55.616,-62.251,3.419,-3.53,-18.193,9.344,12.656,16.323,-4.63,1.526,-126.068,9.916,-3.953
1.949909999999818,-2.451,10.805,-6.597,30.741,76.655,-6.417,4.8,6.731,11.945,-0.81,-0.128,9.37,12.342,13.225,-9.017,17.646,56.585,-60.14,7.515,-5.576,-15.613,16.507,16.23,27.065,5.109,6.135,-117.233,19.64,16.031
1.9645132000000558,-1.936,11.307,-7.103,29.173,77.091,-12.558,9.918,8.261,21.667,-4.395,0.384,10.385,13.354,13.212,-8.496,14.554,59.09,-57.006,4.433,-9.157,-20.209,19.564,17.751,29.599,7.153,5.616,-119.677,19.108,16.015
1.9645756999998412,-2.959,6.685,-16.83,19.41,71.891,-23.304,22.204,5.179,7.813,-13.1,-2.69,4.739,9.754,15.76,-10.536,13.515,60.568,-54.387,-0.694,-6.586,-21.725,14.934,18.245,28.033,10.732,8.172,-123.144,19.089,8.827
1.9796120999999403,-9.103,3.092,-11.69,14.78,64.646,-18.67,12.96,-10.708,-8.076,-15.136,-8.835,-2.95,-0.502,8.06,-19.235,6.329,50.774,-61.505,-4.792,-12.215,-23.24,9.796,15.153,28.517,8.672,8.164,-125.582,18.045,8.818
1.979681100000107,-13.705,-2.547,-15.776,15.277,61.508,-13.528,-2.935,-11.21,-2.433,-14.609,-9.338,-9.095,-3.063,0.367,-23.314,-4.948,42.526,-65.542,-5.812,-20.912,-29.365,9.274,12.064,26.439,-0.558,2.521,-131.604,11.367,5.223
1.994626000000153,-13.179,-6.643,-22.933,15.262,58.885,-20.175,-6.518,-2.489,1.668,-18.693,-9.841,-12.16,-2.035,4.465,-19.192,-6.992,46.069,-60.354,-6.318,-16.792,-30.872,9.777,10.515,19.753,-4.656,-1.58,-135.059,7.77,4.706
1.9946923000002243,-16.24,-7.661,-22.91,11.148,57.801,-24.765,-9.585,-11.708,-4.481,-21.235,-13.417,-7.537,-5.619,5.485,-21.223,-3.399,49.61,-56.707,-7.337,-11.653,-26.743,9.255,8.455,18.708,-5.164,-2.091,-133.387,5.2,2.652
2.0095596000001024,-15.199,-10.214,-28.522,12.674,63.379,-15.007,-9.575,-16.82,2.696,-13.53,-6.744,2.717,3.096,7.529,-20.689,2.24,51.097,-52.552,-5.28,-12.153,-23.13,10.782,9.984,22.276,-7.208,-0.552,-131.204,-0.44,-9.134
2.0096183000000565,-4.937,-7.643,-29.006,17.785,67.926,-2.696,-1.369,-2.97,14.988,-5.319,0.435,9.374,15.9,18.28,-10.934,10.947,58.73,-45.327,1.385,-8.555,-20.546,14.87,14.072,21.229,-6.176,1.498,-126.975,0.073,-9.637
2.0246157000001404,-4.932,-4.561,-21.805,12.644,65.297,-7.817,0.682,-0.406,8.313,-8.9,-4.689,8.34,10.761,19.798,-11.436,13.498,61.233,-44.769,4.458,-5.985,-19.5,15.368,13.546,19.671,-5.145,0.984,-127.36,2.122,-2.968
2.0246846999998525,-14.149,-12.241,-26.906,5.971,64.719,-20.104,-1.881,-9.115,0.108,-12.989,-5.196,6.283,5.628,15.68,-16.035,10.41,58.098,-43.188,2.404,-8.54,-21.018,12.278,10.971,19.651,-9.751,-1.066,-134.405,-0.954,-8.6
2.0396215000000666,-11.573,-13.254,-34.052,7.502,69.778,-11.887,-0.854,-6.544,8.305,-6.316,1.981,9.35,11.257,17.714,-8.335,14.498,58.552,-38.534,1.889,-7.507,-21.509,9.705,10.96,12.971,-15.889,-1.578,-137.344,-1.466,-12.178
2.0396872000001167,-12.074,-7.605,-31.968,8.007,68.683,-4.191,-1.878,-1.927,11.37,-5.286,-2.631,7.804,8.172,11.036,-9.863,11.922,55.932,-42.594,0.863,-10.061,-25.586,5.084,7.363,4.762,-19.972,-2.601,-136.182,-4.026,-14.727
2.0546417000000474,-24.87,-18.356,-37.572,1.339,51.196,-22.117,0.173,-8.073,-2.986,-18.088,-14.412,-3.475,0.992,-0.246,-25.222,-1.41,46.655,-46.65,-5.798,-18.76,-33.757,-1.581,-1.866,4.245,-23.026,-6.696,-142.706,-12.731,-26.495
2.0699813000001086,-27.919,-26.022,-42.657,-2.761,39.874,-25.681,5.808,-14.212,-7.081,-22.168,-16.959,-10.131,2.015,3.341,-26.734,-6.019,42.51,-45.578,-9.891,-18.229,-35.261,-4.141,-2.889,5.265,-18.904,-8.227,-147.174,-14.255,-24.932
2.07004999999981,-21.231,-15.238,-35.955,-1.221,49.056,-6.7,-2.907,-10.1,4.197,-11.388,-12.844,-6.535,4.575,6.923,-20.56,-3.964,41.443,-50.656,-7.832,-14.625,-32.151,-2.6,2.749,5.26,-12.737,-5.657,-141.392,-8.605,-14.149
2.084646899999825,-20.697,-13.173,-37.456,0.829,50.544,-10.792,-13.662,-7.016,6.242,-8.815,-11.294,-6.016,3.033,1.281,-22.588,-7.546,37.303,-54.191,-8.336,-18.196,-33.144,-2.085,3.259,5.767,-14.262,-6.164,-139.201,-11.158,-19.257
2.084712800000034,-17.09,-17.258,-43.054,0.828,43.833,-22.564,-0.841,-14.693,0.088,-13.417,-8.209,-6.01,4.055,1.28,-18.467,-1.391,36.753,-47.477,-7.303,-14.08,-26.963,3.552,6.33,8.835,-12.198,-5.133,-139.062,-11.147,-22.312
2.099617599999874,-1.192,-2.384,-33.789,7.488,61.72,-5.123,10.943,-14.166,7.26,-4.694,4.607,5.779,14.297,9.475,-3.592,17.566,45.425,-38.208,4.487,-1.77,-12.079,16.357,18.106,19.072,1.134,5.118,-125.603,1.672,-9.482
2.101350800000091,11.617,12.987,-20.947,22.849,84.712,14.862,-1.363,0.705,19.548,9.655,18.947,19.093,28.115,15.101,5.633,30.356,54.602,-29.461,15.241,5.404,-5.407,24.537,25.261,29.811,7.281,13.31,-111.645,13.965,-0.251
2.114664300000186,11.605,12.974,-16.828,24.876,80.017,16.896,-7.51,0.704,16.967,10.158,20.465,20.611,27.062,6.377,7.164,30.838,55.059,-25.845,15.738,6.423,-6.426,25.025,24.211,27.732,3.687,12.785,-112.558,16.513,4.36
2.1147258999999394,7.495,12.449,-17.324,17.678,70.715,18.928,-0.33,-12.616,11.315,4.512,14.297,18.029,19.351,-21.294,6.645,29.27,48.344,-30.43,15.722,6.929,-6.42,27.561,26.748,26.68,6.757,14.309,-112.958,19.57,9.991
2.1297515000001113,8.0,14.998,-16.282,28.932,75.255,23.008,-4.94,-2.358,14.377,5.02,16.332,16.474,22.405,-52.523,5.614,30.266,45.734,-28.35,17.756,7.434,-7.438,29.071,31.332,35.875,14.948,16.856,-106.697,27.748,17.153
2.129811199999949,5.943,13.959,-12.167,38.636,71.081,20.423,-8.521,14.038,11.801,2.454,13.242,10.822,21.358,-65.279,0.997,26.137,51.836,-18.588,14.152,3.328,-12.041,22.382,26.69,34.814,15.957,11.204,-111.713,28.232,20.21
2.1447194000002128,-6.871,7.285,-9.081,20.667,51.543,9.645,4.295,-3.906,1.543,-8.307,-2.141,1.077,8.017,-51.893,-8.225,11.766,54.346,-21.131,6.966,-4.36,-19.202,15.187,17.954,24.021,13.38,5.557,-123.897,17.446,11.993
2.1447794000000613,-14.036,1.642,-12.658,7.326,36.122,1.438,8.389,-24.395,1.542,-12.397,-9.823,-4.559,4.935,-26.738,-14.365,3.045,45.582,-30.332,2.348,-7.941,-22.769,11.073,15.887,23.485,9.78,5.552,-126.335,10.768,5.321
2.159727499999917,-8.899,3.177,-14.694,18.59,39.672,12.707,-3.915,-11.563,11.274,-5.213,-4.178,-4.042,10.565,-13.392,-12.301,4.067,36.315,-31.838,-2.265,-8.958,-20.184,3.378,12.797,21.924,6.184,1.96,-122.11,13.319,9.414
2.161607500000173,-14.013,3.174,-14.68,20.62,43.731,20.379,-2.374,-2.842,10.751,-3.158,-6.223,-9.673,5.944,-16.964,-14.338,-3.11,32.181,-34.88,-11.485,-17.658,-26.824,-7.384,1.513,8.583,-0.994,-7.776,-127.623,9.207,3.769
2.1748255000002246,-26.295,-5.538,-21.325,8.817,31.392,6.014,11.461,-14.11,5.104,-10.327,-14.926,-20.935,-0.21,-17.46,-23.033,-15.402,27.538,-43.554,-19.158,-24.301,-39.093,-11.475,-5.66,0.889,-10.727,-13.916,-138.254,-0.536,-8.018
2.1748946000002434,-20.633,-7.07,-25.402,12.394,26.749,6.521,11.449,-2.825,11.759,-6.219,-11.325,-17.84,6.451,-10.27,-19.424,-11.288,23.924,-43.511,-15.552,-18.129,-35.467,-7.878,0.493,4.475,-8.667,-12.365,-133.505,-0.535,-2.886
2.1898581999998896,-10.878,-3.477,-23.84,16.48,41.58,23.932,1.704,14.084,16.871,4.546,-3.117,-6.039,11.567,-7.186,-8.646,-0.518,25.437,-37.832,-9.389,-10.938,-28.26,-3.259,6.128,8.056,0.563,-8.254,-123.638,3.051,0.19
2.1899265000001833,-20.089,-12.695,-32.013,2.119,38.977,11.613,5.801,-7.447,0.46,-4.168,-8.749,-10.131,3.871,-6.666,-15.809,-5.128,23.362,-41.893,-13.991,-14.514,-35.916,-7.354,-0.026,3.95,-4.561,-11.832,-129.662,-5.149,-12.105
2.205239200000051,-25.192,-17.805,-37.616,-3.006,25.105,-4.28,9.893,-25.37,-10.299,-16.459,-15.912,-17.806,-1.256,1.025,-25.528,-11.271,18.728,-46.974,-17.05,-17.061,-37.929,-11.958,-4.637,-0.153,-11.216,-15.406,-134.143,-8.73,-13.118
2.205304200000228,-8.773,-2.93,-21.697,12.366,40.449,13.655,1.174,-7.926,6.617,-2.61,-7.7,-4.98,6.43,14.344,-12.182,1.548,22.296,-38.73,-7.812,-8.847,-24.059,-1.187,6.126,10.094,0.066,-3.608,-115.053,7.161,-0.809
2.2199326999998448,3.531,7.319,-7.331,19.526,60.901,22.351,4.759,-2.795,15.32,7.639,2.554,7.832,13.596,24.576,0.638,15.891,29.446,-24.347,1.93,-2.178,-15.326,14.696,19.953,27.502,11.337,12.277,-99.057,22.523,2.778
2.221656900000198,-1.083,4.238,-11.422,18.994,54.693,5.422,21.148,-11.502,0.96,-5.689,-0.01,1.677,10.508,19.94,-6.023,12.801,29.928,-19.711,3.465,-4.225,-15.823,18.779,25.056,30.036,13.375,12.777,-102.032,24.037,3.287
2.2349299000002247,-4.156,4.233,-12.948,23.074,52.589,3.88,17.029,2.342,3.521,-6.196,-3.084,-2.423,9.986,-3.646,-10.115,8.69,26.825,-24.815,4.486,-5.757,-18.881,16.199,24.518,24.883,14.386,8.666,-102.442,22.988,6.87
2.234994999999799,-4.152,5.254,-10.885,19.464,63.807,11.56,5.741,4.389,21.448,8.155,1.018,3.215,16.636,-19.011,-7.031,10.731,24.236,-28.376,5.506,-4.215,-22.448,15.158,19.883,24.346,9.248,8.657,-100.802,22.965,5.839
2.2499628000000484,-8.246,4.736,-12.924,15.347,62.206,5.401,14.444,-14.571,19.377,6.61,1.017,3.211,17.131,-4.135,-10.098,7.646,23.187,-24.762,4.476,-4.723,-23.963,13.094,14.74,22.784,0.53,4.55,-107.874,21.405,3.783
2.250026799999887,-7.213,9.855,-9.837,22.504,62.144,1.81,21.09,-7.896,16.284,1.993,0.503,3.208,16.09,20.972,-9.576,8.151,24.701,-20.638,6.521,-2.157,-23.426,11.544,13.188,23.786,2.066,2.497,-107.766,24.97,10.44
2.2649390000001404,-2.083,14.968,-3.679,24.53,70.279,5.394,17.995,5.944,27.026,7.626,5.114,6.791,22.221,28.123,-7.517,13.266,25.701,-19.081,9.588,-0.618,-24.94,12.045,10.101,26.324,7.187,5.056,-98.949,31.093,13.503
2.2799120999998195,-5.155,13.928,-7.262,18.87,62.012,-0.247,26.174,-9.944,21.364,-0.579,-0.527,1.149,18.1,15.287,-13.657,3.518,18.503,-24.697,5.48,-5.228,-29.526,5.373,6.505,16.564,1.545,-0.073,-100.899,29.525,6.317
2.27996979999989,-6.686,15.451,-8.792,21.925,52.216,-4.857,23.074,-18.643,8.022,-12.361,-12.309,-8.586,5.787,-4.196,-16.717,-7.756,8.751,-32.869,-0.673,-8.809,-34.619,-2.83,7.523,9.375,-3.58,-6.22,-105.409,25.909,6.823
2.294990599999892,1.517,22.608,0.951,29.588,61.385,5.394,1.534,-2.743,18.261,-2.103,-6.662,-6.528,7.83,-14.438,-10.04,-2.113,12.84,-28.738,0.864,-5.726,-30.486,1.784,10.077,20.124,2.059,-3.14,-99.156,31.519,18.6
2.2950525999999627,5.102,25.147,9.659,32.12,62.348,14.098,5.631,-1.203,28.489,7.633,2.567,-0.374,16.532,-8.275,-7.469,4.549,21.537,-17.439,3.425,-2.646,-21.234,7.93,11.092,24.715,7.18,1.986,-94.958,36.098,22.167
2.3100969000001896,0.486,22.048,7.088,30.039,51.527,9.473,23.044,-18.62,18.214,0.454,-3.584,-0.374,13.954,3.516,-6.949,2.496,17.929,-17.421,1.373,-4.181,-25.311,5.873,10.568,18.542,3.587,4.033,-96.913,28.89,15.485
2.3101587999999538,-1.564,20.489,1.446,23.861,48.914,1.266,13.287,-23.212,12.56,-2.108,-7.166,-4.472,9.329,6.586,-5.405,-0.581,11.764,-24.064,-0.678,-6.226,-32.458,4.842,8.509,16.475,-2.052,3.517,-92.717,24.25,12.396
2.3260980999998537,-2.587,18.932,-1.63,21.275,43.23,-1.809,-6.194,-15.505,13.572,-0.569,-4.598,-8.053,8.807,0.432,-9.498,-5.703,11.752,-23.015,-0.677,-7.756,-29.864,4.837,5.939,14.409,-4.099,0.44,-88.014,26.275,12.896
2.3261636000002,-5.146,16.863,-1.116,24.328,32.941,-4.881,-6.7,-16.514,9.46,-5.692,-8.691,-8.558,7.262,-6.741,-14.1,-9.796,11.228,-21.967,-3.238,-6.212,-30.859,0.734,3.883,9.784,-2.558,-1.098,-89.463,25.736,11.858
2.3400572000000466,-3.604,16.847,2.984,23.279,37.006,-9.487,5.602,-22.133,13.037,-8.248,-10.22,-6.5,9.304,-8.271,-11.524,-5.688,10.192,-21.945,-2.723,-6.718,-34.927,-0.291,3.88,9.262,0.518,-2.121,-89.373,23.661,12.871
2.340117900000223,-3.6,14.268,6.055,17.108,43.629,-12.551,14.818,-15.963,20.196,-6.19,-6.111,-4.957,12.368,-5.701,-10.488,-4.145,13.255,-18.337,-1.183,-9.273,-32.843,-1.316,2.339,6.178,-2.556,-7.754,-89.796,20.564,13.37
2.355560299999979,-10.256,6.569,-1.124,12.48,37.438,-10.489,9.168,-12.873,15.053,-7.721,-9.179,-7.513,7.233,-8.769,-15.088,-10.289,12.218,-18.319,-6.817,-9.263,-37.42,-10.024,-5.861,-1.0,-10.751,-12.358,-96.366,9.785,6.185
2.3556698000002143,-13.32,-0.61,-8.295,9.394,29.203,-9.454,4.548,-24.643,8.378,-8.738,-14.293,-11.092,3.639,-6.711,-19.171,-11.303,7.082,-23.424,-11.421,-8.742,-44.555,-13.6,-10.465,-3.561,-13.302,-13.882,-98.319,0.553,0.031
2.37014390000013,-7.671,-1.634,-2.651,12.458,29.687,-8.932,16.838,-23.594,11.956,-5.143,-11.204,-8.519,9.271,9.689,-15.566,-3.095,8.1,-20.839,-3.213,-7.196,-37.851,-4.365,-1.746,2.078,-4.579,-11.819,-89.512,5.164,4.641
2.3702084999999897,-4.078,1.954,2.987,19.618,38.878,-6.362,15.797,-7.176,19.116,1.522,-6.582,-2.875,12.336,15.827,-9.403,2.031,9.629,-15.695,4.475,-2.066,-33.202,5.374,8.502,12.835,7.209,-1.049,-81.225,15.917,11.809
2.385144500000024,-8.684,3.489,-0.602,20.111,44.987,-8.405,-2.662,-6.657,18.072,0.496,-8.113,-6.459,5.663,-0.07,-11.443,-0.532,3.471,-22.339,2.421,-4.113,-37.267,6.905,10.031,19.994,10.788,5.612,-80.12,17.95,15.383
2.3852061000002323,-13.286,0.412,0.423,14.968,40.332,-19.155,0.927,-18.946,4.222,-10.775,-13.74,-12.087,0.022,-7.755,-16.554,-2.581,0.394,-26.415,2.419,-8.72,-34.669,7.923,12.07,17.925,8.215,-0.029,-80.039,16.395,16.905
2.400131500000043,-8.15,2.973,10.156,18.027,41.316,-22.21,14.758,-22.001,-2.955,-12.301,-10.652,-4.903,3.608,4.036,-8.853,3.057,7.054,-16.143,8.564,1.023,-26.437,15.6,18.205,17.907,11.281,2.021,-72.275,22.014,19.45
2.4001957000000402,4.154,15.778,16.806,28.767,50.496,-10.917,11.157,-17.368,11.393,2.055,2.166,6.373,13.339,15.815,3.451,14.837,15.756,-4.856,13.679,9.731,-22.312,23.781,22.798,26.086,18.442,12.265,-62.469,30.189,27.115
2.415220800000043,7.223,24.471,19.863,34.886,50.446,-5.27,6.023,-12.74,18.042,6.152,5.75,6.879,13.838,21.947,1.398,19.433,19.326,-5.876,12.64,2.037,-27.925,18.122,22.775,27.597,16.887,9.179,-59.332,30.159,33.748
2.415286400000241,-2.518,17.274,17.794,28.703,45.784,-11.413,-0.131,-14.264,6.24,-3.588,-6.551,-2.35,5.627,26.024,-8.849,7.631,14.696,-15.604,3.918,-6.162,-39.168,4.784,14.555,18.86,9.185,-3.126,-63.884,23.981,28.591
2.430182699999932,-10.2,7.523,8.555,20.99,44.714,-16.524,-11.401,-23.984,3.16,-4.609,-12.692,-6.958,7.158,29.584,-14.476,-3.136,8.534,-20.199,-4.795,-8.205,-41.178,0.68,6.344,12.694,5.59,-4.66,-69.455,19.859,20.365
2.430259600000227,-2.505,11.614,5.473,23.018,48.768,-14.459,-7.804,-21.398,12.891,3.08,-0.897,3.807,17.397,38.263,-10.363,6.601,13.136,-14.543,2.382,-6.148,-31.915,9.389,12.998,18.316,9.17,0.98,-65.287,23.937,24.956
2.4455744000001687,11.33,22.361,12.127,32.217,63.576,-10.346,5.012,-3.958,17.489,11.274,10.375,18.148,21.99,46.422,2.455,23.501,21.32,-7.869,13.651,4.104,-25.223,18.601,25.28,31.618,16.846,8.152,-49.853,35.184,31.078
2.4456319999999323,13.368,23.876,14.164,37.308,71.709,-8.286,7.568,-0.88,17.471,13.312,9.34,16.081,19.407,44.326,5.014,22.965,17.712,-8.373,8.514,4.613,-25.711,16.021,23.206,33.123,17.854,13.267,-43.655,36.686,25.924
2.4602208000001156,1.571,15.655,4.416,28.561,56.781,-11.864,14.733,-11.126,15.405,4.589,1.134,4.281,12.728,34.548,-8.823,9.622,8.473,-17.074,-2.253,-7.687,-34.394,5.246,11.399,20.795,10.663,6.081,-53.858,21.792,17.189
2.4602803000002496,-5.603,6.93,-5.834,15.213,46.99,-14.926,22.915,-9.578,14.365,-0.026,-5.015,-0.334,8.616,16.071,-13.425,6.539,6.928,-20.643,0.823,-7.68,-39.995,5.241,10.363,20.262,7.579,-1.097,-57.902,12.549,14.61
2.475331499999811,1.575,6.411,-3.267,17.247,58.214,-12.862,19.819,0.678,21.01,9.708,-0.912,5.302,13.731,-7.512,-4.702,15.241,14.093,-9.352,9.019,1.037,-33.807,17.531,20.599,30.488,16.28,7.613,-47.086,20.733,18.182
2.490366500000164,12.844,16.138,9.544,30.549,65.84,-6.189,25.434,4.776,26.625,16.358,9.335,14.006,17.303,-17.238,-0.087,20.349,19.714,0.904,13.109,4.11,-27.114,25.198,26.726,31.482,25.486,16.827,-38.33,27.885,24.824
2.490431499999886,18.467,23.807,20.293,40.253,67.823,-0.035,32.069,2.722,21.475,15.829,13.937,18.09,15.749,-12.098,5.036,23.403,19.695,-2.171,17.706,9.229,-25.55,25.173,26.187,31.45,25.973,16.81,-34.193,29.394,34.02
2.5053665999998884,22.035,27.881,28.469,45.848,74.416,5.088,20.766,3.744,19.917,21.961,17.509,20.634,20.344,-0.815,15.278,32.601,23.261,-0.119,21.787,15.88,-18.352,28.222,29.747,37.054,23.385,20.892,-27.499,36.537,41.671
2.505431900000076,25.599,35.026,32.539,49.388,75.878,10.718,21.257,8.863,22.971,27.575,26.201,28.81,25.447,15.58,19.361,39.741,28.873,9.102,22.278,16.889,-12.186,31.268,32.279,35.992,22.337,22.92,-20.299,42.648,42.654
2.520391600000039,27.622,36.528,25.335,46.777,73.753,13.269,35.068,9.879,23.46,27.547,29.248,32.88,23.372,24.786,18.829,40.213,25.77,7.044,21.231,14.822,-16.272,27.138,27.124,31.858,19.241,16.749,-15.156,41.581,39.025
2.520457200000237,30.669,29.831,15.575,39.046,75.216,8.133,22.226,0.135,23.436,27.52,24.096,27.212,22.836,16.564,17.273,37.611,21.646,0.377,17.111,9.685,-22.403,19.426,19.924,28.752,14.611,15.708,-15.14,38.978,33.351
2.5353463999999803,28.076,28.264,13.511,32.859,69.506,0.952,-1.363,-6.013,23.413,24.418,18.949,24.111,22.814,11.425,12.645,32.451,21.112,0.889,12.483,5.576,-24.43,12.234,16.83,22.576,8.449,13.643,-17.687,33.303,26.145
2.537037000000055,21.388,29.261,10.936,33.851,64.825,3.513,-1.874,4.24,18.267,18.758,14.319,23.574,19.205,18.073,8.534,28.832,17.505,-1.161,11.958,7.108,-25.943,9.661,15.789,22.041,3.317,6.457,-19.206,28.659,23.557
2.5503852000001643,19.318,23.596,5.802,33.305,70.908,9.145,6.325,9.871,13.638,17.715,12.256,18.427,18.673,21.641,7.501,28.803,12.877,-4.746,8.873,4.027,-28.991,10.163,13.724,26.117,6.9,8.5,-22.261,33.241,24.046
2.550481000000218,15.712,15.888,2.722,20.464,63.153,0.426,16.053,-7.045,11.062,14.111,10.194,13.798,16.605,9.324,4.42,23.651,10.815,-5.766,7.327,0.437,-32.035,9.641,12.173,23.53,12.528,11.053,-28.386,28.085,17.874
2.565466600000036,5.45,9.212,-1.892,10.197,44.646,-12.894,29.869,-21.383,10.027,7.949,2.499,10.198,10.953,-13.739,-0.708,15.943,7.218,-6.273,11.418,2.998,-34.053,11.168,16.259,24.531,13.54,6.431,-29.895,14.737,9.147
2.565531700000065,5.445,8.69,-2.402,19.408,50.749,-12.369,25.741,-10.603,16.677,10.503,-1.602,8.651,12.479,-24.484,-2.244,17.976,9.26,-1.656,14.993,2.995,-35.043,16.792,24.44,31.679,19.162,10.011,-24.229,18.308,14.261
2.579769999999826,9.538,15.854,5.797,32.709,65.043,-5.184,11.883,3.752,21.271,17.152,3.523,10.692,16.565,-7.041,0.32,22.057,14.373,0.908,14.978,2.479,-33.471,16.775,22.366,31.135,23.754,15.124,-22.156,26.999,25.518
2.5798303999999916,2.868,16.35,8.865,29.602,56.781,-5.691,13.92,-2.399,13.053,15.086,4.544,10.169,13.475,11.409,1.344,19.473,9.236,-4.216,11.377,5.038,-34.462,9.074,10.561,22.394,11.947,7.424,-26.744,21.849,23.443
2.5943725000001905,-1.233,9.674,2.709,19.327,52.114,-8.247,14.931,-14.18,7.404,11.997,3.003,9.134,13.974,10.373,-2.244,18.429,7.69,-4.212,6.754,1.96,-36.989,4.967,7.989,16.224,2.714,2.806,-29.279,20.291,15.735
2.596111800000017,2.354,10.177,1.681,17.77,59.234,-9.263,5.182,-13.653,14.057,14.034,6.586,14.76,19.595,11.9,-0.704,23.534,19.978,3.989,8.797,0.933,-35.928,8.035,12.079,13.646,8.859,5.365,-31.299,22.319,15.719
2.6094294999998056,-2.259,10.167,2.192,21.339,50.466,-15.402,3.64,-12.615,14.043,12.996,4.018,17.307,18.038,22.134,2.37,27.097,24.568,5.522,12.374,7.08,-34.355,7.003,10.53,11.071,8.85,1.773,-35.879,12.563,15.704
2.6094944999999825,-10.453,1.959,-1.909,17.731,37.607,-21.534,-0.975,-19.775,5.832,5.81,-3.159,12.679,13.41,17.501,-3.78,22.971,13.273,2.442,7.239,1.95,-38.419,0.336,7.958,9.523,2.693,-3.352,-36.867,7.428,12.102
2.6244731000001593,-6.857,-0.092,-1.907,8.492,40.131,-18.951,-12.244,-22.317,2.752,2.218,-3.668,9.592,11.859,6.213,-8.387,16.8,6.087,-0.122,4.67,-5.737,-41.455,-0.689,8.975,12.075,10.375,-0.787,-31.707,14.593,15.676
2.6245370999999977,-0.19,8.618,5.268,7.971,43.677,-14.321,-8.646,-14.61,6.848,5.802,-0.59,8.046,12.36,13.379,-2.743,14.734,9.155,0.903,10.301,1.953,-37.315,7.508,14.601,19.748,19.586,4.849,-28.09,20.726,27.443
2.639473100000032,-0.702,14.244,7.824,17.185,45.171,-13.795,-7.613,-8.447,11.452,7.846,-0.077,7.013,14.397,26.173,-3.765,14.207,13.245,5.001,12.34,5.538,-32.154,12.624,23.296,24.851,20.591,7.406,-28.062,24.803,33.051
2.639531799999986,-3.263,11.669,5.254,20.754,46.662,-15.318,-13.241,-12.025,11.952,4.764,-0.589,8.031,13.87,29.221,-7.86,15.218,13.231,2.947,12.327,-0.616,-32.122,11.074,25.834,24.314,23.132,8.423,-28.546,23.754,25.333
2.654529800000091,-1.723,10.632,6.274,16.122,43.03,-15.815,9.827,-17.648,10.404,3.222,-1.101,9.047,12.319,30.729,-1.704,19.813,13.73,2.944,17.95,2.459,-31.065,15.162,27.858,28.388,27.72,11.489,-25.956,19.632,21.722
2.6695574999998826,1.865,16.769,8.317,16.618,44.523,-13.238,34.92,-14.557,16.541,8.855,2.998,11.088,17.942,34.284,3.933,24.404,21.401,13.187,21.519,10.653,-26.423,21.294,35.514,36.557,33.84,14.551,-17.221,26.784,30.409
2.6696216999998796,1.351,17.265,3.698,19.676,48.065,-11.687,15.417,-9.419,23.184,13.457,5.045,15.175,22.023,34.762,-0.169,23.867,25.991,15.735,16.886,8.081,-28.446,15.125,31.38,31.909,37.392,13.0,-13.105,32.905,32.941
2.684603799999877,-2.236,12.125,-3.478,16.582,40.332,-14.237,-7.14,-13.508,13.94,6.783,-1.62,11.061,17.39,31.141,-5.805,23.331,20.329,10.084,13.283,3.462,-34.566,4.352,20.078,23.168,32.232,9.913,-20.776,23.139,22.661
2.6846786000000975,3.913,15.699,1.648,18.615,38.243,-12.174,2.601,-14.007,5.216,3.19,-2.643,6.952,13.786,23.938,-2.213,24.333,20.821,14.172,16.856,5.508,-28.383,7.934,26.206,27.756,33.224,12.977,-22.805,23.628,24.688
2.699903799999902,14.668,23.88,15.479,28.33,48.451,-2.94,2.086,-6.309,13.92,12.408,8.118,15.142,16.846,19.303,10.085,28.919,26.436,17.232,20.425,9.601,-17.596,16.635,33.352,31.826,41.9,18.087,-12.536,33.85,35.934
2.699968400000216,17.215,22.831,17.513,28.814,52.501,-0.376,-11.748,-6.815,19.542,17.519,13.745,23.324,19.391,19.796,17.247,35.038,24.872,13.116,17.331,11.128,-15.53,16.106,26.146,29.745,39.297,18.069,-9.449,31.255,33.337
2.7145126000000346,18.735,22.296,10.323,26.224,54.497,-3.449,0.047,-5.783,12.862,15.452,15.268,21.251,20.396,15.166,16.205,36.54,22.798,15.665,15.777,12.142,-15.002,17.114,27.657,34.326,36.183,19.075,-8.928,29.687,28.693
2.71456790000002,22.302,25.86,9.8,32.857,62.128,-1.396,15.416,-0.654,12.85,18.511,17.814,20.205,19.864,3.88,17.726,32.917,21.751,15.137,17.298,10.593,-15.499,19.659,32.753,34.804,43.832,20.081,-4.308,37.342,33.787
2.729565300000104,19.206,21.223,8.254,31.8,62.578,1.167,4.13,-7.826,20.009,19.005,14.21,18.136,17.282,1.314,15.659,29.81,16.606,5.9,11.645,5.459,-21.119,12.467,25.547,26.573,40.714,15.962,-9.939,34.23,31.192
2.7296291000002384,15.088,15.567,1.073,18.448,55.343,-4.47,-1.51,-13.453,17.94,13.35,9.585,11.458,14.703,8.997,6.934,24.145,15.565,2.82,5.486,2.38,-23.659,6.307,21.423,26.034,32.989,13.385,-19.151,29.073,24.5
2.7445843000000423,12.512,18.113,-1.49,13.819,46.066,-10.101,7.713,-5.755,10.749,12.312,6.502,7.348,12.127,14.112,4.878,15.924,15.037,3.842,8.042,1.353,-23.636,8.35,21.914,23.446,36.542,12.859,-21.693,31.606,28.062
2.744647299999997,3.278,15.021,-5.587,13.293,36.798,-5.992,1.046,-11.385,8.177,10.763,-2.214,4.266,9.041,6.925,5.385,9.76,8.874,-2.822,4.96,-2.747,-31.297,0.657,12.671,10.103,33.432,4.649,-29.868,25.426,27.522
2.759572599999956,-7.996,3.735,-14.29,4.57,29.077,-1.888,-10.739,-23.669,9.194,3.58,-7.335,-1.373,5.446,-2.816,-4.866,6.164,7.841,-7.43,-6.316,-8.892,-38.95,-12.664,4.461,3.433,21.103,-6.114,-40.597,12.081,15.711
2.759628700000121,-9.525,-2.416,-14.276,1.492,24.437,-8.034,-5.605,-17.498,12.258,3.064,-5.79,-2.396,3.904,2.823,-9.984,6.158,13.468,-3.836,-6.309,-9.395,-36.35,-12.651,4.457,1.38,20.057,-8.157,-39.019,6.946,12.109
2.7746154999999817,-4.393,1.172,-5.04,10.712,29.536,-10.587,4.135,-8.259,14.808,7.672,-4.248,3.241,6.461,18.701,-3.314,12.3,17.553,2.316,0.869,-5.288,-31.702,-6.491,6.502,-0.671,27.722,-3.538,-34.37,13.599,20.806
2.7746734000002107,-1.827,8.856,-3.498,14.8,40.265,-2.892,6.692,-12.861,12.744,7.664,0.367,4.775,7.992,20.219,0.275,13.824,19.073,2.826,-0.668,-5.282,-31.158,-6.997,8.032,3.429,30.256,-1.485,-35.872,21.27,23.859
2.7896882000000005,-5.411,6.798,-12.716,3.002,36.126,-4.426,-2.024,-19.508,4.534,2.021,-1.17,-1.89,3.885,7.904,-3.311,7.151,11.881,-5.374,-3.742,-8.863,-34.201,-11.088,1.876,1.888,23.565,-4.045,-43.521,14.076,14.614
2.7897554000001037,-12.066,-4.992,-27.56,-15.444,23.794,-15.18,-17.903,-29.223,-8.278,-8.739,-15.513,-11.109,-3.803,-1.838,-9.968,0.996,1.111,-13.053,-7.836,-13.465,-39.802,-16.713,-3.761,-9.897,15.857,-6.603,-53.724,-1.307,2.304
2.804716300000109,-8.98,-4.475,-34.193,-18.503,30.943,-14.14,-20.959,-39.44,-13.393,-9.755,-14.473,-10.074,-4.824,-1.836,-8.933,0.995,1.11,-11.503,-8.341,-10.89,-36.176,-12.085,4.44,-6.813,22.501,-0.961,-51.108,4.33,-0.26
2.8048242999998365,6.911,11.923,-20.326,2.008,49.867,-3.368,-7.106,-24.543,3.014,10.234,8.595,6.33,4.915,5.85,6.445,11.752,10.33,-4.32,7.037,2.953,-18.722,7.395,17.755,13.686,40.409,11.848,-32.614,25.33,13.573
2.8197024999999485,18.687,21.645,-8.011,19.937,60.064,8.419,3.66,0.584,22.991,25.593,20.37,19.132,15.668,14.042,16.684,26.085,15.443,3.369,21.887,12.172,-6.408,21.732,25.934,28.529,53.177,21.57,-21.823,36.575,29.441
2.8357931000000463,14.057,20.599,-12.613,14.282,62.565,12.509,3.656,-5.564,17.845,18.908,13.177,12.965,13.603,12.491,8.983,24.01,13.378,5.415,17.766,6.012,-9.987,20.686,32.056,32.599,53.636,25.134,-27.949,37.563,26.85
2.8358601999998427,3.285,15.455,-13.625,6.07,56.867,2.763,-2.495,-20.928,8.093,11.204,5.479,3.73,6.417,9.917,4.363,11.69,8.242,-0.738,13.138,-0.654,-14.588,20.153,32.536,31.542,49.484,25.622,-35.093,31.89,14.527
2.8497103999998217,3.282,13.391,-2.853,11.187,46.564,-5.437,-3.005,-7.587,14.233,11.193,5.474,9.362,10.509,17.079,8.97,16.289,10.795,0.287,15.174,0.883,-10.475,21.669,30.967,31.51,47.385,25.596,-35.058,26.735,17.074
2.851582100000087,8.401,19.013,-0.801,14.762,51.641,3.277,8.781,6.253,18.829,12.207,13.153,21.136,19.72,22.697,10.498,28.056,20.006,10.021,13.109,2.932,-7.391,17.037,35.547,36.602,46.313,22.497,-31.949,33.369,25.254
2.8648103000000447,2.758,16.944,-11.047,10.137,59.274,9.934,3.649,-3.487,15.224,15.268,15.701,21.115,18.164,14.99,6.901,24.442,19.986,8.986,11.047,1.904,-13.531,11.385,33.462,30.93,43.705,16.839,-35.503,32.311,16.008
2.8798210999998446,-14.148,-2.043,-33.556,-3.711,51.975,9.395,-19.919,-24.475,8.025,15.235,5.421,10.826,9.932,-0.402,-1.306,11.077,12.774,0.26,4.879,-2.709,-26.818,-0.928,15.979,7.82,39.522,2.466,-52.847,12.779,-7.069
2.8798851000001378,-18.745,-9.725,-39.67,-13.441,36.554,0.164,-6.579,-24.45,-2.229,3.949,-5.343,3.643,5.824,2.673,-7.452,8.504,12.249,0.772,-2.298,-7.83,-29.353,-10.149,7.254,0.64,37.433,-5.221,-64.578,5.082,-10.136
2.8947720999999547,-18.726,-3.568,-35.02,-12.403,44.714,-2.91,13.407,-21.864,-10.424,2.92,-5.337,3.639,5.306,9.33,-11.543,6.959,12.236,0.259,-1.271,-9.359,-27.786,-12.188,8.783,3.713,32.273,-5.216,-66.05,12.249,-8.589
2.8948346000001948,-20.245,-1.515,-33.96,-6.755,56.965,5.803,-11.709,-18.769,-4.265,8.552,-3.795,1.587,5.3,10.345,-11.02,4.903,6.076,-4.864,0.78,-7.3,-25.197,-8.589,8.262,2.172,30.191,-0.6,-62.91,9.163,-9.605
2.909739499999887,-20.224,-5.612,-44.684,-14.946,59.47,15.018,-36.801,-22.336,-1.7,7.519,-2.255,-1.489,0.684,7.261,-7.935,3.361,4.021,-3.322,-2.807,-9.342,-24.147,-8.068,6.205,1.146,30.673,-0.599,-60.286,0.957,-15.231
2.909798099999989,-13.032,-4.582,-45.152,-21.078,62.996,14.491,-14.735,-26.924,-5.796,6.487,2.871,1.586,-0.341,4.692,-4.341,5.407,8.628,-0.245,-0.755,-10.357,-21.561,-6.523,9.272,4.731,30.13,-0.599,-57.151,4.542,-18.802
2.924931099999867,-0.723,4.132,-32.299,-5.688,73.179,19.6,11.92,-15.114,0.869,13.653,11.065,9.782,7.344,2.638,0.275,12.061,12.718,2.317,9.492,-3.175,-11.806,2.705,18.485,12.411,40.346,7.087,-48.897,17.858,-7.512
2.924997500000245,7.987,16.423,-24.07,12.248,80.791,32.388,10.371,0.782,10.09,18.25,18.738,14.895,12.46,1.099,10.008,16.148,14.754,8.974,13.068,3.488,-2.573,10.899,26.663,22.132,54.651,16.813,-38.09,29.623,7.865
2.939885199999935,8.491,18.968,-29.169,12.748,73.538,30.818,3.701,-3.317,7.518,15.67,16.158,14.88,7.836,-2.488,14.097,13.57,12.69,8.965,9.469,1.436,-4.107,7.302,22.026,21.085,49.985,16.284,-34.978,28.056,3.758
2.9399508999999853,3.359,8.703,-42.46,2.49,59.12,27.714,1.136,-14.584,5.974,13.605,9.994,13.841,8.853,-2.998,6.91,11.507,10.116,2.809,6.898,-2.152,-4.103,2.684,17.905,13.38,39.177,9.608,-38.529,17.27,-10.078
2.9552511000001687,2.331,4.596,-45.491,-2.124,57.011,37.932,-5.526,-7.91,15.702,21.276,18.181,19.975,19.603,8.275,7.928,18.668,15.741,9.466,13.039,4.51,6.147,13.952,30.695,20.026,46.822,13.184,-34.905,17.253,-11.092
2.9553091000002496,4.378,7.153,-38.273,4.538,57.467,41.993,-13.717,6.443,26.957,32.526,25.848,28.664,28.292,23.636,18.166,26.334,22.898,18.678,19.686,11.166,11.264,20.598,35.275,25.642,52.411,17.27,-31.796,18.26,-6.47
2.969873600000028,-3.311,-0.539,-42.846,4.022,43.577,32.217,-14.728,0.289,25.905,27.37,16.088,24.024,26.727,27.199,9.439,20.672,16.727,8.925,12.494,3.982,1.007,6.233,17.821,9.734,36.989,4.957,-45.084,4.922,-13.124
2.969933200000014,-16.627,-11.297,-46.901,-6.229,31.75,23.475,-1.393,-14.569,11.535,16.072,5.313,10.168,19.528,21.536,-7.989,7.844,9.026,-2.354,2.747,-7.292,-7.703,-4.532,7.557,-4.108,26.194,-5.806,-57.847,-5.842,-19.771
2.984995499999968,-17.123,-8.724,-28.412,-5.198,33.768,26.526,9.367,-14.042,5.888,18.105,9.407,6.059,14.386,18.441,-6.444,3.737,10.041,-0.303,2.232,-4.724,-5.646,0.083,10.623,-0.517,31.803,-3.239,-52.153,0.824,-9.505
2.9850632000002406,-15.569,-6.154,-18.649,2.492,32.709,29.061,-2.426,-9.929,12.03,17.575,9.909,4.516,11.297,10.226,-1.827,-1.902,4.908,-4.401,-4.942,-4.207,-6.153,-6.065,4.977,-3.591,31.771,-4.773,-48.515,2.873,-1.298
2.9999839000001884,-28.361,-17.931,-32.975,-4.683,16.795,14.175,-15.231,-23.239,-2.839,0.139,-6.494,-8.808,1.552,-5.154,-13.096,-19.831,-7.904,-17.717,-19.282,-19.572,-15.881,-22.965,-9.884,-14.858,21.493,-13.477,-60.25,-12.499,-11.031
3.000049900000249,-36.53,-28.671,-39.09,-17.998,3.971,-1.209,-14.703,-39.098,-25.378,-13.694,-18.783,-19.045,-10.745,-15.395,-20.255,-30.057,-8.409,-19.236,-20.287,-25.7,-18.426,-28.065,-18.584,-18.429,15.836,-17.05,-67.362,-23.758,-18.192
3.015015299999959,-25.222,-19.933,-35.465,-15.419,12.676,11.6,-19.3,-32.911,-14.082,-5.995,-6.981,-10.829,-7.148,-16.404,-11.013,-17.731,3.383,-6.921,-11.045,-12.354,-5.088,-19.84,-12.417,-14.825,14.796,-13.447,-57.56,-14.512,-12.539
3.030038500000046,-11.365,-8.643,-41.065,-5.157,29.569,24.909,-26.453,-15.972,0.277,5.794,7.37,4.038,5.667,-7.678,-0.756,1.242,12.601,2.82,-4.887,-2.608,6.7,-8.549,-3.696,-11.736,12.732,-6.261,-45.208,-4.252,-12.014
3.0301085999999486,-14.427,-16.831,-51.27,-12.836,24.417,11.564,-26.426,-23.64,-16.117,-0.872,1.215,6.596,5.149,4.625,-3.317,4.314,18.224,5.378,-3.345,-6.191,2.595,-7.516,-7.278,-15.823,11.182,-6.767,-45.162,-13.469,-25.322
3.045020900000054,-24.659,-27.572,-61.465,-29.73,5.949,3.355,-29.473,-49.232,-23.273,-14.191,-6.983,0.954,-1.516,5.132,-12.023,-2.862,18.718,4.861,-6.415,-8.747,-2.018,-17.242,-11.882,-23.491,10.146,-14.957,-50.753,-25.239,-35.03
3.046708200000012,-21.561,-16.786,-60.891,-22.528,11.066,15.135,-28.932,-49.183,-8.906,-9.566,-0.316,3.514,3.096,5.639,-7.4,1.239,20.236,7.417,-4.36,-3.103,6.181,-11.59,2.475,-14.246,18.333,-8.794,-46.603,-12.406,-29.872
3.060090299999956,-14.879,-3.45,-47.51,-4.062,31.548,21.268,-20.706,-25.568,0.837,3.763,5.832,11.708,11.802,21.515,3.366,10.972,28.925,11.508,5.379,3.048,13.347,5.328,18.866,3.186,32.659,3.51,-40.409,3.488,-18.572
3.0601560000000063,-24.086,-10.106,-42.339,-12.255,28.954,16.123,-24.271,-19.907,2.886,1.71,-0.321,8.11,9.229,22.006,-4.835,5.838,24.285,3.3,3.324,-1.566,9.235,-1.337,13.212,-1.428,30.065,-3.666,-47.029,-2.663,-15.991
3.0755033000000367,-34.82,-20.342,-41.785,-22.489,16.118,10.472,-27.833,-26.034,-0.703,-5.976,-6.981,-3.681,1.535,2.516,-18.15,-8.001,8.38,-11.048,-5.389,-11.298,2.053,-13.631,2.44,-11.16,22.351,-10.322,-52.617,-7.783,-15.975
3.075568799999928,-27.101,-12.637,-24.324,-7.097,24.299,9.949,-7.825,-11.664,-0.19,1.202,-1.851,-3.165,6.144,4.563,-10.447,-10.042,14.007,-7.963,0.765,-8.725,4.1,0.215,11.147,0.122,35.136,-0.066,-42.831,8.106,-1.103
3.090103800000179,-16.315,2.232,-9.443,5.718,45.791,19.161,10.113,4.229,14.667,14.009,6.348,8.109,16.384,16.854,-0.19,-2.347,28.337,3.316,8.448,-2.569,14.343,9.948,21.894,8.319,46.884,6.082,-32.542,20.393,15.805
3.0901653999999326,-17.836,-0.844,-20.192,-4.022,49.844,22.728,0.882,-8.583,16.189,11.433,4.292,7.076,12.782,3.517,-4.289,-3.369,19.6,-3.348,2.292,-6.152,16.377,-4.406,9.065,-5.01,33.005,-0.072,-34.558,11.664,8.617
3.105056400000194,-22.941,-12.114,-35.029,-14.776,38.011,11.434,-8.853,-28.554,-2.783,-2.923,-3.909,-3.69,4.06,-6.22,-9.407,-12.075,11.383,-15.127,-3.345,-10.757,9.189,-10.55,-7.338,-16.275,18.115,-5.707,-39.134,0.893,-8.81
3.1067607999998472,-16.77,-4.929,-35.506,-7.589,41.047,5.787,2.426,-24.939,-0.218,-4.457,-1.344,0.925,9.179,6.081,-6.837,-8.477,22.642,-6.915,3.318,-4.598,11.741,-1.83,-2.72,-12.161,21.683,-7.238,-34.997,6.528,-9.826
3.1201765000000705,-4.458,7.883,-29.835,5.738,59.449,9.88,1.912,-10.57,17.2,10.917,10.441,17.318,18.903,11.711,0.855,8.95,33.378,7.436,13.561,2.066,22.488,1.758,5.48,-8.562,22.173,-6.719,-26.253,14.206,-6.23
3.1202416000000994,-8.04,2.24,-34.416,1.122,58.877,3.722,-25.755,-13.121,16.159,12.955,11.455,19.35,18.372,15.797,5.465,13.039,33.345,6.404,16.109,0.527,22.465,-2.854,-0.674,-16.238,10.88,-8.249,-27.763,5.995,-16.47
3.1352108999999473,-19.815,-4.935,-45.14,-15.785,39.863,-4.991,-22.655,-25.403,6.921,-2.427,3.247,8.06,14.768,28.589,-1.713,2.268,33.312,0.762,14.043,-0.498,19.881,-4.901,-1.698,-17.759,10.87,-9.265,-32.859,-2.72,-24.138
3.1352732000000287,-12.11,4.804,-43.046,-12.696,34.7,-1.4,10.155,-25.89,1.791,-5.498,1.194,6.515,13.728,29.585,-1.711,2.778,35.84,5.885,18.64,5.138,28.058,3.301,13.161,-2.372,28.277,0.478,-24.117,9.065,-15.405
3.1502119000001585,-2.364,14.533,-32.757,2.174,41.325,3.725,0.411,-18.179,-0.772,4.241,6.316,13.68,12.69,17.26,8.537,9.435,37.341,8.44,23.745,10.256,34.178,13.544,22.882,7.876,37.47,7.649,-14.359,21.864,-7.193
3.150276500000018,-10.047,12.47,-30.162,1.147,39.747,2.184,-31.865,-18.673,4.351,2.188,3.748,10.081,11.14,5.46,1.356,-0.308,34.23,-2.327,17.573,4.098,30.045,8.92,18.76,1.208,30.261,-0.555,-19.98,17.744,-8.21
3.1651968000001034,-11.574,12.969,-28.595,-1.416,37.146,1.158,-14.927,-23.266,8.958,-2.425,-4.965,-0.688,9.08,-3.255,-9.404,-11.579,27.023,-9.497,11.408,-5.128,24.38,1.738,15.155,-0.33,24.595,-4.141,-25.083,18.751,-5.128
3.1670632000000296,-0.291,24.739,-15.247,13.443,44.793,5.767,5.068,-18.119,8.949,5.262,-0.349,1.874,10.608,2.896,0.339,-6.444,24.435,-7.95,13.446,-3.073,27.942,4.81,16.165,7.355,30.206,2.011,-18.91,36.15,9.222
3.180290799999966,3.807,32.912,-4.473,25.725,53.458,13.958,-14.404,-4.781,16.112,14.99,12.459,13.143,16.745,18.775,7.511,-0.29,26.459,-10.504,11.895,4.102,37.648,6.343,14.1,5.299,35.299,1.497,-12.743,43.799,20.483
3.1803531000000476,-0.295,24.17,-12.666,18.014,51.355,11.895,-11.316,-5.289,20.195,14.463,9.885,11.081,19.29,19.269,0.331,-4.9,26.433,-16.641,5.223,0.512,35.561,-1.348,4.864,-6.49,27.066,-5.165,-12.731,30.947,11.754
3.1953051999998934,-8.491,11.85,-28.022,1.602,40.033,-3.486,14.823,-24.239,9.416,5.227,-2.42,0.311,13.123,7.978,-1.718,-11.555,23.333,-19.186,1.632,-8.198,27.328,-8.007,-5.387,-15.192,11.158,-9.258,-15.279,16.572,-6.189
3.195366400000239,-10.02,13.375,-23.896,-0.961,38.456,-9.118,6.611,-27.801,6.845,2.66,-0.881,2.36,10.548,0.286,0.333,-8.982,25.359,-16.093,6.241,-6.141,32.424,-6.974,-6.919,-18.763,3.974,-9.761,-16.801,14.506,-4.134
3.2105854000001273,-0.276,21.046,-6.453,7.749,51.225,2.162,-11.326,-9.33,16.06,9.317,7.317,12.604,16.685,-4.325,2.894,2.297,32.505,-13.003,11.87,3.087,40.588,-0.82,-4.35,-19.257,1.409,-7.19,-12.686,17.053,10.727
3.2106432000000495,3.31,18.464,0.213,8.766,56.297,1.135,-7.217,-7.783,12.457,7.259,7.309,13.104,18.205,-5.345,6.477,6.394,33.498,-16.064,9.297,2.059,38.499,0.206,-7.42,-24.873,-7.814,-8.207,-10.112,12.425,7.131
3.225255400000151,-2.841,13.834,0.213,1.585,49.068,-11.161,-9.259,-24.682,1.687,0.079,4.228,6.943,12.04,-3.291,1.86,-1.81,28.853,-18.609,4.677,-2.041,37.436,-3.893,-8.437,-30.484,-9.343,-11.785,-11.638,5.753,-3.123
3.240338099999917,-2.838,18.431,12.508,1.584,51.581,-10.126,-22.569,-24.657,3.222,2.641,4.736,6.936,11.003,-0.726,-3.777,-2.833,30.874,-10.906,9.283,0.01,39.447,-2.352,-1.256,-22.256,2.449,-8.699,-8.553,11.382,7.639
3.240403199999946,-3.347,19.438,32.476,9.267,56.14,-4.992,-20.497,-20.534,4.755,1.614,3.195,5.392,10.48,0.812,-3.261,-0.268,34.429,-7.309,10.298,-1.014,37.871,-1.325,-0.23,-12.5,6.033,-7.666,-7.007,18.031,27.099
3.2553524999998444,-7.442,15.832,59.083,15.405,50.448,-12.16,-5.108,-26.661,-4.471,-8.634,-2.444,-1.786,4.321,0.298,-4.283,-7.952,31.321,-14.474,5.677,-6.136,35.784,-4.398,-4.841,-14.537,7.051,-10.732,-10.074,17.501,40.904
3.2554196999999476,-0.775,24.525,91.812,22.05,54.496,-12.66,1.045,-17.925,-0.88,-4.527,-0.392,3.339,7.391,1.835,-1.204,-6.408,34.876,-10.361,10.795,-2.032,41.383,-0.807,2.849,-12.473,21.901,-5.086,-1.867,24.143,58.794
3.2703529000000344,7.935,34.747,114.774,35.86,69.811,-1.376,-7.665,-1.001,15.515,11.871,11.904,15.631,16.605,12.079,3.408,5.382,42.013,-4.203,18.468,3.093,48.002,3.804,10.53,-8.362,30.589,-2.52,7.868,29.754,76.154
3.270415099999809,-1.294,27.028,116.196,44.021,65.643,-2.912,-10.219,-2.025,16.524,10.835,11.379,9.98,14.027,17.703,-5.305,-2.82,34.799,-18.031,9.741,-4.594,43.343,-4.396,0.786,-19.624,20.824,-12.251,-0.336,21.528,79.664
3.2843431999999666,-12.051,18.291,116.08,32.706,50.72,-13.667,1.574,-7.658,10.872,2.627,-0.927,-2.837,8.378,12.05,-16.058,-19.724,25.03,-30.308,-1.54,-11.762,32.029,-11.564,-8.436,-30.876,11.07,-16.849,-9.557,17.92,73.949
3.284403000000111,-9.99,23.396,120.574,18.841,51.182,-11.605,3.622,-4.064,19.058,8.26,-0.414,-2.322,11.443,4.865,-12.968,-15.093,27.054,-26.692,-0.514,-9.189,31.997,-8.479,-6.379,-28.283,6.96,-14.271,-5.962,21.488,71.313
3.2994629999998324,-3.833,27.471,124.04,27.019,57.791,-2.884,-3.554,-1.499,23.137,15.424,7.783,4.34,14.505,-0.263,-8.857,-5.344,30.101,-24.616,4.61,-4.569,42.211,-3.347,-2.274,-23.132,3.879,-11.183,1.216,21.467,77.39
3.2995285000001786,3.856,32.567,132.113,43.898,62.344,-0.319,0.548,5.163,16.966,16.433,11.874,11.508,17.052,-5.385,-1.163,-1.241,36.731,-20.493,11.778,2.608,52.415,7.415,4.388,-13.887,10.023,-0.926,11.461,32.204,88.583
3.3144256999999016,12.561,40.731,138.129,46.928,69.966,-2.368,7.207,9.768,18.999,20.003,19.547,20.718,22.158,-5.38,11.133,11.568,46.428,-10.226,21.5,12.339,60.56,17.653,11.556,-2.603,17.185,9.322,23.745,46.004,92.593
3.3144897000001947,11.524,36.08,124.158,36.635,69.384,-3.903,2.077,-2.025,18.467,19.47,20.552,20.185,20.599,-4.862,9.073,17.192,44.332,-12.265,16.867,9.253,59.987,12.0,3.86,-10.797,7.947,4.189,23.722,35.712,82.254
3.330459499999961,6.902,26.822,105.591,25.84,61.117,-5.948,-4.073,-11.244,9.227,12.791,12.334,17.091,16.48,1.802,1.379,7.953,38.653,-16.864,5.58,0.534,54.804,0.718,-7.927,-25.643,-4.869,-4.524,20.112,22.356,70.901
3.3305177000002004,10.993,28.844,105.998,28.376,61.569,-3.381,-7.655,-5.085,10.243,13.29,13.859,21.685,16.464,17.17,4.964,6.921,46.811,-8.65,9.673,2.583,57.311,0.717,-3.308,-18.445,-1.278,-2.471,27.264,28.994,71.855
3.344455200000084,8.421,28.303,108.965,35.52,58.945,-1.84,-12.258,-3.543,10.745,10.716,13.333,14.491,11.324,8.956,3.934,4.865,46.252,-10.691,9.151,0.019,54.692,-1.333,-0.743,-14.84,5.383,-1.956,24.163,28.452,71.271
3.3445191999999224,-7.981,16.492,98.61,21.14,41.98,-10.035,-15.319,-16.347,-4.635,-5.689,-5.636,-5.504,-0.47,-23.329,-11.951,-15.632,26.738,-26.561,-11.351,-15.35,38.243,-18.238,-17.649,-32.756,4.866,-13.737,2.622,11.005,59.929
3.360768900000039,-16.17,7.766,93.901,6.774,32.205,-18.735,-12.743,-25.552,-10.266,-13.88,-14.34,-10.621,-4.056,-37.138,-23.722,-28.937,18.002,-29.609,-19.536,-20.97,28.983,-28.466,-27.877,-40.921,2.299,-23.969,-5.578,3.822,55.258
3.3608343999999306,-7.445,12.882,106.615,22.136,39.345,-15.13,-4.533,-19.379,3.064,-2.083,-3.055,0.66,3.121,-23.268,-19.6,-21.736,26.693,-23.431,-9.271,-14.289,33.053,-21.777,-17.091,-33.195,-2.826,-19.335,6.723,13.552,62.887
3.374462300000232,-3.339,24.139,119.316,35.947,50.064,-5.381,-2.991,-0.917,13.82,10.214,3.608,7.319,10.29,-6.339,-9.847,-14.029,31.277,-23.408,-5.675,-11.713,37.118,-12.534,-7.852,-27.526,-2.823,-12.143,15.938,19.686,72.046
3.374537799999871,-4.873,28.726,122.27,31.812,56.674,-1.789,-11.698,10.355,14.318,11.229,3.093,6.287,10.28,1.352,-6.763,-14.015,29.709,-23.385,-6.182,-12.214,42.717,-6.886,-3.746,-21.351,7.426,-9.569,17.459,20.179,81.708
3.389451000000008,-0.257,28.697,122.148,34.854,55.592,-5.374,-12.711,-3.488,6.107,5.07,3.602,0.646,4.634,-4.797,-10.342,-17.075,26.093,-22.849,-2.077,-10.665,47.285,-1.756,3.943,-12.621,10.492,-4.949,22.052,24.257,88.798
3.4045729999998002,2.305,29.693,119.977,40.455,51.438,-6.393,-8.087,-26.026,-1.584,2.503,2.061,-2.941,1.043,-13.501,-11.869,-19.107,18.382,-26.412,-0.538,-11.167,45.7,0.807,7.012,-7.997,2.285,0.691,27.666,27.307,83.074
3.4046308000001773,-2.308,27.102,116.783,34.267,53.436,-6.899,-12.178,-24.463,-1.582,3.013,2.059,0.648,1.554,-1.705,-10.32,-14.477,16.827,-28.435,1.512,-10.643,47.192,1.319,2.395,-7.477,1.258,0.178,34.298,25.743,77.356
3.419513199999983,-0.257,25.026,115.641,29.622,55.944,-15.089,-11.141,-13.68,-4.654,0.961,3.594,3.209,4.114,15.203,-8.261,-6.266,22.958,-24.82,2.535,-7.559,48.681,1.83,-0.682,-12.593,12.527,-1.871,38.362,26.741,81.889
3.421248199999809,4.354,30.636,115.526,31.641,57.938,-15.586,-14.203,-19.302,-6.699,2.497,3.078,3.206,8.209,15.7,-5.691,-6.26,22.935,-21.209,-2.591,-7.551,46.071,-0.734,-3.242,-20.777,19.175,-2.894,35.762,31.838,83.856
3.4346497999999883,3.838,34.192,112.336,35.708,63.003,-4.812,-40.317,-14.672,8.165,11.716,7.174,6.789,11.274,11.586,-6.197,-9.839,20.863,-20.676,-6.174,-12.154,45.0,-7.905,-8.875,-21.781,4.811,-7.502,36.239,34.367,79.674
3.4347215000002507,-0.265,30.059,108.638,36.185,54.743,-5.319,-39.764,3.786,14.304,9.655,7.166,3.196,9.214,7.988,-8.753,-13.928,20.33,-22.192,-11.804,-17.777,40.345,-20.193,-21.161,-22.784,-14.149,-13.129,39.276,32.796,80.107
3.450068999999985,-9.486,23.369,106.992,25.902,35.733,-18.122,-6.937,-12.099,-1.079,-3.163,-7.698,-10.64,1.52,2.345,-16.429,-24.673,13.649,-24.731,-28.698,-27.494,26.472,-35.03,-33.435,-35.056,-15.16,-20.289,30.528,27.128,82.076
3.45013310000013,-15.624,19.247,105.348,21.266,34.16,-19.128,0.755,-39.752,-3.128,-4.696,-13.838,-16.265,-4.117,-0.731,-26.658,-34.894,6.463,-30.854,-36.354,-35.663,18.761,-40.118,-34.426,-40.656,-8.485,-25.391,21.788,17.367,77.895
3.4646327000000383,-12.535,17.691,104.731,32.003,40.273,-11.937,-19.738,-19.22,6.609,2.481,-5.115,-14.199,-4.113,-4.829,-23.558,-36.396,1.334,-36.459,-28.121,-31.529,23.865,-30.856,-29.269,-26.783,-6.427,-19.731,27.914,17.862,75.256
3.464694899999813,-8.936,18.185,105.138,35.045,35.11,-13.462,-10.497,6.927,-2.106,1.454,-4.085,-15.722,-5.646,-11.484,-14.825,-35.335,-3.278,-36.935,-21.433,-22.788,29.477,-18.53,-20.018,-12.924,-0.273,-7.928,37.62,25.529,78.767
3.4796289000000797,-5.853,19.704,99.398,28.862,37.124,-13.448,-3.314,-5.887,-7.227,1.964,-5.618,-13.145,-5.128,-6.349,-13.273,-29.152,-2.25,-33.312,-15.776,-19.691,34.57,-9.29,-3.604,-8.301,5.875,-2.285,43.73,27.04,76.639
3.4813586000000214,2.862,24.295,83.929,28.833,49.895,-2.164,-24.828,-12.541,8.661,13.746,5.659,-4.934,3.074,1.854,-6.6,-20.926,0.313,-31.229,-5.514,-17.11,42.22,-2.62,5.109,-3.682,8.943,-0.745,49.322,27.013,65.291
3.494736499999817,4.908,22.734,71.55,28.292,50.357,0.4,-29.926,-6.381,12.751,17.83,9.751,-8.516,4.096,-6.857,-1.47,-25.516,-5.322,-31.71,-6.021,-15.044,39.617,-3.13,-0.532,-4.19,15.594,0.792,47.223,28.523,55.492
3.494804899999963,-3.806,17.588,70.454,25.19,42.11,-12.409,-20.162,-14.572,-3.655,6.029,-1.529,-17.729,-6.154,-23.757,-12.74,-34.712,-10.952,-31.679,-12.162,-20.664,28.819,-9.275,-4.118,-10.334,15.579,-2.795,43.59,24.396,51.851
3.5097482000001037,-0.728,24.231,73.969,31.825,45.654,-13.421,-22.191,-10.459,-6.726,0.9,-1.015,-12.076,-5.124,-25.27,-13.239,-29.042,-4.281,-25.499,-7.539,-22.693,32.376,-4.655,2.034,-4.688,8.903,-0.23,52.768,26.933,55.897
3.509809900000164,11.056,33.428,79.019,39.99,55.342,0.937,-22.169,4.409,7.113,14.732,12.818,-1.305,5.64,-10.9,2.143,-15.693,6.994,-16.252,-1.384,-14.985,42.59,5.596,7.155,7.1,10.943,8.479,61.424,35.103,64.038
3.524739899999986,8.483,25.71,74.841,34.827,57.336,1.449,-22.659,-6.354,8.643,21.889,15.367,1.258,7.171,1.919,-0.933,-10.554,10.06,-15.211,-4.457,-11.897,39.473,-0.045,5.099,2.482,10.932,5.397,56.24,26.359,56.29
3.524808600000142,-0.747,15.95,52.225,23.521,49.082,-11.873,-31.346,-19.668,-0.587,15.207,7.667,4.33,7.164,7.04,-11.69,-9.519,8.001,-17.245,-8.551,-14.959,32.261,-11.315,-4.128,-12.89,3.749,-6.392,50.548,13.012,33.692
3.539697300000171,1.815,17.984,31.68,19.911,40.836,-11.861,-27.216,-9.914,3.0,16.729,10.733,12.011,12.792,8.57,-6.043,-5.923,11.067,-14.154,-9.054,-11.87,33.254,-7.718,-10.271,-19.537,9.893,-5.873,55.108,16.586,22.387
3.5415751999998974,10.523,23.601,30.624,22.965,43.357,1.983,-28.214,2.903,15.804,26.446,24.042,17.634,16.878,10.098,6.771,3.817,17.204,-10.554,-5.971,-4.173,37.319,-1.563,-3.089,-10.296,18.592,2.33,60.176,22.204,25.951
3.5547778000000108,16.148,28.188,25.982,24.991,48.949,9.154,-40.993,5.462,16.813,27.957,29.141,21.715,18.91,13.162,14.448,12.01,17.186,-8.494,0.182,-2.12,41.893,-3.098,6.648,0.473,19.086,5.401,63.19,22.694,26.95
3.5548389999999017,14.082,24.062,10.075,22.405,40.703,0.435,-30.706,-4.79,4.501,19.219,21.428,17.082,14.281,11.612,8.286,5.85,12.559,-6.949,-1.355,-6.729,36.728,-5.144,4.592,-4.138,23.166,1.298,63.639,16.524,19.75
3.569799200000034,6.383,13.279,6.991,14.186,29.904,-9.811,-12.744,-20.154,-5.237,9.466,11.672,1.184,1.971,1.354,-3.505,-9.525,7.935,-11.04,-12.112,-12.869,21.834,-10.262,-3.097,-15.405,18.532,-5.364,60.501,5.749,11.021
3.585201700000198,4.84,14.803,18.767,12.635,33.972,-6.215,-20.929,-16.548,-5.232,6.895,10.636,-3.428,-1.105,-2.746,0.597,-12.589,4.341,-13.591,-14.149,-14.394,21.812,-11.789,-2.069,-10.779,9.804,-4.334,59.416,8.305,15.109
3.5852905000001556,9.446,24.009,21.31,22.868,42.135,-0.062,-31.154,-10.384,-1.128,13.036,13.699,4.26,3.507,5.454,8.281,-6.941,6.898,-4.356,-4.913,-7.719,31.524,-2.555,6.642,-3.083,20.04,1.818,59.869,21.104,27.901
3.5997824000000946,6.363,16.813,5.919,19.771,42.093,-1.086,-40.856,-18.57,-0.615,14.048,10.099,0.669,-0.595,2.887,-1.461,-7.959,10.99,-0.253,-1.835,-6.175,24.833,-1.016,5.611,-10.765,22.069,-0.745,58.785,14.935,15.066
3.599840700000186,2.258,3.989,-16.116,1.821,40.002,-1.085,-54.648,-6.768,-1.639,9.935,5.478,-4.967,-4.693,-6.85,-4.534,-6.927,8.93,-6.913,-3.882,-11.291,20.709,-6.65,-0.03,-15.877,3.604,-1.257,61.8,2.113,-12.614
3.6148693999998613,3.793,2.96,-29.42,1.307,36.375,-6.719,-31.027,8.095,-4.199,11.462,7.01,5.797,0.947,-1.72,4.18,5.376,11.995,-1.783,3.294,-7.694,30.422,3.603,6.63,-8.177,4.113,4.892,65.836,5.697,-16.187
3.6149365999999645,1.227,2.445,-27.341,11.552,28.654,-16.959,1.792,-8.307,-5.219,14.012,11.614,16.549,7.606,5.454,3.151,13.055,22.229,13.076,12.0,1.023,31.417,14.87,16.357,-4.07,14.867,5.912,61.672,9.277,-8.487
3.629820699999982,1.226,1.418,-23.215,7.954,29.138,-7.72,-9.993,-8.298,7.594,19.121,17.75,17.045,13.746,-3.261,1.611,10.993,24.256,13.575,10.451,0.51,26.774,9.732,14.804,-6.115,7.68,5.394,59.049,9.78,-11.04
3.629884099999799,3.274,4.49,-24.729,5.384,33.72,9.706,-31.5,13.227,23.468,30.373,20.294,17.028,17.831,-10.942,5.708,6.883,13.473,5.365,0.707,-5.126,23.674,1.525,4.543,-9.183,-3.598,4.364,62.576,11.308,-9.492
3.644907500000045,-10.562,-1.662,-21.63,6.916,24.464,5.598,-26.346,-0.619,20.37,30.855,11.564,11.376,11.666,-9.394,-4.544,-5.931,5.263,1.261,-10.565,-11.269,7.769,-12.821,-10.319,-19.932,-11.792,-12.034,52.267,-2.024,-7.433
3.6449658999999883,-27.457,-12.931,-15.461,2.298,10.608,-1.068,-30.418,-18.037,9.591,21.09,1.819,0.094,4.994,-10.409,-15.81,-22.831,3.208,-3.863,-21.825,-22.016,-8.121,-36.374,-26.702,-39.38,-14.854,-31.49,31.723,-22.514,-15.622
3.6598755999998502,-27.942,-16.504,-18.007,-0.266,1.888,-1.067,-36.535,-7.772,4.971,11.848,-4.843,-9.128,1.915,-14.497,-19.38,-29.981,-0.894,-9.495,-31.537,-33.265,-10.674,-49.146,-38.458,-51.636,-11.253,-34.532,24.006,-31.201,-20.73
3.6599357999998574,-27.914,-19.049,-26.698,-1.29,-8.36,-11.824,-31.888,-11.863,-4.768,2.614,-12.523,-16.291,-4.747,-13.971,-26.021,-34.049,-7.553,-11.535,-37.141,-35.281,-14.25,-48.584,-41.494,-47.998,-16.877,-34.498,31.667,-34.756,-26.345
3.67497080000021,-21.738,-14.932,-30.258,-1.289,-1.18,-7.202,-42.614,-17.487,-5.788,6.198,-6.363,-11.152,-3.205,-5.247,-19.847,-29.917,-2.422,-6.4,-28.907,-26.536,-10.137,-39.314,-29.157,-30.532,-14.298,-28.316,40.857,-30.11,-31.441
3.6750474999998914,-6.86,-1.597,-29.715,6.909,16.24,14.323,-48.207,-3.637,0.366,17.462,6.964,1.155,4.995,5.004,-3.434,-13.493,8.851,3.853,-15.558,-16.264,3.193,-22.369,-11.197,-13.595,8.257,-9.844,47.476,-17.785,-25.774
3.689984000000095,-9.414,-6.206,-36.858,2.804,-0.17,4.062,-38.425,-17.978,-15.004,3.1,-1.24,-3.97,-5.256,0.388,-7.016,-10.918,7.305,5.898,-15.542,-15.735,4.215,-17.223,-13.235,-10.508,10.298,-5.224,48.453,-22.378,-30.359
3.690049199999976,-15.553,-19.52,-49.116,-17.179,-21.174,-15.41,-57.854,-44.6,-27.284,-13.297,-8.411,-10.113,-15.497,-6.784,-11.108,-15.518,3.2,5.892,-15.527,-16.232,2.161,-22.329,-21.419,-15.62,-2.52,-10.854,49.429,-28.503,-42.624
3.705431299999873,-3.754,-13.865,-55.727,-21.772,-3.222,2.024,-75.727,-39.432,-15.986,0.549,7.479,3.217,-4.211,5.518,4.273,-3.719,12.93,15.62,-5.265,-9.043,9.844,-15.647,-9.614,-16.117,12.852,-6.745,56.04,-17.204,-36.946
3.7055021000001034,-5.287,-13.339,-57.721,-16.627,0.879,8.682,-55.671,-41.442,-24.167,1.061,4.397,4.238,-3.694,13.197,-0.342,-3.716,13.942,15.092,-9.87,-12.62,4.711,-19.73,-9.092,-19.687,19.499,-11.349,50.349,-17.699,-33.323
3.719969100000071,-25.774,-31.769,-66.885,-24.295,-26.274,-17.454,-54.079,-53.184,-47.197,-20.457,-18.149,-12.16,-21.109,0.376,-19.297,-23.18,-0.417,4.831,-22.668,-24.391,-9.126,-38.665,-26.502,-28.889,-3.062,-26.194,31.343,-34.587,-46.098
3.7200447000000167,-24.724,-34.811,-75.015,-29.907,-22.662,-18.461,-67.857,-29.564,-36.903,-13.777,-9.934,-6.0,-15.453,-5.772,-13.13,-18.546,2.658,12.511,-13.936,-18.731,-6.556,-34.528,-21.864,-27.835,-4.083,-22.582,32.848,-37.627,-47.076
3.7350830999998834,-12.404,-22.481,-72.378,-22.704,0.415,8.197,-42.686,-5.968,-12.788,10.828,11.593,12.449,4.031,-3.205,-1.847,-0.084,18.024,22.232,-2.652,-5.904,1.136,-19.124,-5.961,-17.561,11.29,-14.362,46.648,-26.318,-38.832
3.7500632000001133,-11.367,-12.724,-64.621,-8.337,5.538,20.484,-21.127,-11.598,-4.066,21.575,13.631,14.998,7.613,-5.763,-1.845,2.478,14.932,17.087,-5.723,-5.386,1.134,-18.081,-5.955,-11.908,5.643,-14.348,47.113,-11.947,-31.109
3.7501275999998143,-5.208,0.609,-54.31,9.602,13.729,22.001,-36.475,-4.926,8.746,30.263,17.716,17.032,11.191,-1.147,4.305,4.012,7.745,15.533,-2.643,-6.918,6.256,-11.915,-2.363,-7.798,3.588,-5.112,48.603,1.897,-16.221
3.7650573999999324,2.994,10.342,-41.961,18.302,23.449,25.053,-42.586,9.423,18.983,35.868,27.432,22.138,18.865,7.051,8.911,9.643,12.348,17.566,1.97,-3.837,12.91,-2.169,5.836,-1.13,13.319,1.553,59.313,3.944,-10.057
3.765115600000172,-1.107,5.721,-41.919,16.747,16.766,25.54,-42.031,2.242,12.304,31.734,23.818,18.53,15.772,8.069,5.316,8.097,11.823,14.475,-0.593,-4.345,9.823,-4.728,1.732,0.92,8.695,-7.158,57.717,-4.257,-21.83
3.78007290000005,-8.278,-4.531,-57.246,5.971,7.527,21.416,-51.21,-9.031,5.632,29.141,14.573,13.901,7.559,8.573,3.262,2.453,8.226,17.022,-0.593,-7.415,3.666,-6.773,-1.344,-2.667,-1.56,-8.688,46.901,-18.085,-35.64
3.7801328999998987,-12.368,-18.359,-75.119,-20.675,-3.751,9.099,-44.499,-17.732,1.016,18.865,6.361,9.276,0.892,11.126,-1.352,-5.746,13.34,20.591,-2.641,-10.994,0.076,-7.791,-2.367,-8.3,-1.559,-4.068,41.731,-35.485,-51.486
3.795164300000124,-11.844,-23.976,-82.217,-29.363,-9.383,4.479,-34.209,-20.275,-2.572,8.088,5.33,5.681,-0.646,16.751,-2.376,-7.277,18.962,22.62,-4.688,-10.47,3.662,-9.32,-3.389,-10.853,9.201,-6.113,44.251,-38.523,-63.218
3.7969097999998667,-0.049,-10.12,-79.573,-4.743,7.021,23.43,-48.007,-6.423,6.653,22.937,18.133,13.872,9.088,22.881,8.897,5.538,22.53,29.257,4.538,-3.288,11.855,-1.626,6.86,-1.108,27.123,-0.472,51.891,-27.726,-59.056
3.8102076999998644,0.976,-10.622,-84.104,-4.226,11.624,34.677,-56.668,-6.416,7.158,30.598,20.164,15.907,10.104,13.125,11.962,7.581,23.532,27.179,5.046,-1.235,10.307,-1.112,10.952,3.504,29.657,2.603,53.376,-32.822,-59.509
3.810273800000232,-9.271,-30.079,-97.852,-31.374,-9.904,22.86,-49.951,-26.39,-10.78,11.1,8.361,6.67,-0.665,3.89,3.754,-4.209,16.848,16.393,-5.205,-5.332,3.124,-9.82,2.744,-5.721,15.795,-6.622,46.15,-45.084,-73.794
3.8263230000002295,-2.09,-22.877,-101.853,-29.294,-9.382,26.423,-56.049,-17.142,-8.207,14.675,15.012,13.323,5.484,13.62,7.848,1.943,14.782,19.963,4.534,-0.716,8.756,2.997,11.963,0.944,16.804,0.045,52.252,-35.818,-76.282
3.8263888000001316,7.646,-5.435,-94.066,-8.772,4.46,43.303,-54.968,2.343,12.293,33.616,28.317,26.63,19.311,14.119,17.062,18.335,25.013,29.677,19.899,9.018,15.92,21.95,29.369,18.362,30.107,15.414,64.495,-18.876,-65.447
3.8401996000002327,0.466,-11.065,-88.337,-7.739,-3.742,35.575,-28.786,-12.517,8.182,23.336,22.141,24.554,16.73,0.785,15.508,20.365,30.112,31.696,17.829,11.571,13.855,17.829,27.803,17.831,35.713,11.3,57.77,-14.246,-54.624
3.8402612999998382,0.978,-7.468,-78.002,-7.218,-9.886,24.781,-19.023,-19.676,-2.072,14.604,16.996,23.505,13.127,7.444,15.492,18.296,29.569,35.251,18.324,13.096,13.841,12.176,26.238,15.252,40.8,6.678,51.053,-4.498,-37.663
3.855145999999877,3.539,4.835,-64.604,-2.6,-5.265,31.416,-36.935,-0.701,4.078,22.786,17.491,23.481,12.089,20.756,15.989,15.716,30.564,35.728,18.818,10.009,10.241,11.652,28.774,18.823,42.296,9.745,55.1,5.753,-26.354
3.85704590000023,-12.346,-6.953,-63.003,-8.233,-15.506,26.261,-37.922,-1.725,-1.562,15.591,7.228,10.65,1.319,17.149,4.19,4.43,24.386,26.471,3.43,-3.321,-4.626,-2.192,16.45,8.045,33.032,-0.51,45.311,0.112,-28.89
3.870322600000236,-16.433,-13.094,-55.255,-8.737,-18.564,19.063,-24.565,-12.482,-6.683,12.501,5.171,7.053,1.83,16.108,0.088,-1.21,20.263,23.37,-1.184,-5.367,-8.208,-5.264,10.798,5.476,31.462,-4.096,33.483,0.111,-16.053
3.8703906999999163,-0.022,2.801,-30.609,-0.532,-6.25,33.901,-31.2,0.338,14.84,31.957,18.998,19.854,12.074,20.19,11.871,6.476,27.415,25.396,11.624,5.397,-1.027,9.086,21.033,20.327,36.554,8.203,42.671,14.456,8.554
3.8853110999998535,-6.17,0.749,-33.653,-4.117,-14.953,40.015,-42.952,8.535,17.899,32.949,18.979,17.273,5.402,9.411,10.834,2.371,22.777,15.637,5.977,2.83,-5.637,4.466,14.352,13.135,24.222,5.634,44.677,6.245,-3.75
3.885386599999947,-24.095,-19.744,-65.894,-19.482,-32.357,26.655,-35.737,1.354,-2.098,17.035,6.153,0.349,-4.337,-6.992,-3.009,-16.075,4.311,3.838,-11.959,-11.005,-15.878,-13.981,-7.692,-11.982,2.169,-10.254,29.263,-20.402,-36.022
3.9003367999998773,-17.41,-22.286,-85.296,-28.684,-23.103,23.554,-25.455,-3.258,3.027,17.53,8.196,-0.163,1.815,-6.473,-3.006,-17.596,4.307,3.322,-9.386,-11.506,-13.813,-12.943,-11.782,-17.605,-8.08,-11.78,22.574,-26.529,-51.355
3.900402100000065,-3.561,-13.042,-79.063,-20.971,-6.174,28.141,-19.794,-7.353,14.807,23.148,18.946,14.181,7.96,7.366,8.78,1.89,17.11,6.905,1.382,-1.761,-6.626,-2.684,-0.5,-9.39,-8.584,-3.059,29.724,-14.719,-47.717
3.9153019000000313,0.541,-8.931,-85.644,-9.167,0.493,31.187,-20.286,-6.834,9.157,27.735,24.563,24.413,11.539,15.556,17.993,12.646,19.655,10.996,0.356,5.926,-4.058,1.93,6.673,-0.672,-1.403,3.604,41.477,-10.094,-48.694
3.9170343999999204,5.664,-8.922,-88.12,-9.67,2.541,41.402,-36.66,1.882,16.32,37.954,29.661,26.438,17.162,18.102,22.586,12.121,23.733,17.645,1.893,6.944,-3.542,5.002,10.765,12.649,11.918,6.674,49.12,-5.985,-39.424
3.9303853999999774,1.56,-11.474,-74.712,-18.37,-8.732,37.774,-43.283,-3.243,12.205,27.157,20.922,19.752,9.461,19.621,19.489,12.109,31.394,18.652,3.428,0.277,-6.612,2.435,12.803,18.272,23.69,2.057,37.288,1.193,-22.991
3.930454599999848,-11.762,-16.586,-71.051,-22.962,-24.092,19.293,-27.358,-15.022,-20.083,4.589,4.507,9.998,-1.307,15.502,10.76,5.949,29.314,15.048,-4.26,-1.26,-12.241,-4.227,10.741,14.667,29.301,-3.068,23.419,-1.37,-22.968
3.94541449999997,-6.115,-14.52,-70.98,-18.328,-15.871,26.447,-32.967,-7.323,-16.989,13.293,10.138,12.55,4.329,11.389,12.287,3.894,29.797,19.131,0.867,6.426,-10.692,2.949,15.341,19.776,32.346,4.107,34.154,-1.881,-20.896
3.9454781999997977,8.236,-5.284,-62.712,-9.601,-3.048,41.789,-55.475,-2.192,9.156,27.112,26.01,21.759,8.936,18.037,22.008,16.698,36.939,26.284,18.285,12.567,-1.46,21.389,30.183,31.539,38.973,16.398,44.366,10.929,-9.092
3.960722899999837,6.179,-3.23,-63.162,-12.665,-7.656,30.989,-40.05,-19.096,-4.173,16.839,22.91,21.737,3.292,17.507,24.548,20.78,37.414,26.258,20.315,13.579,2.128,27.003,38.35,36.118,45.594,20.993,36.124,16.041,-10.107
3.960783800000172,3.099,-5.788,-74.369,-20.849,-6.623,28.909,-20.03,-25.225,-10.829,19.896,21.35,19.666,6.874,2.12,21.962,15.636,35.328,25.207,16.197,14.59,-0.948,22.878,34.725,33.008,42.475,18.41,34.551,9.877,-20.343
3.9753132000000733,8.219,-0.659,-78.393,-12.632,2.605,45.274,-47.163,-7.269,16.846,38.832,33.624,26.306,16.089,-4.03,23.989,22.792,37.342,26.206,21.816,15.088,-0.947,24.392,30.08,29.901,34.236,16.342,41.177,11.917,-22.884
3.9904129000001376,8.21,4.465,-76.266,0.701,-3.033,38.056,-63.509,5.034,18.879,36.231,34.103,29.354,18.122,4.684,25.502,25.331,36.792,23.106,22.819,14.561,-1.458,23.855,25.951,26.285,27.029,16.326,34.988,16.003,-23.886
3.9904786000001877,5.641,2.411,-72.091,-6.472,-14.301,18.55,-30.658,-0.607,6.052,26.974,25.359,25.226,19.129,18.511,22.402,14.547,37.268,23.083,16.648,13.009,-2.482,15.122,18.753,18.574,16.244,11.699,26.244,16.5,-23.862
4.0044222000001355,7.684,1.896,-68.433,-21.322,-12.75,18.532,-6.037,-12.389,16.805,31.557,26.871,24.688,20.647,29.763,19.818,11.971,35.693,21.523,15.095,10.947,-2.991,9.984,12.586,11.896,3.932,4.515,28.267,22.118,-18.715
4.004485500000101,10.75,4.456,-66.315,-18.227,-10.688,27.223,-33.183,-13.914,23.448,34.087,29.406,22.615,19.089,31.271,19.286,10.422,27.973,9.719,10.981,8.887,-6.575,8.949,6.426,9.835,1.366,1.949,29.263,25.17,-15.11
4.019436999999925,12.277,6.501,-64.199,-2.84,-16.312,31.806,-50.056,1.982,15.227,30.979,26.302,15.42,18.558,23.555,19.267,1.703,25.384,2.024,7.384,10.415,-8.617,7.916,1.809,6.751,4.439,3.996,24.111,22.583,-14.583
4.019503800000166,11.752,8.031,-62.086,1.261,-21.419,31.262,-21.829,8.64,9.577,27.875,23.714,13.867,13.928,15.846,19.76,3.238,27.92,7.145,12.5,12.454,-4.51,12.519,8.467,8.793,6.484,6.041,22.037,27.172,-13.032
4.034453300000223,10.716,10.585,-61.512,-5.912,-21.91,27.645,-2.852,-12.886,5.469,22.211,21.642,14.366,6.23,9.171,19.74,6.821,23.793,5.601,16.073,10.904,-1.432,18.141,14.606,18.006,11.6,7.572,22.528,32.78,-13.531
4.034515800000008,13.779,16.209,-60.426,-5.906,-14.716,31.203,-22.317,-18.508,9.049,22.701,21.62,9.741,8.273,4.551,19.208,2.203,22.233,1.497,15.545,9.869,-0.406,19.148,15.104,22.599,21.835,11.151,23.53,36.333,-11.468
4.049497599999995,20.425,26.439,-57.804,4.858,-2.406,39.369,-29.979,6.613,17.75,30.363,29.283,15.366,15.949,12.231,26.361,10.91,30.407,8.668,22.702,18.056,8.304,28.35,28.409,28.212,33.596,18.824,26.068,48.592,2.376
4.049566000000141,31.163,36.659,-46.987,16.124,7.843,39.329,-15.604,16.341,15.17,33.407,39.5,28.159,17.47,22.977,37.606,25.756,36.012,13.782,31.9,29.308,20.079,43.179,48.873,45.602,47.395,28.027,29.628,58.278,18.255
4.064504399999805,38.816,40.721,-37.719,24.305,13.983,40.827,-22.249,11.201,17.204,34.91,44.071,30.692,18.477,20.905,39.617,23.681,35.464,11.207,35.455,31.328,24.669,48.259,52.922,56.315,54.007,33.122,35.234,58.219,23.36
4.064568700000109,35.704,38.119,-41.78,21.719,14.993,45.397,-35.546,18.362,25.896,36.925,43.515,26.563,19.483,7.052,35.992,20.584,33.379,11.708,33.882,28.223,23.62,44.112,45.697,49.599,46.269,30.527,34.686,55.087,22.312
4.0798955000000205,30.545,33.47,-40.713,12.476,8.318,41.765,-25.777,16.295,21.26,35.351,38.86,23.975,15.878,-6.788,37.493,22.1,30.784,9.135,25.652,25.121,21.547,38.433,41.553,41.352,39.05,26.911,23.381,48.884,21.265
4.079952999999932,32.051,29.85,-29.914,14.0,1.138,35.576,-17.554,-0.628,17.652,34.291,35.235,20.877,15.862,-8.83,38.48,16.443,31.778,2.466,18.966,22.022,22.55,32.246,34.339,32.601,36.45,24.835,16.697,43.712,16.12
4.094509399999879,33.556,28.796,-31.421,22.695,1.137,35.54,-19.074,-2.164,23.27,35.793,35.2,22.905,16.871,1.425,34.343,14.377,35.333,5.025,20.484,22.0,25.602,28.116,25.083,24.884,27.704,22.248,22.316,42.132,10.469
4.094567000000097,28.912,28.255,-39.074,20.111,3.185,33.456,-19.055,9.621,14.538,30.635,32.603,23.395,11.731,11.669,31.747,17.437,34.273,7.581,19.439,20.954,23.527,22.452,20.447,22.81,20.504,20.177,19.732,34.405,4.823
4.109644799999842,24.272,21.054,-40.06,13.431,-1.429,24.201,-34.917,9.099,1.203,19.845,25.398,15.174,6.596,11.146,28.641,8.198,28.603,-0.623,11.735,13.76,17.356,13.208,12.742,15.615,18.434,13.497,4.855,25.149,-1.842
4.109717100000125,24.248,13.861,-44.118,16.492,-7.576,19.566,-53.325,-4.23,8.374,18.801,22.299,12.598,9.663,5.499,22.977,1.017,27.55,-3.184,11.211,12.21,19.9,12.17,8.119,7.915,17.391,5.798,-1.297,26.149,-3.377
4.124679699999888,29.859,21.019,-42.025,24.16,-1.42,29.792,-37.39,-2.689,23.223,33.127,32.011,27.442,17.338,4.469,28.59,14.848,36.231,6.553,22.983,23.468,31.663,25.991,20.406,19.69,27.62,16.039,8.438,36.881,6.36
4.139572300000054,37.002,30.22,-31.224,24.135,8.827,40.009,-14.811,23.442,30.372,44.364,46.323,37.148,21.931,1.903,43.418,29.178,40.294,8.596,32.693,32.666,39.828,39.285,34.73,32.99,36.814,31.392,16.626,44.529,14.039
4.139631300000019,39.014,24.554,-38.365,26.161,9.331,38.944,-31.19,36.738,35.465,44.832,49.863,33.013,23.446,-3.734,45.936,27.612,28.47,-2.684,31.124,30.584,42.862,39.245,34.183,27.834,28.068,27.774,11.999,41.923,11.463
4.154627899999923,41.536,22.48,-48.061,31.257,12.395,45.053,-54.725,19.795,44.138,51.96,51.35,34.517,27.009,0.368,41.279,27.584,26.393,-5.755,29.556,29.017,49.479,40.743,32.612,30.368,33.163,26.21,7.376,42.905,14.013
4.154685299999983,38.933,24.507,-35.717,6.635,14.944,48.594,-39.814,6.455,41.02,54.469,52.324,35.507,27.494,11.638,41.238,30.118,34.051,0.399,32.6,29.5,51.991,47.362,38.727,41.096,51.573,34.893,8.906,48.498,23.221
4.169620799999848,20.963,8.601,-35.682,-25.647,-7.1,20.368,-17.232,2.351,14.852,28.8,34.853,18.053,14.659,5.479,32.488,16.256,22.234,-6.262,23.346,20.249,42.206,36.556,35.102,30.809,41.275,26.661,-3.911,37.691,16.025
4.171323399999892,9.672,-1.142,-50.503,-13.326,-29.122,0.368,-26.949,-3.287,-4.119,5.205,15.863,2.153,2.349,-10.92,18.623,-3.74,9.916,-17.526,6.929,10.495,34.991,20.126,23.797,20.019,27.914,12.29,-23.887,23.821,5.251
4.184756799999832,18.371,14.229,-40.206,19.475,-23.457,18.811,-42.804,-0.722,3.058,14.421,22.507,4.713,5.421,-10.91,23.215,-3.737,20.665,-13.923,7.946,14.071,40.591,20.618,23.26,26.147,46.841,17.401,-19.252,30.969,13.955
4.184825799999999,21.427,17.288,-26.846,5.624,-16.774,26.476,-43.273,-1.746,2.03,20.554,29.144,7.782,7.977,-2.702,29.34,-0.147,22.693,-9.81,9.988,16.106,42.6,19.573,21.188,24.072,54.479,20.969,-10.524,37.086,21.625
4.200162600000112,11.159,3.951,-38.602,-8.727,-19.319,12.618,-50.915,-13.528,-8.73,10.8,19.381,1.626,-0.74,-2.699,18.039,-10.393,8.326,-21.584,-4.879,3.794,37.434,5.209,6.31,10.728,28.809,8.653,-27.419,25.778,11.87
4.200227599999835,10.123,3.435,-39.588,10.238,-14.689,17.216,-62.647,-13.514,1.524,14.375,18.849,-1.962,-2.277,1.402,11.874,-14.993,7.293,-29.759,-9.485,-1.333,36.885,-0.432,-2.918,4.569,14.436,3.521,-40.2,17.043,8.272
4.214680099999896,19.847,9.067,-18.032,9.715,-8.526,27.445,-56.949,-3.254,12.794,24.607,30.101,7.262,7.972,8.573,22.62,-1.658,17.532,-17.946,6.918,14.038,45.557,11.352,5.282,7.639,22.106,11.202,-28.376,24.198,21.071
4.214738499999839,29.561,18.279,-2.132,9.705,2.753,27.417,-47.67,7.507,8.17,27.144,39.293,25.185,18.722,6.515,33.868,15.25,27.248,-2.047,19.719,28.369,59.344,25.685,17.572,16.34,29.768,21.95,-16.565,39.543,36.419
4.229772000000139,30.556,29.019,4.018,33.774,16.583,32.001,-49.672,15.697,11.748,31.215,42.84,29.259,20.241,-1.176,35.371,19.845,29.27,-3.069,18.675,22.705,62.358,25.147,15.505,14.787,25.128,21.415,-26.282,39.504,37.92
4.231667000000016,14.132,12.597,0.427,19.396,2.221,26.333,-50.134,9.533,12.761,26.061,29.989,10.274,8.95,-9.372,23.553,2.919,15.921,-15.874,8.922,12.948,46.414,4.629,-1.929,-10.331,5.635,1.926,-49.31,11.8,17.39
4.244795300000078,-2.276,-9.958,-9.819,-12.387,-18.785,11.45,-48.547,1.839,-0.572,13.227,15.102,-5.105,-2.33,-7.825,9.697,-16.551,5.659,-19.444,-1.333,11.398,36.122,-9.72,-11.661,-22.616,-7.691,-11.908,-61.556,-7.68,-1.583
4.244859800000086,7.972,1.323,-9.809,4.019,-8.008,18.099,-49.011,14.133,5.577,16.8,22.259,1.56,0.746,15.749,11.737,-10.387,12.313,-15.838,2.255,12.412,46.332,3.098,1.159,-3.638,2.563,-1.65,-51.248,6.673,5.591
4.259846999999809,25.383,18.228,1.984,19.897,10.443,32.425,-43.839,26.414,26.063,28.566,32.996,12.317,8.942,32.127,22.996,3.968,14.35,-16.847,10.962,13.936,56.019,15.902,14.477,12.759,21.004,11.159,-44.025,26.646,22.491
4.259924399999818,23.308,18.21,9.666,10.656,8.383,28.807,-39.184,24.338,26.55,28.026,28.352,9.743,9.446,13.139,22.973,-4.233,6.139,-21.441,6.852,13.41,55.451,10.763,12.414,11.722,32.766,11.148,-51.665,32.767,29.129
4.2748169999999845,12.526,16.142,9.144,19.866,-7.507,19.044,-41.707,17.654,9.617,17.239,18.077,-4.099,0.215,-16.075,11.679,-19.598,-2.064,-28.08,-1.352,6.224,51.297,6.142,8.303,8.636,35.295,8.575,-57.249,32.734,26.538
4.274878700000045,12.514,13.565,7.086,23.433,-21.844,13.902,-44.227,10.464,-5.762,5.951,11.399,-11.268,-10.544,-21.182,9.106,-20.603,-2.575,-28.052,0.187,5.706,49.197,11.259,10.856,11.189,31.161,8.567,-56.679,29.115,24.462
