Timestamp,Cz,Fz,Fp1,F3,C1,C3,T7,C5,CP5,CP3,CP1,P1,P3,O1,CPz,Pz,Oz,O2,P4,P2,CP2,CP4,CP6,C6,T8,C4,C2,F4,Fp2
0.0,11.017,-18.179,-32.265,-4.939,-33.682,23.124,1.621,9.389,13.531,-6.716,0.9,-3.796,-6.271,18.429,45.196,-3.738,-15.376,-5.184,-2.716,12.132,66.158,8.302,-4.557,2.948,-28.997,5.481,-84.576,-17.513,-56.671
6.889999986015027e-05,10.494,-16.112,-39.917,-4.934,-31.599,23.101,-0.43,3.744,11.468,-3.123,1.412,0.818,-6.265,15.849,45.151,0.364,-10.75,-1.08,1.385,12.632,69.166,7.781,2.108,8.58,-20.771,7.013,-88.078,-15.446,-55.59
0.015130299999782437,10.483,-11.485,-32.705,2.243,-20.297,26.152,0.595,13.474,12.481,0.978,6.021,2.354,-3.697,18.395,41.519,2.925,-7.665,3.019,5.482,10.058,67.047,10.847,2.618,10.621,-13.578,10.079,-101.31,-11.332,-50.923
0.015198600000076112,8.936,-14.547,-32.673,2.241,-16.178,22.027,1.619,16.022,14.006,-1.584,3.966,-2.771,-5.742,15.303,41.478,-4.763,-14.83,-6.718,0.353,10.047,58.271,8.787,-1.483,7.537,-21.762,6.995,-101.208,-13.882,-48.823
0.030326399999921705,10.464,-12.996,-39.812,-3.397,-9.502,17.394,1.105,10.371,15.529,-0.558,-0.136,-4.818,-3.687,10.677,42.973,-5.27,-15.327,-7.736,0.353,11.062,56.164,4.168,-3.018,3.431,-24.814,4.427,-94.447,-16.942,-50.311
0.03039200000011988,11.478,-7.86,-40.285,-0.32,-2.32,20.451,4.178,16.508,15.513,5.078,1.401,-3.276,-0.098,18.351,37.295,-2.703,-11.214,2.518,4.963,10.026,54.57,5.188,-4.552,4.964,-20.691,9.033,-92.303,-13.339,-54.872
0.04499600000008286,12.491,-7.852,-40.757,4.804,-6.416,23.504,9.809,25.201,13.961,6.61,4.985,-0.199,-1.634,23.455,37.258,-4.237,-12.739,-0.558,5.471,10.016,50.93,9.281,-1.474,9.57,-21.694,14.147,-87.6,-6.154,-52.255
0.046653800000058254,14.528,-10.405,-43.79,2.75,-11.021,16.309,8.775,16.979,13.434,0.455,0.882,-0.711,-3.17,15.235,42.856,-4.746,-14.263,-9.267,4.441,10.006,51.391,9.784,4.675,10.073,-21.16,13.109,-83.414,-5.123,-46.055
0.06009409999978743,9.902,-12.444,-46.308,-3.401,-8.96,7.071,-0.968,5.179,7.273,-5.18,-7.316,-9.419,-4.703,7.023,38.202,-8.327,-15.274,-8.233,3.412,8.459,50.827,11.311,5.183,10.063,-20.115,11.559,-87.429,-11.778,-51.645
0.060157299999900715,4.257,-11.92,-49.847,-7.496,-13.05,10.137,-1.479,5.686,-0.419,-3.638,-7.821,-12.996,-8.285,6.503,33.553,-13.954,-16.795,-8.225,3.408,9.988,49.24,13.862,5.69,12.102,-21.119,13.596,-88.367,-13.815,-58.253
0.07507789999999659,9.376,-6.785,-48.261,-6.976,-19.697,18.837,9.281,10.291,3.168,-0.049,-3.715,-6.323,-5.715,10.595,40.692,-11.379,-13.705,-7.704,8.016,12.539,48.166,14.36,7.734,11.065,-16.487,14.095,-81.618,-9.191,-54.096
0.0899955999998383,14.49,-2.679,-48.212,-4.407,-21.214,22.916,8.759,10.793,10.849,0.976,-2.686,-6.317,-1.611,13.146,42.188,-10.343,-13.179,-4.623,8.52,12.015,45.044,15.37,3.115,8.492,-15.446,13.569,-77.438,-5.083,-51.481
0.09006300000010015,14.987,-2.677,-54.312,-5.428,-22.217,23.918,-0.983,10.782,10.326,3.024,-1.659,-10.921,-4.171,11.084,37.023,-14.943,-16.239,-7.18,6.462,11.49,42.949,15.867,2.6,8.996,-20.554,14.067,-74.799,-2.004,-51.429
0.10500939999974435,17.534,-4.211,-54.77,-5.422,-17.584,21.332,1.579,14.87,6.73,2.509,-2.17,-9.886,-6.216,8.511,35.449,-12.879,-15.199,-7.685,10.042,11.479,43.419,13.29,6.695,10.012,-16.947,12.516,-70.626,-3.027,-52.915
0.10507109999980457,13.93,-8.305,-52.666,-4.392,-12.956,14.651,7.725,14.855,2.112,-3.641,-9.34,-12.95,-6.722,9.015,33.364,-13.378,-16.208,-3.579,7.47,7.881,38.765,11.74,2.078,8.465,-15.393,9.43,-72.092,-12.757,-62.083
0.12004739999974845,5.207,-10.858,-54.662,-6.437,-14.48,10.538,6.693,10.229,-2.501,-6.199,-13.941,-20.621,-12.863,4.395,29.233,-24.636,-20.803,-8.186,-1.759,3.775,34.115,9.166,-2.023,5.895,-20.501,6.859,-78.168,-17.868,-66.12
0.12011019999999917,7.251,-4.7,-47.435,-2.844,-6.781,14.114,10.272,15.854,1.6,-1.07,-10.341,-15.99,-11.313,5.416,32.277,-22.562,-15.659,-10.739,1.829,7.357,36.643,7.62,3.615,7.938,-14.845,10.438,-73.479,-7.604,-56.32
0.13504729999976917,12.879,0.428,-34.068,9.454,6.034,15.636,15.385,23.011,5.697,2.005,-5.72,-7.265,-2.593,14.632,38.393,-9.731,-8.471,-2.019,7.463,12.473,41.729,12.223,6.173,13.566,-5.609,17.088,-61.11,0.088,-47.554
0.13510850000011487,8.768,-3.671,-35.059,10.469,6.028,10.498,12.808,13.766,-3.018,-3.12,-8.788,-13.405,-6.688,13.592,35.28,-13.82,-13.585,-3.554,0.795,9.387,39.126,11.699,1.044,10.478,-11.751,11.948,-61.049,-6.059,-48.531
0.15041669999982332,3.636,-7.766,-39.122,3.799,8.071,7.413,10.234,10.166,-4.552,-4.141,-12.878,-17.49,-11.293,6.919,28.585,-20.466,-17.158,-10.723,-4.841,4.766,32.427,2.978,-2.544,2.783,-20.448,4.251,-67.648,-10.152,-50.532
0.15047580000009475,5.169,-7.758,-36.521,8.405,17.797,13.041,7.15,19.89,3.65,4.572,-8.254,-8.251,-3.597,12.547,28.556,-14.298,-13.555,-4.564,-2.787,5.274,29.833,2.975,-4.078,2.268,-19.403,8.345,-65.019,-8.092,-51.506
0.16502270000000863,4.14,-11.849,-40.071,8.909,16.754,14.053,0.483,14.747,0.572,8.154,-3.635,-7.218,-3.593,15.096,31.089,-12.235,-16.103,-3.023,-2.784,5.269,32.877,6.046,-9.197,-0.296,-19.384,8.337,-60.855,-13.72,-58.115
0.16507719999981418,1.062,-12.861,-43.105,1.216,13.151,8.916,-1.055,7.048,-4.039,3.022,-5.681,-12.846,-8.2,10.47,28.497,-14.784,-17.623,-9.168,-3.806,4.239,32.844,0.917,-11.749,-6.443,-23.463,0.132,-60.282,-19.341,-61.13
0.18014880000009725,2.597,-9.262,-36.914,2.752,15.7,12.493,2.533,13.188,3.137,3.532,-6.7,-9.76,-2.557,15.071,28.468,-12.72,-13.507,-6.597,-4.827,2.185,30.249,-0.109,-9.688,-2.85,-23.952,3.205,-55.611,-13.687,-52.872
0.18020759999990332,-1.504,-12.839,-35.852,5.31,6.975,14.53,6.629,8.052,1.597,3.528,-9.255,-13.336,-5.116,14.031,28.44,-17.83,-19.129,-7.103,-10.457,-3.452,26.633,-0.621,-14.289,-4.385,-25.977,6.276,-57.092,-15.21,-49.746
0.1951493000001392,-11.236,-22.048,-42.476,-3.404,-9.426,2.732,7.134,-4.764,-11.212,-6.209,-21.541,-26.643,-20.992,0.185,18.165,-29.596,-29.356,-18.879,-15.57,-8.572,21.996,-11.379,-25.034,-17.7,-34.66,-5.001,-66.257,-29.027,-58.917
0.19521399999985078,-10.712,-22.538,-41.922,-8.012,-14.027,-2.394,5.59,4.463,-10.689,-7.228,-25.618,-28.153,-23.02,-2.889,9.95,-29.566,-26.253,-19.372,-16.067,-6.514,24.023,-15.978,-23.472,-18.195,-37.187,-8.07,-60.555,-31.047,-59.371
0.2102004999997007,-1.48,-12.782,-36.244,-0.831,-9.403,9.392,8.146,20.34,0.593,3.026,-13.297,-18.391,-11.214,5.31,19.674,-21.852,-18.03,-11.668,-11.952,-2.409,33.733,-4.179,-11.665,-6.394,-26.904,1.672,-44.101,-19.233,-48.553
0.2251725000000988,2.62,-4.06,-35.696,5.83,-3.246,16.555,9.675,19.295,3.666,6.096,-8.673,-15.299,-9.666,6.842,27.851,-18.244,-19.549,-14.218,-5.28,-1.894,37.797,3.51,-7.555,-2.801,-18.68,7.818,-39.958,-13.578,-47.992
0.22524369999973715,1.08,-6.617,-40.271,-1.349,-5.804,10.903,0.956,8.517,-2.485,0.455,-18.398,-19.894,-17.341,2.224,21.163,-23.861,-27.726,-20.864,-8.349,-7.016,34.173,-3.154,-13.183,-8.434,-23.272,8.835,-44.017,-16.639,-56.141
0.22528969999984838,-4.556,-13.783,-49.452,-15.692,-18.606,5.769,-3.656,-1.738,-10.167,-2.619,-24.015,-28.584,-20.91,-5.975,19.093,-32.034,-36.92,-24.429,-19.611,-14.181,31.578,-10.835,-19.317,-15.597,-33.495,5.24,-42.436,-21.745,-60.183
0.24017120000007708,-4.552,-9.671,-52.477,-14.139,-18.075,9.349,3.008,4.412,-8.108,3.531,-14.769,-27.018,-15.766,-9.555,25.734,-29.44,-36.371,-25.941,-18.055,-12.117,36.157,-7.238,-19.81,-16.606,-34.998,1.136,-34.709,-22.236,-57.049
0.2402404999997998,10.31,-0.952,-42.178,0.732,-0.126,20.098,6.591,23.363,6.757,17.36,-0.41,-10.597,-5.504,1.725,27.245,-15.066,-25.064,-19.768,-8.303,-0.835,45.342,3.015,-13.131,-9.418,-25.742,8.307,-26.989,-16.066,-50.845
0.2552129999999124,14.91,-5.562,-41.111,1.243,1.923,23.152,6.072,19.753,9.824,20.416,2.665,-5.464,-4.474,11.458,27.218,-8.904,-22.989,-12.063,-8.294,3.777,48.883,3.012,-11.068,-9.408,-21.105,12.398,-27.987,-18.611,-51.818
0.2552784999998039,-1.498,-16.827,-52.853,-11.053,-15.497,10.833,5.554,0.266,-3.506,7.076,-7.584,-18.266,-12.666,3.762,27.703,-15.555,-30.651,-13.588,-10.848,-0.325,44.223,-2.626,-14.643,-15.546,-27.232,2.651,-31.033,-30.888,-60.476
0.27123600000004444,-8.157,-20.909,-53.313,-15.141,-26.752,2.626,0.425,-2.296,-10.162,-1.128,-15.774,-23.883,-17.264,-2.902,21.528,-17.588,-29.083,-16.649,-8.788,-1.349,41.105,-2.111,-13.092,-12.969,-29.766,1.624,-27.928,-34.443,-62.977
0.2852480999999898,-6.612,-27.035,-54.796,-21.273,-35.947,1.598,-5.211,-3.318,-11.689,-4.713,-20.369,-23.347,-19.296,-0.85,16.895,-18.083,-29.054,-16.632,-11.853,-2.373,40.552,-5.183,-14.616,-17.055,-31.786,3.672,-31.486,-35.946,-64.963
0.28531269999984943,-17.364,-38.791,-70.111,-35.596,-49.743,-4.551,-9.816,-18.172,-19.362,-9.319,-27.008,-28.959,-20.302,-0.849,17.391,-24.213,-36.71,-17.64,-17.476,-7.493,35.901,-13.375,-23.31,-28.309,-38.414,-7.603,-42.725,-46.668,-74.12
0.3005414999997811,-21.445,-40.289,-67.991,-34.536,-53.28,-6.083,-15.954,-17.129,-16.781,-5.211,-28.518,-26.368,-15.158,1.713,17.373,-21.627,-29.501,-15.061,-13.36,-6.461,36.377,-11.312,-18.676,-23.669,-29.154,-10.157,-42.17,-47.134,-70.459
0.30253199999970093,-17.837,-35.126,-51.017,-24.768,-52.202,-0.954,-15.426,-6.354,-8.567,-1.108,-25.416,-20.707,-14.118,8.884,15.819,-13.921,-20.25,-11.972,-11.81,-3.893,39.415,-7.203,-8.924,-12.887,-12.731,-0.925,-35.468,-36.328,-57.069
0.3154802999997628,-26.529,-39.702,-56.601,-31.915,-65.982,-4.027,-14.898,-20.18,-18.805,-9.816,-32.05,-31.444,-25.887,4.264,12.217,-25.178,-36.111,-21.694,-24.093,-13.623,30.154,-17.441,-21.21,-22.096,-20.403,-7.584,-39.531,-43.464,-63.159
0.315557699999772,-31.113,-44.273,-70.377,-41.105,-76.675,-6.584,-27.179,-34.504,-29.032,-14.417,-38.678,-42.684,-34.058,-11.622,6.057,-42.059,-51.444,-38.066,-33.803,-23.856,21.926,-26.646,-32.46,-34.369,-32.678,-15.773,-45.639,-55.204,-77.441
0.33036159999983283,-16.225,-35.007,-64.671,-31.33,-67.889,2.131,-36.885,-18.076,-18.757,-5.693,-28.394,-35.981,-28.389,-14.684,10.15,-34.844,-47.807,-37.003,-25.06,-16.147,34.2,-17.397,-20.132,-25.113,-24.96,-2.95,-35.86,-44.903,-71.728
0.33042639999985113,-4.426,-23.701,-56.41,-19.003,-61.161,11.351,-26.09,-5.25,-11.054,3.534,-15.045,-24.162,-21.701,-5.448,27.558,-17.903,-42.123,-24.158,-13.764,-1.274,49.023,-3.035,-6.279,-12.281,-18.276,7.811,-14.307,-30.513,-57.824
0.3453759999997601,-2.884,-21.116,-55.841,-16.935,-66.735,13.389,-13.768,-17.028,-16.166,4.043,-15.03,-20.039,-19.63,-1.344,35.215,-13.787,-35.421,-19.523,-12.726,0.776,48.461,-2.52,-8.835,-16.879,-21.843,3.705,-3.022,-32.019,-60.328
0.3454437999998845,-2.369,-22.119,-55.273,-19.48,-68.205,10.301,-18.878,-23.671,-17.686,-0.572,-18.601,-19.507,-17.561,-0.318,29.032,-15.822,-25.14,-17.967,-13.738,-4.86,45.851,-7.641,-13.949,-26.084,-25.408,-1.422,-4.556,-38.135,-68.977
0.3603852999999617,-3.904,-23.634,-55.218,-20.485,-62.502,7.73,-30.13,-17.499,-14.595,-2.621,-15.509,-17.95,-17.031,4.806,23.88,-13.245,-23.578,-12.314,-11.163,-3.83,47.855,-6.608,-15.472,-22.984,-28.456,-1.933,-1.477,-38.097,-65.834
0.36207199999989825,-5.949,-26.172,-56.699,-23.538,-67.05,9.259,-34.71,-19.531,-13.556,-2.618,-17.03,-17.933,-17.014,4.288,24.368,-12.207,-24.066,-11.789,-11.151,-1.265,48.319,-6.089,-16.481,-20.912,-28.428,-1.418,2.11,-36.522,-63.719
0.3754266999999345,-8.504,-26.658,-61.253,-27.101,-78.254,9.25,-31.089,-23.098,-10.98,-5.177,-21.624,-21.501,-15.972,0.186,25.369,-14.756,-22.505,-15.363,-13.19,-5.362,44.685,-10.182,-16.977,-28.575,-25.325,-3.978,-4.552,-40.072,-70.315
0.3755097999996906,-8.496,-25.607,-63.754,-24.0,-79.712,7.703,-24.398,-16.415,-6.871,-5.172,-18.016,-21.479,-17.493,3.772,26.88,-13.717,-25.044,-14.323,-12.152,-5.869,44.128,-10.172,-15.423,-29.571,-27.349,-5.511,-4.547,-44.13,-69.732
0.389458999999988,-6.951,-30.192,-62.665,-21.927,-78.096,9.745,-26.935,-14.861,-7.376,-4.654,-16.461,-16.847,-21.062,5.817,26.341,-11.654,-27.069,-14.309,-12.14,-3.814,46.645,-8.625,-15.92,-26.98,-31.933,-4.481,1.093,-43.574,-67.614
0.38952560000006997,-11.042,-36.822,-69.263,-31.126,-86.727,5.637,-36.13,-21.506,-13.004,-10.285,-24.642,-20.929,-24.115,-0.336,23.241,-15.229,-28.066,-18.393,-15.714,-6.372,44.549,-12.714,-18.465,-32.076,-31.901,-6.526,-4.544,-45.579,-76.767
0.40480829999978596,-11.031,-35.248,-74.317,-32.12,-87.152,3.07,-31.995,-18.411,-9.918,-6.176,-19.494,-23.469,-21.529,0.689,27.316,-13.164,-28.038,-15.301,-16.21,-4.316,45.017,-9.115,-14.348,-27.433,-27.258,-4.47,1.096,-45.534,-76.691
0.40487339999981486,0.251,-25.479,-62.971,-17.231,-72.208,17.411,-19.668,-4.048,2.9,12.273,-0.519,-10.126,-12.286,11.446,36.51,1.706,-20.838,-8.626,-7.485,2.348,52.657,1.14,-3.576,-16.135,-22.108,5.268,19.026,-35.754,-65.343
0.4195039999999608,1.275,-24.941,-62.396,-18.75,-73.673,28.152,-20.161,-2.507,5.971,13.798,-1.031,-6.529,-10.737,10.41,35.961,1.704,-21.841,-13.74,-7.99,-0.728,52.092,-5.521,-8.695,-25.341,-29.77,2.701,13.371,-37.255,-70.401
0.42124379999995654,-9.485,-34.65,-77.191,-35.638,-95.116,17.878,-25.264,-15.312,-3.257,-1.585,-14.862,-21.892,-20.46,-0.871,28.753,-13.154,-33.603,-25.51,-20.789,-6.875,42.818,-17.299,-19.957,-37.098,-42.036,-8.06,4.136,-50.538,-81.089
0.4344922999998744,-4.864,-34.103,-68.917,-31.504,-100.144,10.688,-14.992,-18.883,-5.815,-4.145,-13.31,-21.87,-21.464,2.204,29.237,-11.604,-29.983,-21.386,-17.182,-3.282,45.849,-12.159,-10.716,-27.327,-33.797,-2.416,17.452,-42.803,-70.762
0.43455709999989267,4.362,-21.774,-48.355,-12.517,-85.187,18.362,-1.657,-11.18,0.851,3.543,-4.588,-8.016,-13.758,15.009,35.867,0.19,-15.096,-7.532,-1.284,3.381,54.512,-3.437,2.103,-16.542,-18.394,6.808,25.632,-26.366,-54.297
0.44966459999977815,0.259,-18.166,-48.819,-6.869,-77.417,23.979,-7.291,-7.07,6.485,6.101,-4.583,-7.496,-12.207,17.556,40.955,2.752,-9.958,-1.377,1.792,6.964,54.97,-0.36,0.051,-14.988,-16.839,2.702,21.508,-26.852,-52.706
0.46450000000004366,-0.766,-23.783,-57.48,-16.596,-78.877,21.905,-20.091,-10.649,5.454,4.046,-5.091,-12.099,-13.732,15.489,41.426,3.774,-9.948,-3.424,-0.259,7.469,54.403,3.227,1.588,-13.949,-16.309,1.675,25.072,-30.924,-58.801
0.46456439999974464,-2.302,-28.882,-57.935,-26.825,-84.946,14.711,-19.047,-19.86,-4.797,-3.13,-9.184,-13.112,-16.28,11.887,35.749,2.745,-12.499,-5.983,0.253,3.363,53.324,-0.875,3.636,-18.545,-16.805,4.235,22.998,-34.991,-63.865
0.4795168000000558,-13.57,-33.977,-49.68,-23.725,-93.57,7.012,-14.417,-25.475,-11.452,-10.812,-15.835,-17.197,-20.874,7.265,30.078,-3.918,-17.098,-10.075,-7.432,-0.226,46.611,-8.559,-4.565,-26.724,-26.523,-2.429,15.29,-46.739,-63.801
0.47958169999992606,-16.118,-38.041,-35.285,-16.529,-97.575,8.542,-18.501,-17.765,-1.195,-8.752,-14.282,-18.717,-17.267,10.844,28.511,-1.864,-12.982,-10.577,-8.449,-0.226,44.002,-5.989,-6.609,-26.697,-30.594,-7.038,22.96,-50.279,-59.639
0.4945686000000933,-12.004,-39.028,-34.226,-24.709,-102.6,12.632,-21.044,-13.649,2.905,-5.157,-10.682,-13.575,-13.664,16.468,29.507,2.236,-9.383,-6.468,-1.781,2.336,46.52,-2.909,-0.967,-25.133,-24.416,-3.445,31.646,-45.618,-59.067
0.4946345999996993,-16.602,-40.526,-46.487,-33.394,-114.793,9.545,-14.875,-21.832,-7.344,-8.226,-13.233,-14.586,-17.236,9.279,33.064,-3.402,-16.034,-9.023,-5.365,2.334,43.912,-6.492,1.595,-23.059,-24.392,-4.466,27.003,-45.06,-59.008
0.5096184999997604,-19.147,-38.436,-49.002,-27.213,-115.703,10.048,-14.348,-23.86,-8.362,-8.73,-14.756,-20.207,-16.707,6.196,33.031,-4.935,-16.018,-15.674,-8.433,-1.767,41.819,-6.998,3.643,-20.474,-27.954,-5.486,25.952,-41.429,-58.437
0.5096874999999272,-14.005,-34.299,-53.051,-23.599,-100.73,13.112,-24.068,-20.25,-2.718,-8.721,-14.229,-20.699,-13.616,10.801,25.825,-0.832,-12.928,-16.683,-7.4,-4.327,44.851,-6.479,0.053,-24.04,-30.999,-2.407,30.537,-41.387,-68.112
0.5249966999999742,-13.479,-34.265,-66.83,-25.113,-90.896,12.586,-29.679,-22.791,-7.838,-10.761,-13.703,-20.166,-18.726,4.13,22.726,-4.929,-21.624,-21.79,-13.541,-3.298,45.831,-11.083,-8.656,-28.627,-36.604,-2.404,26.408,-50.567,-81.364
0.525055600000087,-14.49,-35.255,-67.276,-20.477,-91.829,12.574,-22.989,-24.305,-9.88,-8.701,-12.665,-22.195,-21.269,-4.583,25.265,-9.023,-27.238,-30.477,-16.601,-6.881,44.76,-14.146,-8.648,-28.086,-40.153,-3.426,23.307,-48.98,-80.258
0.5397563000001355,-6.279,-27.023,-55.426,-11.747,-80.467,14.098,-13.232,-19.158,-2.697,-4.082,-10.09,-17.05,-16.636,4.643,23.702,1.745,-13.378,-21.737,-6.338,-6.362,49.838,-1.836,-0.442,-20.373,-30.892,3.749,37.629,-36.123,-69.419
0.5398362000000816,7.56,-13.163,-46.661,-1.489,-56.308,13.572,-9.633,-10.429,1.916,1.558,-0.346,-2.176,-8.423,18.47,27.777,19.674,1.492,-4.81,6.476,7.477,62.084,15.072,7.755,-5.496,-17.541,15.529,54.497,-25.329,-61.153
0.554694500000096,11.651,-9.564,-46.102,4.66,-47.542,17.657,-9.623,-4.271,2.939,3.605,6.826,2.95,-2.779,18.964,38.508,22.728,1.491,-6.342,9.031,13.105,69.194,14.544,10.821,-2.417,-21.109,18.587,49.832,-23.254,-61.604
0.5547621999999137,-2.193,-21.338,-57.327,-8.665,-63.889,19.176,-15.249,-9.39,-0.65,-3.571,-3.427,-8.836,-8.412,13.31,35.395,10.922,-4.659,-17.606,-0.2,2.333,62.465,1.722,0.052,-19.833,-36.97,9.347,40.561,-37.063,-73.838
0.5697043999998641,-13.974,-32.587,-68.54,-22.488,-82.268,9.423,-22.918,-16.553,-3.723,-10.227,-15.719,-15.488,-13.526,14.321,25.626,5.788,-0.556,-17.588,-7.884,-0.231,54.206,-1.353,-10.194,-28.01,-43.593,-1.421,44.619,-51.883,-84.523
0.5697683999997025,-12.935,-35.116,-66.935,-20.416,-87.821,8.901,-17.772,-10.901,0.891,-5.606,-13.654,-11.886,-7.877,19.942,26.625,8.344,6.105,-11.935,-5.315,3.356,55.688,-0.327,-6.598,-22.346,-39.451,-2.956,47.135,-47.22,-83.413
0.5847423999998682,-14.972,-37.13,-65.843,-18.859,-90.295,16.577,-1.361,-3.206,1.915,-2.014,-11.079,-14.948,-8.382,16.849,25.574,0.651,0.464,-15.51,-8.895,-3.308,54.608,-8.012,-7.616,-26.935,-39.924,-1.929,42.99,-43.075,-81.793
0.5848031000000447,-18.543,-35.556,-64.753,-19.353,-91.741,13.486,6.325,-4.227,-1.161,-3.549,-12.604,-18.519,-14.521,11.196,18.376,-7.035,-6.197,-22.666,-18.108,-5.866,47.893,-13.127,-16.83,-35.105,-44.494,-5.001,48.07,-46.105,-81.711
0.5999624999999469,-11.864,-29.373,-55.979,-12.161,-87.551,13.473,4.27,-2.686,6.525,1.065,-8.493,-11.841,-8.359,15.284,23.993,-0.368,3.031,-17.521,-9.381,1.825,50.407,-8.503,-12.202,-29.434,-41.888,-4.483,55.706,-36.326,-73.433
0.600056400000085,-6.217,-27.294,-54.386,-13.686,-84.39,24.73,2.728,1.928,13.178,5.162,-3.874,-9.267,-1.178,19.879,32.678,5.268,9.175,-10.331,2.924,4.384,58.554,-2.859,0.618,-21.72,-33.65,0.132,53.089,-26.043,-65.675
0.6147708999997121,-5.698,-24.193,-61.504,-18.795,-81.231,24.193,-4.959,-1.148,4.968,-0.99,-5.919,-13.356,-6.813,14.224,26.498,0.652,-1.592,-16.981,-1.69,2.843,59.007,-2.344,1.642,-20.674,-31.567,1.669,49.962,-29.091,-69.195
0.6297531999998682,-4.668,-20.07,-61.954,-14.166,-74.49,14.947,-19.811,-8.319,0.865,-7.137,-11.549,-17.441,-10.904,10.111,18.275,-2.935,-6.714,-22.599,-4.762,1.303,54.85,-7.977,-6.557,-25.264,-37.683,-1.919,49.912,-28.037,-75.786
0.6298134999997274,-7.737,-23.637,-63.942,-18.762,-74.928,11.346,-23.89,-15.483,2.913,-8.667,-14.611,-20.498,-10.381,14.199,21.33,-4.469,-2.096,-17.966,-1.171,-1.26,51.721,-13.092,-9.624,-31.386,-44.305,-6.528,44.739,-28.009,-78.784
0.6451658000000862,-6.193,-24.638,-64.39,-25.403,-76.39,8.773,-9.009,-15.98,1.373,-9.171,-11.01,-17.916,-9.858,18.284,25.92,-2.415,-0.557,-17.435,-1.682,1.816,54.231,-6.419,-0.905,-26.744,-40.162,-6.009,42.645,-31.567,-74.094
0.6452300000000832,6.621,-13.342,-53.055,-8.472,-65.043,11.838,4.32,-2.644,8.544,-3.526,-3.827,-9.701,-3.188,16.216,26.406,5.784,0.98,-17.418,2.93,7.961,62.374,5.371,10.367,-12.885,-23.216,1.681,50.8,-19.753,-61.725
0.6598055999997996,13.275,-3.595,-43.78,11.517,-56.269,23.097,-0.295,11.703,21.856,3.138,-1.262,-7.13,5.012,14.663,28.941,9.877,5.078,-12.277,13.686,8.978,65.385,9.464,13.43,-5.188,-13.459,8.852,58.946,-5.388,-50.905
0.6598693000000821,15.823,2.556,-39.126,14.579,-56.725,26.148,-2.856,11.179,23.883,4.159,3.35,-3.536,5.519,18.235,37.621,11.404,7.634,-11.753,15.721,12.043,63.783,11.504,15.978,-2.109,-19.081,12.942,64.01,-2.821,-47.268
0.6748057999998309,23.492,7.677,-37.037,13.028,-53.082,25.61,8.418,6.557,22.322,8.766,10.007,4.152,7.05,20.266,44.756,17.54,10.188,-12.766,14.681,18.179,67.818,17.64,21.598,0.967,-19.062,19.076,68.044,2.817,-51.319
0.6766548000000512,23.98,3.058,-44.685,5.842,-52.516,30.195,8.409,9.624,23.325,13.88,11.022,4.66,9.093,19.733,46.76,19.06,10.178,-10.704,16.716,18.673,70.311,19.671,21.576,-0.571,-12.383,23.156,69.001,4.863,-61.001
0.6898357000000033,21.907,-3.605,-51.3,-1.336,-57.587,30.677,-3.895,12.689,23.301,10.28,10.498,4.143,9.596,24.324,48.251,20.065,9.655,-9.156,17.211,19.166,65.63,20.164,21.554,-3.132,-10.834,19.034,65.858,-3.851,-64.014
0.6898971000000529,22.91,-3.601,-50.737,-0.31,-52.919,26.036,1.232,10.114,25.327,9.245,11.512,8.237,10.611,27.374,46.153,25.168,17.33,-5.561,17.706,21.709,60.954,21.168,24.607,-3.128,-11.847,14.404,60.157,-5.896,-60.364
0.704929699999866,12.641,-9.233,-58.883,-5.433,-48.767,21.911,11.477,3.444,24.277,10.26,4.329,1.569,5.989,23.248,36.373,18.996,20.387,-4.018,16.664,15.027,54.745,13.463,18.434,-6.711,-14.397,14.902,52.924,-9.989,-67.476
0.7049895999998625,4.944,-14.859,-66.509,-13.624,-53.842,18.303,1.732,-2.195,16.568,3.59,-4.897,-9.703,-0.677,23.224,31.214,8.218,13.194,-8.625,10.5,6.303,44.444,5.252,10.219,-12.34,-19.506,12.326,51.335,-18.688,-73.044
0.7198656000000483,13.648,-6.135,-54.659,-5.414,-47.128,16.235,-5.442,2.931,16.039,3.074,-3.356,-8.669,1.373,26.275,34.769,9.234,15.743,-7.079,9.465,7.321,41.838,8.833,11.233,-10.791,-17.437,8.727,56.406,-14.059,-60.163
0.7199249999998756,15.683,-0.493,-43.846,5.862,-32.736,17.244,6.346,12.662,20.122,8.194,1.771,-4.05,3.934,23.175,35.246,12.811,24.948,2.149,15.09,10.9,44.358,12.923,15.833,-5.145,-16.395,12.305,57.887,-4.311,-49.345
0.7348972999998296,9.52,-5.616,-45.339,6.881,-31.679,15.69,14.537,10.6,16.003,3.063,2.281,-6.095,0.856,21.615,34.186,12.286,21.337,1.635,13.026,11.914,40.727,11.373,19.916,-1.041,-26.112,14.342,58.341,-4.819,-50.32
0.7366428000000269,12.584,-9.196,-46.831,5.85,-36.77,13.112,4.276,1.368,11.889,-1.551,-0.282,-7.626,-0.682,21.593,32.615,10.737,16.193,-8.613,6.865,8.828,33.514,11.874,15.285,-3.089,-33.259,10.741,62.381,-7.888,-53.343
0.7499738000001344,13.084,-10.724,-48.321,-1.841,-38.27,13.099,-11.61,-0.171,16.488,2.037,-2.331,-9.667,-3.755,15.424,26.435,3.554,15.152,-14.752,5.834,4.721,28.87,10.325,4.511,-9.234,-25.541,9.193,60.782,-9.929,-57.388
0.750039900000047,11.534,-11.226,-49.809,-7.474,-42.843,15.648,-15.184,4.44,19.545,2.035,1.257,-10.17,-4.264,15.921,29.482,2.526,12.063,-14.225,6.853,7.79,27.817,9.29,5.019,-9.737,-16.806,10.209,60.721,-6.333,-57.843
0.7649996999998621,17.67,-10.19,-49.759,-2.856,-59.194,21.267,-6.46,3.924,13.89,1.52,6.379,-7.598,-1.186,18.466,43.285,8.671,11.026,-14.723,3.772,11.368,25.74,9.281,7.063,-9.727,-21.912,11.223,68.345,-3.765,-54.712
0.7650622999999541,17.14,-13.254,-54.833,-5.415,-71.942,21.759,-1.33,0.333,5.167,2.544,0.737,-12.201,-5.283,10.763,41.705,2.002,10.503,-19.832,1.207,8.283,20.078,5.685,-4.215,-19.451,-31.112,12.237,64.691,-11.446,-59.78
0.7810570999999982,16.099,-6.068,-48.118,-4.385,-51.89,20.712,5.331,5.456,13.359,5.103,2.786,-10.14,-4.253,13.826,36.54,3.537,12.542,-13.664,9.915,13.91,23.132,11.827,3.474,-12.772,-17.761,18.372,61.04,-5.799,-55.11
0.7811180999997305,29.915,10.332,-26.553,15.087,-25.198,29.401,15.06,16.722,27.69,15.344,19.177,8.313,10.096,30.206,49.311,24.538,25.849,1.207,23.225,24.655,30.794,27.697,27.037,10.807,2.237,26.038,75.323,14.187,-34.05
0.7950007999997979,28.86,5.198,-27.039,18.658,-35.932,29.371,6.848,15.168,19.978,16.353,16.596,8.817,8.549,24.541,48.75,24.002,25.311,-4.43,16.029,16.433,22.054,23.059,19.837,6.185,-6.474,20.377,77.81,9.049,-33.503
0.8100031999997555,16.536,-7.102,-37.77,6.857,-66.122,23.194,0.693,9.005,8.687,6.603,3.259,-4.512,-2.218,11.196,35.893,8.096,8.892,-18.258,4.23,8.22,11.785,9.716,2.399,-10.215,-17.226,10.623,69.023,-1.718,-44.228
0.8100651999998263,32.913,6.225,-23.388,16.584,-96.282,46.225,16.574,16.681,24.56,18.379,18.625,8.301,11.616,25.017,55.325,21.408,19.642,-2.358,17.546,26.654,24.581,22.514,18.278,6.19,-1.328,19.321,91.495,13.141,-26.253
0.8101050999998733,49.787,13.391,-12.606,22.715,-128.461,69.745,17.582,16.152,35.294,31.681,32.439,22.637,19.802,38.825,81.397,36.243,39.09,12.501,27.775,40.46,34.803,31.2,31.068,15.917,5.846,28.011,116.507,15.689,-12.907
0.8250324000000546,29.757,-7.115,-26.426,2.712,-138.066,48.158,2.708,-1.283,20.401,13.718,14.476,8.27,1.851,27.515,62.873,20.326,24.706,-5.442,12.89,25.563,18.374,12.214,11.057,-4.591,-11.578,13.639,96.922,-6.356,-32.362
0.83997939999972,13.333,-14.792,-27.424,2.197,-105.141,26.081,9.365,-0.257,15.77,7.045,4.728,0.065,-1.225,18.778,39.756,9.035,12.898,-15.683,5.192,12.729,1.962,5.029,-1.25,-13.808,-23.862,1.33,73.772,-11.473,-41.039
0.8400382999998328,27.664,-0.433,-3.83,25.249,-75.322,40.399,22.676,21.26,30.099,29.579,20.092,11.335,12.609,27.469,52.524,19.272,27.742,-1.835,14.409,21.426,6.571,15.27,7.461,-7.134,-20.764,7.476,84.969,0.322,-24.604
0.8550191999997878,37.883,9.814,17.691,35.982,-78.32,51.117,20.091,29.948,37.754,35.185,27.757,16.447,14.133,32.052,63.742,25.912,30.788,-0.296,16.956,29.601,12.712,15.255,13.601,-3.029,-9.985,16.178,98.716,8.519,-10.235
0.8550741999997626,30.673,11.853,27.407,36.458,-61.336,41.332,17.51,24.283,31.056,20.805,19.532,12.844,10.533,25.36,48.309,20.251,22.048,-7.98,11.304,21.887,3.99,11.654,12.563,2.098,-6.901,17.698,89.396,10.559,-4.077
0.8701123000000734,20.908,7.743,27.892,33.348,-40.27,32.07,18.517,18.623,19.242,12.587,10.291,3.61,5.912,20.212,34.941,11.522,22.538,-5.411,7.194,11.619,-6.772,10.617,8.452,-0.466,-16.628,9.484,72.913,3.889,-4.073
0.8701731000001018,17.301,1.588,37.085,31.778,-41.766,27.427,23.621,13.994,15.124,11.038,7.719,-4.078,-2.291,22.241,36.443,8.949,20.467,-3.869,6.162,10.071,-8.815,6.508,6.906,-6.101,-17.636,-2.821,68.229,4.909,7.202
0.8851251000000957,17.284,3.635,61.127,38.918,-37.626,24.325,30.77,16.541,23.818,14.101,12.834,4.123,2.834,25.805,34.87,15.6,17.885,-5.402,10.767,13.134,-8.294,10.6,16.121,5.688,-4.299,-13.064,75.845,21.298,36.909
0.8851927000000614,10.607,2.607,69.775,39.392,-28.879,19.69,24.592,22.672,28.917,17.673,16.408,11.803,11.028,25.779,22.027,21.219,25.039,-2.835,14.854,11.584,-10.847,16.225,22.253,13.879,-3.782,-31.494,77.306,26.4,47.118
0.9005041000000347,-1.699,-10.203,56.385,29.106,-37.047,9.424,15.858,15.477,21.204,12.02,10.756,6.668,5.382,24.728,14.833,19.149,26.039,-6.418,12.278,3.888,-13.91,8.524,15.058,5.156,-19.66,-52.98,68.007,17.152,28.116
0.9005671999998413,-0.161,-12.242,50.693,27.028,-43.67,10.44,14.305,5.728,18.109,7.909,5.11,5.125,0.766,22.142,21.478,15.031,19.353,-14.608,8.167,2.86,-17.482,6.466,8.383,3.614,-29.374,-41.144,71.013,16.11,25.014
0.9151195999997981,17.77,3.139,50.643,24.439,-41.577,25.798,6.606,7.772,21.677,12.0,7.154,5.632,0.765,21.095,33.24,10.918,20.87,-11.52,8.671,13.103,-14.391,17.218,13.498,7.709,-17.049,-8.315,88.873,17.631,33.698
0.9151745999997729,30.048,16.968,40.858,17.755,-39.487,33.97,4.038,6.739,18.581,14.037,13.807,2.04,1.276,26.197,44.989,11.932,26.485,-2.287,12.761,21.287,-5.155,22.324,17.583,4.627,1.923,24.481,98.518,20.687,28.029
0.9302631000000474,27.968,16.439,37.743,25.934,-38.935,33.936,11.718,2.634,15.489,12.998,15.842,5.624,5.886,23.61,50.58,15.506,24.409,-4.334,12.748,20.241,-6.174,20.253,12.954,4.623,-4.739,10.112,94.321,25.278,26.464
0.9303212999998323,21.793,10.787,44.366,36.154,-41.97,33.389,5.559,11.853,20.084,14.522,13.777,7.668,5.88,13.34,44.382,11.904,18.237,-13.551,9.149,18.171,-11.804,17.671,8.843,7.18,-21.64,-20.124,90.641,22.691,32.585
0.9451914000001125,22.283,9.239,39.198,33.044,-48.588,31.819,-2.643,16.964,22.113,15.02,14.788,4.074,1.776,15.376,42.8,10.355,20.268,-9.439,10.165,18.153,-6.669,17.653,14.469,7.173,-12.397,-16.006,94.136,22.156,28.454
0.9452539999997498,28.921,10.255,25.327,28.4,-55.199,35.373,8.118,9.263,20.554,16.542,18.872,8.168,6.385,24.582,53.516,16.493,28.445,1.329,15.278,21.721,-3.588,20.709,18.553,8.19,-3.675,5.527,96.603,24.695,20.229
0.9601763999999093,34.015,11.269,16.592,24.273,-62.829,44.047,15.282,9.253,24.12,19.087,19.365,9.697,10.989,24.557,58.585,14.427,27.904,-0.722,14.238,26.31,-7.171,20.176,13.924,8.182,-15.967,7.571,92.921,12.887,12.524
0.9602316999998948,33.469,14.844,18.112,26.811,-60.204,47.589,15.779,17.953,29.219,23.166,18.833,7.638,9.954,23.508,56.478,9.802,21.728,-5.844,13.199,26.796,-3.065,17.082,16.984,9.198,-14.926,4.49,91.291,9.801,4.827
0.9752393999997366,31.386,17.391,20.144,38.055,-49.898,47.029,15.251,17.935,25.604,25.705,20.864,12.241,10.968,22.972,54.884,12.866,21.706,-2.764,15.747,25.745,-3.062,19.115,25.676,13.288,-6.715,2.436,90.687,19.525,5.334
0.975296900000103,23.67,5.59,8.34,29.82,-60.606,40.835,4.477,11.257,16.356,21.58,17.769,8.643,7.883,17.314,49.194,10.291,19.123,-8.397,12.145,22.133,-13.305,17.559,18.99,8.663,-19.003,-11.399,82.4,8.747,-1.844
0.9903123999997661,17.499,-3.637,-2.426,14.421,-75.915,34.134,0.886,9.197,14.803,19.51,15.702,1.974,4.289,19.858,47.096,3.621,17.055,-14.024,8.035,18.525,-13.292,13.443,11.799,4.556,-21.033,-17.535,79.243,-4.07,-11.576
0.9903810000000703,26.703,7.638,11.408,22.091,-61.494,42.809,13.693,14.311,24.01,26.15,20.809,9.657,12.994,31.109,56.782,9.765,28.821,-0.178,15.199,25.166,-5.082,20.089,23.57,19.921,1.529,1.438,92.997,12.84,4.83
1.005321499999809,34.873,19.925,19.081,26.679,-47.088,50.963,8.044,16.346,24.498,27.149,21.813,14.258,15.543,33.64,60.824,14.366,35.452,9.044,20.819,30.776,-5.589,25.704,31.232,30.147,9.212,13.732,103.15,23.074,15.583
1.0053855000001022,27.666,14.27,3.181,15.382,-54.214,40.666,-5.796,9.157,12.178,20.461,16.156,6.559,5.793,28.995,51.542,7.692,26.707,0.326,14.138,24.086,-8.657,20.556,24.028,20.896,-0.019,6.546,95.874,13.317,-3.387
1.0207209000000148,26.101,10.157,-1.433,15.879,-50.061,32.428,5.993,5.049,9.605,19.416,19.214,9.627,7.325,23.843,48.416,9.221,27.193,-0.699,12.075,24.062,-7.624,18.486,25.029,19.338,-1.043,3.465,91.68,16.89,-5.946
1.0352606999999807,33.248,13.733,4.204,20.986,-33.105,33.933,12.134,9.655,18.304,21.446,26.367,16.789,16.026,21.77,54.003,18.946,33.826,5.961,19.235,33.259,-7.104,23.078,32.176,28.54,-1.554,6.536,96.711,25.582,9.43
1.03531699999985,29.116,10.646,-2.973,15.842,-34.096,31.337,-3.759,6.572,18.286,20.912,23.779,14.211,13.961,24.31,54.462,17.902,27.132,0.32,20.241,29.64,-6.072,22.03,29.07,25.95,-6.164,4.48,95.59,18.896,4.809
1.0493447999997443,18.841,1.413,-10.654,9.166,-51.481,31.818,-11.44,-3.681,12.632,18.33,17.095,8.049,6.263,21.724,50.821,8.15,18.396,-10.951,13.048,20.388,-11.189,15.348,22.381,15.165,-5.133,-0.135,85.248,6.582,-5.442
1.0510451000000103,10.625,-8.834,-20.378,-2.114,-75.508,33.323,-15.015,-9.825,10.058,10.627,7.344,-3.23,-0.916,12.481,46.672,-5.178,11.717,-19.137,3.301,16.782,-23.986,5.599,12.112,4.392,-10.763,-5.258,74.404,-5.72,-15.682
1.0643992000000253,4.466,-18.047,-35.726,-12.87,-95.412,26.63,-26.271,-13.401,6.974,4.469,-3.422,-12.448,-6.55,9.394,41.502,-20.03,3.509,-25.778,-3.362,10.617,-29.085,-3.116,-2.245,-2.273,-28.683,-11.913,70.232,-14.936,-32.061
1.064460600000075,8.56,-15.467,-30.055,-5.173,-94.804,30.702,-19.584,-10.314,6.455,9.587,0.168,-6.288,-3.47,15.533,40.436,-20.01,5.042,-26.264,1.252,11.119,-23.42,2.523,-2.242,1.828,-33.778,-13.438,74.772,-11.847,-28.955
1.0794276999999965,15.724,-7.255,-16.193,3.542,-87.537,42.967,-3.171,-3.132,10.547,14.189,10.414,-1.671,0.632,16.029,48.08,-9.743,8.623,-20.603,7.399,20.842,-17.762,11.742,8.006,5.413,-24.522,-8.814,80.845,-5.687,-18.167
1.0794867999998132,19.295,-5.198,-16.177,6.1,-91.036,39.85,-8.291,-3.128,14.635,13.15,11.94,-3.206,0.631,10.89,54.692,-8.197,2.979,-21.094,6.367,23.383,-11.084,10.193,7.486,6.432,-29.108,-3.17,84.863,-5.682,-22.76
1.094449799999893,31.058,6.078,-5.402,25.049,-80.186,40.835,-12.893,7.633,22.817,22.87,20.125,8.58,8.315,12.416,57.711,0.008,9.636,-17.487,14.557,25.921,-2.876,16.331,11.577,19.745,-29.592,4.006,97.586,4.57,-12.491
1.094510999999784,43.323,23.49,14.071,43.467,-54.491,55.138,1.977,23.507,26.38,33.606,32.401,18.305,13.942,19.576,61.239,14.353,20.897,-7.736,22.739,31.53,0.713,29.634,24.885,27.922,-4.459,7.588,108.246,19.423,8.014
1.1094694999997046,33.546,17.319,7.909,32.153,-54.436,47.399,4.024,11.7,12.009,22.814,20.073,3.942,3.682,14.434,60.154,4.092,9.606,-14.9,5.811,22.277,-7.484,17.309,13.59,9.451,1.181,0.408,95.33,11.719,-2.24
1.1111737000001085,15.069,-2.678,-10.542,14.702,-65.653,28.908,-10.837,-4.705,2.776,10.496,2.122,-6.82,-4.518,3.148,47.286,-14.355,-4.236,-32.304,-9.564,8.422,-23.358,-1.663,-6.916,-3.878,-25.973,-12.4,72.694,-5.712,-22.73
1.1245186000001013,10.955,-5.75,-16.167,14.688,-53.804,35.027,-19.023,5.033,15.581,19.707,8.78,-0.153,1.634,7.244,35.455,-7.68,4.477,-29.71,-0.333,12.513,-26.921,4.486,0.263,4.835,-32.094,-15.462,62.375,-7.755,-22.195
1.1245841999998447,8.383,-6.769,-19.737,11.087,-44.016,35.504,-21.566,7.59,17.102,22.249,7.747,-2.714,4.194,16.97,33.371,-5.623,11.133,-19.947,2.228,16.086,-22.796,9.092,6.41,4.83,-19.255,-12.372,56.677,-8.26,-21.661
1.1395695999999589,-0.847,-18.545,-25.865,-0.195,-55.243,16.513,-16.421,-3.176,-2.383,6.345,-8.143,-12.446,-4.007,12.343,33.85,-21.499,4.462,-23.513,-6.483,7.361,-30.458,-1.675,-6.404,-0.81,-24.871,-15.434,47.911,-19.522,-33.934
1.1396332999997867,1.715,-12.891,-24.302,3.904,-56.212,19.571,-6.159,7.073,-2.893,8.388,0.062,-5.261,-2.466,12.842,36.377,-15.33,9.068,-18.878,0.696,12.477,-30.94,2.937,-2.299,7.388,-24.846,-15.931,48.375,-16.429,-34.925
1.1548953999999867,11.96,1.467,-15.568,14.658,-44.885,39.531,-13.325,14.751,13.504,23.236,14.407,4.991,8.294,24.1,43.513,0.567,17.768,-8.613,7.867,20.661,-17.589,12.156,12.56,13.528,-10.989,-7.205,52.938,-2.58,-20.033
1.1549540000000889,5.288,-10.318,-16.577,0.299,-56.624,29.245,-26.631,-12.416,4.781,11.942,-2.514,-7.822,1.626,16.392,41.933,-13.778,7.504,-18.339,-5.973,6.296,-24.743,-0.152,1.277,3.781,-15.588,-11.297,45.2,-10.774,-14.89
1.169536099999732,-10.087,-26.701,-35.004,-19.681,-77.059,7.699,-17.383,-32.896,-14.691,-11.636,-20.442,-25.233,-14.769,-3.092,28.059,-31.183,-6.848,-33.69,-15.188,-4.469,-40.6,-11.422,-11.532,-3.395,-26.844,-25.63,32.86,-27.158,-29.22
1.1713552000001073,-7.515,-17.453,-50.338,-9.416,-60.588,12.302,-13.78,-19.031,-10.066,-8.038,-12.737,-20.084,-12.705,-0.015,20.346,-22.955,-4.28,-30.07,-8.001,6.294,-33.899,-2.702,-4.348,3.78,-20.157,-20.994,30.778,-19.446,-37.9
1.1859509999999318,1.202,-8.214,-48.238,3.402,-27.74,18.95,-31.697,-12.352,0.191,4.265,-5.552,-11.867,-4.496,8.694,22.887,-15.76,0.848,-24.917,-6.456,8.337,-29.255,1.399,-2.807,10.949,-14.501,-9.189,28.698,-7.643,-30.69
1.1996679999997468,-0.849,-11.792,-44.092,-6.848,-15.417,10.222,-31.665,-24.123,-4.42,-2.911,-11.182,-18.516,-11.151,2.025,21.84,-19.33,0.335,-26.429,-11.06,0.644,-36.398,-1.164,-7.415,10.426,-18.585,-12.254,25.595,-10.197,-26.561
1.1997357000000193,-1.36,-10.243,-50.708,-9.403,-15.914,14.31,-15.752,-20.512,-5.441,-6.494,-11.683,-19.522,-14.726,3.048,22.842,-15.725,4.433,-21.791,-5.926,3.717,-32.775,5.498,-0.747,12.977,-16.517,-11.217,28.643,-8.65,-33.194
1.2146225000001323,3.764,-5.622,-55.268,0.853,-11.287,26.079,-16.761,-8.709,1.225,6.832,-4.499,-9.768,-6.515,13.803,30.504,-11.098,10.576,-15.622,-1.309,7.812,-27.107,11.64,3.864,18.087,-9.841,-0.96,33.225,-1.469,-35.722
1.2146804999997585,4.273,-7.666,-52.651,-2.222,-12.3,21.954,-19.305,-10.237,2.761,11.948,0.629,-6.172,-3.434,14.302,32.011,-12.112,12.615,-13.045,-1.308,6.267,-28.617,10.091,2.323,17.044,-9.319,-3.52,36.778,-5.054,-34.662
1.2296582999997554,1.195,-10.22,-55.16,-7.343,-20.485,22.445,-14.163,-8.178,0.709,9.375,3.19,-4.117,-2.406,14.8,33.515,-7.489,16.7,-9.958,2.792,9.847,-25.002,11.106,4.883,14.978,-13.92,-7.103,42.889,-11.196,-41.287
1.2297252999997,-0.343,-12.771,-62.789,-2.212,-24.563,30.619,-20.809,-4.071,-3.903,12.952,1.65,-2.064,-0.867,18.883,39.117,-2.358,14.635,-11.485,1.764,10.862,-26.514,11.607,1.291,12.401,-20.566,-6.584,42.846,-16.821,-52.517
1.2447486999999455,-0.855,-13.783,-61.19,-1.698,-20.44,21.879,-25.911,-11.751,-6.461,9.865,-4.5,-7.185,-4.452,13.741,31.906,-7.991,5.398,-16.084,-7.971,4.703,-33.66,4.935,-8.444,4.192,-23.62,-14.262,33.582,-23.464,-55.026
1.244816599999922,-1.367,-11.208,-54.468,-2.721,-14.784,12.636,-14.614,-11.74,0.206,1.658,-5.008,-9.739,-5.985,11.678,22.14,-12.594,7.442,-15.556,-7.451,2.649,-33.626,2.369,-5.874,3.676,-22.571,-19.371,31.499,-21.391,-46.774
1.259800599999835,-7.513,-15.295,-58.512,-4.767,-21.942,16.209,-20.235,-6.093,0.718,1.144,-6.027,-9.729,-3.929,16.277,28.778,-13.606,12.045,-14.003,-4.882,3.671,-37.179,1.854,-3.819,5.721,-24.086,-14.228,31.468,-18.808,-47.239
1.2598761999997805,-18.776,-26.55,-72.798,-20.644,-42.412,11.07,-38.658,-17.87,-9.017,-1.419,-16.267,-19.966,-11.098,10.626,30.799,-21.277,4.861,-16.038,-15.123,-0.943,-45.851,-6.345,-15.598,-6.068,-27.135,-20.362,19.653,-32.622,-66.66
1.275781299999835,-22.856,-31.647,-80.923,-32.406,-50.567,2.862,-31.959,-27.073,-10.544,-9.102,-20.862,-26.093,-15.697,5.492,19.497,-26.891,1.27,-18.584,-19.207,-5.553,-47.342,-12.998,-22.242,-14.259,-27.108,-32.124,8.875,-46.421,-79.913
1.275837700000011,-19.759,-32.128,-80.329,-29.3,-42.831,4.908,-16.558,-23.46,-7.972,-8.068,-16.23,-18.895,-11.583,11.122,15.379,-20.717,5.88,-18.565,-11.503,-5.547,-47.295,-9.399,-18.122,-9.121,-27.593,-30.555,7.842,-46.375,-74.71
1.2897383999998056,-17.69,-35.682,-80.249,-30.295,-34.592,3.367,-20.64,-25.998,-12.063,-2.425,-16.214,-16.315,-11.059,11.111,17.413,-16.085,6.386,-13.424,-9.442,-1.956,-47.247,-3.242,-15.542,-5.526,-25.004,-25.402,4.76,-44.279,-75.148
1.2897945999998228,-12.55,-31.035,-78.12,-30.265,-26.36,4.9,-19.595,-22.898,-7.44,-0.373,-12.099,-12.2,-8.999,10.075,20.982,-11.971,7.917,-9.312,-7.383,4.194,-41.052,1.884,-8.354,0.115,-15.245,-20.765,7.829,-39.112,-75.585
1.3048169999997299,-2.291,-18.709,-66.771,-16.915,-24.797,19.24,-11.891,-8.531,-0.773,5.775,0.721,-2.454,-0.793,17.237,30.182,-1.712,14.056,-8.79,2.358,10.85,-35.888,9.055,1.388,11.898,-6.009,-12.035,22.678,-26.777,-62.189
1.304877900000065,2.834,-16.641,-60.556,-7.676,-42.191,30.491,-26.223,-5.448,-1.284,12.429,4.818,-0.402,0.232,19.269,38.861,2.388,14.555,-6.22,4.405,12.376,-30.217,13.144,0.874,12.911,-3.953,-8.95,32.389,-25.214,-57.004
1.3198373999998694,2.319,-22.26,-69.205,-15.353,-63.665,30.973,-36.956,-12.615,1.279,8.318,-1.334,-5.525,-2.329,12.078,44.458,-2.225,9.929,-8.263,-0.723,9.802,-27.113,10.057,-4.249,6.238,-8.048,-12.014,32.869,-32.873,-67.706
1.3199021000000357,3.854,-21.213,-70.16,-20.461,-74.36,27.868,-18.476,-18.238,-2.821,1.65,-1.333,-8.593,-0.79,8.992,46.462,-2.736,7.358,-14.915,0.303,11.841,-31.184,7.486,-3.733,6.744,-10.601,-10.466,33.861,-29.254,-65.076
1.3348565999999664,9.998,-11.97,-54.721,-9.682,-72.236,27.841,-6.674,-18.732,-12.552,5.235,3.792,-7.048,-3.351,12.569,45.904,2.39,8.375,-12.338,5.425,15.928,-27.567,13.114,1.394,12.372,-3.419,-4.307,36.901,-15.393,-49.642
1.3498442000000068,16.648,-2.736,-46.469,-0.963,-59.869,35.497,-15.889,-10.004,-4.855,13.426,9.423,2.181,-2.835,16.655,50.469,9.048,11.441,-4.641,7.469,19.498,-17.293,19.76,7.54,20.557,7.343,0.82,36.352,-5.643,-43.957
1.3499002999997174,14.582,-0.685,-50.521,-6.085,-53.661,32.9,-17.922,-5.896,3.347,13.413,7.364,5.253,2.803,16.126,49.906,10.576,10.404,-5.149,7.462,18.454,-24.448,18.204,8.045,23.098,7.336,-0.718,26.581,-6.15,-45.962
1.3499422999998387,3.809,-5.295,-53.032,-11.202,-55.657,19.547,-14.318,-15.111,-4.853,8.789,-1.864,-5.511,-1.811,11.499,36.024,1.344,5.271,-11.291,3.356,12.288,-37.744,12.55,0.865,11.804,-0.356,-8.402,15.284,-13.828,-50.015
1.364864099999977,-3.367,-10.412,-61.176,-12.728,-49.966,21.065,-17.378,-17.658,-7.41,6.218,-4.424,-10.116,-6.932,10.975,27.791,-4.293,3.217,-13.842,-1.771,6.128,-38.218,10.488,-3.747,4.108,-7.016,-10.442,15.269,-21.499,-56.625
1.3799079000000347,-3.364,-16.037,-71.873,-18.351,-42.744,25.142,-17.873,-10.98,-3.304,5.7,-0.834,-8.057,-1.802,9.427,31.349,-0.19,2.701,-12.803,-2.794,6.634,-40.229,9.966,-3.743,6.153,-10.595,-8.383,16.278,-26.089,-64.765
1.3799708999999893,-4.385,-19.607,-70.777,-19.869,-48.336,15.383,-16.318,-9.432,-5.862,6.206,-1.345,-8.561,-1.8,3.27,29.268,-0.19,0.137,-14.84,-3.303,7.14,-44.8,9.443,-7.326,3.585,-9.047,-13.497,13.7,-31.186,-70.848
1.3952799999997296,-2.844,-16.002,-64.558,-13.189,-48.8,19.979,-16.301,-8.91,-0.733,9.786,1.73,-2.917,-3.848,4.804,27.702,2.372,-0.888,-19.436,-2.787,8.669,-39.632,11.995,-6.806,3.069,-0.841,-13.996,22.908,-32.179,-67.703
1.395341599999938,0.233,-12.912,-65.519,-12.152,-37.481,30.717,-12.187,-5.315,5.415,14.9,4.29,2.721,3.841,14.021,32.285,8.517,4.236,-14.805,1.314,12.247,-39.08,12.496,-1.676,12.288,9.406,-6.298,30.57,-28.048,-59.951
1.4099295999999413,-12.063,-23.657,-75.699,-23.923,-43.591,13.268,-14.736,-12.482,-6.886,5.151,-11.596,-12.651,-3.848,10.933,25.593,-5.324,1.67,-13.766,-6.372,3.526,-54.41,2.237,-12.433,7.152,7.859,-15.001,15.17,-35.705,-70.65
1.4099882999998954,-33.055,-40.54,-90.48,-42.342,-65.576,-10.312,-27.529,-29.376,-24.81,-17.908,-33.613,-35.692,-25.873,-5.472,9.174,-29.397,-15.238,-32.195,-25.321,-11.847,-69.725,-13.134,-31.888,-11.81,-4.444,-31.892,-0.727,-54.112,-90.047
1.4249046999998427,-30.461,-38.962,-88.341,-40.763,-64.486,-5.69,-29.038,-30.884,-21.199,-16.353,-31.531,-35.144,-25.847,-6.491,8.14,-27.831,-16.759,-37.798,-24.271,-9.274,-68.118,-10.56,-27.758,-7.7,0.171,-29.298,9.52,-53.034,-83.297
1.4265627999998287,-8.401,-18.943,-67.248,-15.106,-38.806,12.246,-21.325,-9.336,-1.71,8.766,-12.031,-15.641,-6.866,11.958,21.452,-9.36,3.75,-15.219,-7.341,2.518,-55.755,5.332,-8.775,13.312,22.2,-19.023,32.565,-30.439,-61.696
1.440011599999707,-7.88,-15.851,-61.033,-8.431,-28.009,12.234,-22.328,-0.617,-3.245,7.22,-8.946,-12.552,-5.834,15.533,19.893,-7.814,7.844,-10.081,-8.358,-2.095,-55.187,4.302,-8.254,11.25,23.715,-24.639,37.143,-22.724,-59.585
1.4400759999998627,-25.291,-28.13,-66.607,-24.817,-38.74,-1.611,-13.084,-19.06,-24.759,-14.816,-23.794,-27.396,-20.173,3.222,6.041,-19.589,-6.508,-23.903,-18.596,-9.777,-65.89,-6.46,-13.881,-0.032,13.958,-28.201,24.81,-31.923,-66.186
1.455023799999708,-17.581,-17.856,-53.221,-15.058,-41.262,5.051,2.298,-22.627,-17.562,-7.117,-20.696,-25.32,-16.054,7.317,11.67,-16.495,-0.354,-16.195,-7.819,-0.034,-59.676,1.231,-5.158,8.677,23.165,-17.926,32.47,-22.669,-53.824
1.4550878000000012,1.392,0.605,-40.36,3.912,-36.61,30.661,-10.512,-3.136,8.071,15.432,-4.281,-10.437,-3.231,18.068,30.102,-3.159,10.917,-3.371,1.923,6.114,-49.883,9.426,-3.616,13.279,28.777,-14.322,53.955,-7.277,-40.45
1.4699925999998413,-12.442,-13.74,-55.689,-11.461,-47.332,27.557,-24.334,-4.158,-4.232,6.195,-10.937,-19.648,-8.863,4.73,24.436,-12.89,-3.951,-15.663,-9.862,-4.138,-64.69,-5.952,-23.08,-5.177,14.404,-26.603,41.605,-18.029,-48.607
1.4700530000000072,-30.36,-28.583,-64.854,-27.331,-54.969,0.377,-5.354,-21.572,-29.843,-15.328,-25.271,-33.461,-18.588,-7.058,6.993,-30.807,-14.705,-24.869,-18.561,-9.257,-74.871,-17.729,-29.204,-12.344,11.316,-34.261,17.485,-27.744,-55.731
1.4850013000000217,-13.936,-12.673,-46.346,-13.983,-35.447,2.938,1.311,-16.94,-12.395,-7.628,-14.487,-20.62,-9.348,7.294,14.159,-15.407,1.191,-9.987,-7.272,-0.026,-60.452,-4.392,-11.244,3.037,28.211,-25.006,32.325,-14.909,-44.404
1.4868501000000833,1.447,-3.439,-38.103,-5.26,-22.604,23.427,-15.596,-0.529,10.159,9.798,-2.177,-9.328,0.395,18.557,25.415,3.563,8.362,1.294,0.932,7.146,-53.732,6.884,-3.036,10.207,33.305,-16.271,50.735,-7.209,-39.237
1.5001036999997268,-5.726,-12.657,-49.336,-10.89,-41.024,18.793,-9.433,-3.09,-1.634,3.641,-9.86,-17.004,-4.728,12.391,21.804,-7.199,-3.429,-4.343,-3.68,6.626,-59.313,-1.32,-11.23,4.049,25.075,-19.329,40.438,-12.325,-48.931
1.5001680999998825,-2.135,-8.546,-45.188,-5.244,-46.618,11.09,4.409,-7.698,-7.268,-1.998,-12.411,-16.987,-5.236,12.891,25.88,-10.265,0.673,-1.777,-0.602,11.231,-55.155,-3.881,-4.559,8.143,30.173,-14.699,35.787,-8.727,-47.345
1.5150880999999572,15.286,6.319,-30.286,7.569,-28.129,24.911,-1.231,3.068,13.231,15.934,0.409,-5.699,3.991,21.587,36.101,7.163,18.603,12.057,13.231,18.392,-45.879,10.468,12.864,20.943,45.0,-1.364,51.633,4.09,-35.003
1.5151437999998052,20.394,8.875,-29.231,9.611,-25.539,33.595,2.357,9.213,21.927,26.165,7.068,0.454,7.061,21.566,37.089,8.693,19.097,13.582,16.804,19.91,-39.685,21.216,16.438,28.606,49.566,3.76,63.877,10.233,-31.381
1.5304931999999098,20.886,8.353,-31.251,5.502,-37.297,30.488,12.088,6.13,13.709,20.503,7.061,2.503,7.566,21.032,40.126,5.098,14.979,8.446,14.225,21.427,-35.547,22.219,13.347,31.651,51.053,3.244,69.448,9.711,-30.325
1.5305545000001075,29.062,15.005,-24.047,10.62,-33.161,38.142,6.953,16.37,18.306,28.167,15.764,9.161,15.243,28.695,46.746,17.389,24.698,16.122,19.847,28.578,-34.999,22.709,15.895,31.62,55.101,5.803,73.477,11.75,-24.66
1.5451477999999952,29.033,17.039,-23.511,20.856,-25.955,46.301,10.532,28.137,29.046,40.434,20.359,13.25,21.376,31.741,42.601,21.47,26.722,18.667,20.339,30.599,-37.526,18.588,11.269,25.953,48.385,3.235,73.404,13.275,-25.147
1.5468222999998034,22.344,11.899,-29.635,18.785,-32.589,39.594,23.329,20.936,25.431,33.734,12.141,7.089,16.744,25.561,38.972,10.177,15.937,7.378,10.072,24.42,-43.636,10.373,-0.013,18.755,36.042,-1.891,71.281,8.651,-29.733
1.5602241999999933,24.371,8.301,-29.093,11.082,-41.266,32.895,17.671,14.255,18.233,26.016,8.031,-3.164,9.555,17.851,42.519,4.02,10.798,1.735,6.476,20.298,-47.691,7.801,-3.599,13.613,31.395,-3.426,70.698,3.52,-30.216
1.5602850999998736,26.908,12.391,-25.99,13.633,-47.373,37.985,7.407,16.803,14.628,26.502,8.023,-9.309,6.983,12.198,41.964,2.991,8.738,0.709,6.47,17.716,-47.643,3.182,-3.596,11.55,28.802,-4.447,71.651,4.028,-29.673
1.575250099999721,24.319,15.453,-21.866,17.717,-58.596,44.607,17.133,12.175,16.151,24.938,6.478,-8.275,8.513,13.722,42.435,0.426,7.193,-0.829,2.365,17.186,-47.595,-3.481,-6.154,11.538,28.261,-4.443,75.678,7.098,-26.057
1.5901936999998725,26.344,12.876,-18.258,15.138,-67.759,44.562,29.411,13.188,24.332,26.963,10.057,-4.68,10.554,18.32,47.515,0.426,13.845,0.196,2.875,20.242,-48.572,-2.453,-8.197,8.965,31.819,-4.951,77.652,7.603,-19.371
1.590255099999922,24.269,6.203,-25.412,12.561,-69.74,39.395,17.087,24.957,24.82,30.01,10.047,-5.7,10.544,14.715,44.906,-0.087,10.245,-4.415,2.36,16.124,-52.622,-6.036,-12.799,1.272,25.127,-11.606,71.939,1.448,-24.987
1.6052034999997886,16.56,1.074,-35.12,5.377,-71.72,37.818,-8.546,18.785,19.159,22.807,1.84,-10.818,7.971,8.04,39.226,-4.185,-2.573,-13.632,-4.815,10.985,-60.767,-15.764,-18.422,-4.877,14.856,-15.693,62.133,-5.726,-35.721
1.6052701999997225,19.105,0.048,-32.524,-4.363,-79.845,44.441,-4.951,3.909,20.677,22.272,3.375,-6.708,7.964,11.618,44.31,-2.644,4.602,-8.495,-2.761,19.17,-57.632,-11.65,-16.867,-0.774,18.427,-11.579,64.12,-2.646,-33.636
1.6202519999997094,27.282,1.585,-30.442,-4.871,-87.962,51.056,23.231,8.516,20.656,31.984,11.057,-0.042,11.029,18.267,48.876,3.506,19.967,3.809,8.513,27.348,-46.304,-1.905,-8.141,6.911,23.532,-7.468,75.839,3.504,-26.942
1.6203147000001081,27.768,3.12,-33.998,-2.304,-88.386,48.444,31.404,18.241,17.562,31.952,12.07,0.471,11.018,20.81,45.241,7.601,15.848,5.342,15.164,27.321,-46.77,1.683,1.089,11.003,24.533,-5.412,80.886,2.988,-28.452
1.635323900000003,27.74,4.654,-25.254,4.87,-82.15,45.834,20.615,20.785,24.204,28.846,15.132,2.519,12.032,21.302,46.733,12.204,14.808,5.849,19.76,31.392,-45.186,8.342,8.773,16.115,32.193,-1.82,80.293,2.473,-27.399
1.6354010000000017,33.347,7.723,-13.446,16.136,-79.507,50.911,23.668,24.862,26.742,35.477,21.265,6.615,15.606,20.768,56.42,15.266,24.015,8.917,22.301,35.459,-37.968,12.944,11.325,21.222,37.284,1.768,84.824,7.594,-21.736
1.6506200999997418,36.9,11.814,-15.994,15.608,-80.452,54.446,24.669,28.423,18.518,38.003,18.682,4.047,15.078,19.723,58.925,14.226,21.429,6.859,16.644,32.862,-44.078,7.296,6.703,17.615,32.123,2.791,88.837,10.66,-18.641
1.6506836999997176,36.863,18.462,-23.663,8.42,-74.224,52.855,8.763,26.346,18.499,36.428,18.151,4.043,11.989,22.264,54.768,15.749,18.846,4.803,15.602,33.854,-49.157,8.313,7.721,17.085,27.993,2.788,88.236,12.186,-17.597
1.6652086999997664,37.851,19.468,-25.688,8.924,-67.489,49.728,1.581,21.709,21.555,36.904,19.157,8.65,12.49,22.754,55.225,19.832,27.024,6.335,21.222,36.382,-40.911,13.428,15.91,22.703,28.989,4.834,87.636,13.711,-20.654
1.665262900000016,35.764,12.789,-20.027,10.452,-72.545,46.604,10.289,16.052,18.972,35.843,13.503,6.592,11.965,18.121,52.096,16.226,23.923,2.742,16.59,31.222,-43.944,7.779,14.358,20.119,23.837,5.854,88.06,13.697,-24.219
1.6803114999997888,32.142,15.85,-8.224,15.052,-76.059,47.582,15.914,13.474,22.027,35.294,12.977,5.561,11.953,18.103,43.847,9.549,14.678,-0.847,10.938,28.117,-52.097,3.673,7.171,15.488,16.129,3.287,89.509,15.221,-15.998
1.6803718000001027,37.745,29.154,-2.068,24.259,-62.663,53.683,17.435,15.51,26.103,40.895,21.673,12.215,17.064,24.232,48.926,16.2,22.86,6.839,20.661,32.7,-42.311,13.403,16.385,23.669,18.674,7.894,92.493,24.427,-3.174
1.695350899999994,46.929,33.223,-3.091,25.771,-43.645,58.752,15.881,24.716,32.737,48.026,27.799,20.4,23.195,29.844,62.71,29.504,32.571,19.127,29.862,38.815,-32.023,23.124,31.738,35.941,31.975,20.182,98.549,34.649,0.415
1.7103084000000308,45.858,28.067,-5.137,23.184,-41.039,59.206,8.18,37.499,44.487,51.564,31.358,21.404,24.196,29.301,62.135,29.474,29.977,18.084,27.271,37.751,-35.064,24.637,32.219,36.417,32.456,20.674,101.012,29.491,-6.758
1.7103622999998151,36.078,20.354,-14.866,17.525,-55.343,56.585,8.172,37.461,35.221,45.877,26.715,12.673,16.487,21.075,50.29,18.174,22.775,6.795,22.633,32.59,-40.665,21.027,22.965,25.11,11.931,8.358,95.275,13.58,-21.608
1.7243819999998777,27.845,8.039,-28.171,3.163,-64.509,47.819,21.484,24.616,14.181,33.536,13.881,4.976,8.274,16.443,45.628,13.033,18.141,4.739,19.536,32.558,-44.722,15.882,18.331,17.913,2.185,1.689,84.934,6.906,-33.369
1.724439699999948,24.231,0.858,-23.532,4.697,-57.785,43.16,22.999,21.518,18.778,30.428,12.33,7.533,9.802,20.013,43.534,16.606,21.197,6.271,19.517,33.038,-46.215,13.817,17.801,19.944,10.38,1.688,79.726,6.899,-29.75
1.72449239999969,20.62,1.882,-15.824,15.451,-53.116,46.703,7.607,22.008,27.981,33.984,16.929,5.988,10.817,19.993,38.879,15.052,21.688,0.117,19.497,26.857,-47.193,10.73,12.66,17.875,4.734,-0.876,77.085,1.257,-24.597
1.7394839999997203,13.94,-3.243,-24.517,4.165,-54.088,40.509,7.6,11.74,16.17,26.266,6.666,-3.239,2.097,17.412,37.304,4.279,14.494,-5.006,11.793,22.219,-53.806,2.522,6.499,13.246,-10.127,-2.924,71.884,-3.867,-30.72
1.7395504999999503,12.389,-5.289,-21.931,-4.037,-47.373,28.173,19.375,8.142,13.08,19.579,-0.001,-5.285,-0.466,19.443,38.291,-0.849,16.529,-0.903,7.683,23.222,-57.338,-2.604,8.542,18.868,-5.507,-1.896,71.812,0.747,-30.177
1.754447700000128,18.524,3.426,-8.589,10.312,-41.691,33.268,11.671,17.356,24.337,28.269,7.683,-1.181,5.682,19.424,37.74,5.812,23.172,0.635,11.261,23.711,-55.232,-2.089,10.07,17.825,4.233,-2.407,76.351,4.333,-20.925
1.7545193999999356,16.969,1.373,-14.216,13.376,-45.747,38.87,-0.636,18.875,22.776,29.778,7.676,-0.156,5.164,16.843,37.702,7.856,21.612,-2.439,8.176,22.662,-57.738,-2.599,0.327,3.463,-3.968,-5.478,71.152,-2.844,-28.077
1.7704306999999062,8.755,-9.387,-27.522,1.579,-45.702,26.024,4.488,12.197,15.069,16.94,0.496,1.894,0.548,20.925,36.128,4.262,24.152,1.662,7.143,22.127,-57.68,-5.67,-2.748,-0.127,-17.284,-8.034,60.835,-10.013,-41.881
1.7844295999998394,7.722,-10.402,-26.47,-3.033,-38.996,15.751,5.508,4.5,15.054,12.825,0.495,2.404,-0.99,27.051,29.432,6.307,28.739,6.783,11.747,21.593,-56.086,-7.714,3.915,6.533,-20.853,-8.026,55.138,-6.929,-37.741
1.784494900000027,7.202,-9.367,-28.492,-6.104,-32.297,16.76,-0.645,-6.263,12.989,13.837,-2.579,-4.771,-2.526,24.975,25.816,4.763,23.075,1.141,5.075,19.522,-63.202,-9.243,-1.212,1.403,-21.345,-8.018,50.985,-5.898,-30.531
1.799431800000093,1.047,-11.407,-33.587,-7.635,-27.142,17.768,1.405,-5.745,5.292,8.7,-6.163,-9.377,-4.572,18.802,28.864,-4.463,19.465,-5.52,-2.615,14.379,-68.262,-11.795,-12.994,-9.869,-27.983,-11.596,47.86,-13.577,-38.185
1.8011389999996936,5.144,-8.322,-29.455,-3.016,-21.991,19.287,1.915,6.044,6.823,13.814,0.504,-5.781,-3.543,14.173,30.885,-3.946,18.934,-7.052,0.974,10.779,-62.558,-15.882,-13.493,-10.371,-34.103,-13.634,50.886,-13.563,-41.733
1.8144419999998718,13.848,-6.264,-29.938,-5.575,-16.846,23.366,-4.234,8.6,17.575,21.997,5.114,-3.726,-2.003,16.72,27.78,1.181,17.378,-7.045,1.486,12.305,-60.959,-15.354,-11.43,-5.75,-27.921,-11.059,50.835,-7.914,-36.055
1.814505100000133,11.273,-8.307,-40.154,-11.717,-14.268,24.368,-4.742,5.517,17.045,15.827,0.498,-6.284,-2.001,19.265,25.19,-1.894,22.483,-7.55,-0.565,10.756,-62.947,-11.24,-11.419,-5.232,-22.258,-8.999,46.686,-9.443,-38.581
1.8294261999999435,10.749,-5.737,-41.138,-7.607,-20.401,23.831,-2.176,7.561,7.294,12.225,0.497,-3.716,-1.486,14.123,26.19,0.157,21.949,-11.641,7.12,9.721,-57.761,-7.13,-5.772,-2.153,-22.236,-6.428,53.811,-7.384,-42.641
1.8294872000001305,24.058,-0.096,-28.29,2.135,-22.943,26.881,2.949,5.504,12.41,21.435,8.182,5.509,2.614,14.621,29.238,10.403,14.242,-13.678,13.261,19.957,-49.506,1.074,2.943,7.583,-13.504,1.263,68.615,4.918,-33.377
1.8444352999999865,32.744,7.076,-12.892,8.28,-13.186,33.514,7.557,10.109,28.279,26.536,17.395,13.701,9.271,26.389,39.454,16.028,24.474,-4.443,16.321,28.646,-44.846,10.807,8.063,16.285,-2.22,7.409,76.231,12.598,-21.56
1.8444931999997607,35.272,17.828,-8.268,14.42,-16.759,48.338,4.988,27.005,30.812,32.145,26.599,16.248,14.385,28.924,54.784,18.573,34.183,2.221,19.891,29.13,-40.703,12.845,12.153,17.805,-3.755,10.988,85.376,14.635,-16.928
1.8594331999997848,40.36,18.322,-9.285,19.016,-49.017,64.683,10.618,34.151,26.171,42.359,29.134,17.769,14.883,20.186,64.463,20.092,23.903,-3.929,20.383,34.736,-36.051,12.32,15.727,16.763,-7.337,13.539,102.197,16.669,-14.862
1.861289299999953,39.295,4.471,-12.349,13.362,-81.244,71.278,22.903,25.407,28.194,41.805,24.494,19.801,15.892,20.166,67.473,15.973,20.805,-9.048,23.437,39.824,-33.453,11.283,11.101,13.16,-9.379,8.914,109.779,10.505,-20.482
1.8745152999999846,32.596,-3.73,-21.559,5.151,-106.266,67.109,10.073,22.82,34.826,38.177,22.42,19.269,20.487,25.781,68.942,12.371,28.469,-6.477,27.0,36.711,-35.469,7.173,3.918,5.462,-18.079,-0.316,103.522,-2.313,-31.22
1.8745797000001403,32.051,3.958,-27.685,8.22,-73.372,58.845,-9.405,29.458,34.791,43.262,22.398,18.225,21.491,27.805,64.775,14.92,29.465,-3.909,22.874,35.649,-38.508,6.654,6.475,4.944,-19.085,-2.365,96.758,-1.286,-30.677
1.8895542999998725,30.482,11.639,-22.534,12.31,-40.511,52.638,1.875,28.403,28.608,40.657,18.789,16.669,17.884,28.289,52.415,14.393,28.923,-6.467,18.753,32.54,-41.543,8.696,10.055,10.063,-10.869,3.785,93.075,7.424,-21.937
1.8896187999998801,22.767,4.967,-23.536,3.076,-52.765,48.487,11.095,15.567,22.432,28.321,12.111,9.48,13.767,24.675,43.653,3.108,23.259,-17.219,14.123,21.749,-51.748,1.003,0.823,3.393,-17.006,0.708,86.834,0.757,-27.038
1.9049243999997998,15.572,-7.845,-33.759,-10.247,-80.377,41.778,-4.286,3.769,16.774,20.095,2.877,-4.361,6.069,14.916,43.097,-12.264,9.916,-30.009,-0.748,12.506,-62.454,-13.343,-14.547,-12.492,-30.821,-15.687,76.501,-14.101,-41.356
1.904986199999712,10.946,-9.374,-30.651,-16.384,-80.297,36.614,-5.306,3.253,9.073,14.952,-4.811,-12.554,-2.134,11.315,39.468,-20.449,8.369,-33.565,-7.407,7.882,-64.953,-21.014,-19.143,-18.628,-35.401,-23.356,70.79,-16.136,-41.314
1.9195248000000902,13.496,-5.267,-22.423,-11.245,-76.118,41.188,5.97,9.397,9.576,14.937,-1.22,-9.467,-1.619,11.816,36.354,-20.941,11.435,-33.532,-3.301,5.825,-63.864,-19.968,-15.538,-13.998,-32.292,-15.648,76.866,-13.558,-33.076
1.9212475999997878,19.63,-6.798,-26.499,-1.5,-79.628,43.708,-5.819,12.462,17.251,22.095,4.417,-5.36,1.456,10.267,45.54,-19.895,4.763,-37.085,-5.859,9.406,-61.751,-17.899,-15.522,-15.009,-29.698,-15.12,82.937,-15.594,-36.117
1.9346059999998033,18.074,-8.328,-30.059,-5.597,-76.475,39.566,-10.424,12.961,15.697,22.073,1.851,-3.305,-0.082,13.331,50.617,-17.314,6.295,-38.584,-4.829,11.445,-57.591,-16.857,-16.019,-18.068,-30.181,-19.716,82.854,-15.066,-38.13
1.9496036999998978,19.08,-3.197,-25.931,-13.276,-71.275,42.6,11.103,13.973,13.632,24.612,7.485,4.895,2.479,21.002,44.931,-8.075,20.634,-32.398,7.984,16.557,-53.947,-7.618,-5.244,-10.365,-27.077,-8.425,90.456,-6.854,-31.432
1.9496656999999686,26.746,-0.12,-24.88,2.619,-61.47,51.267,5.969,14.984,24.889,36.883,20.285,13.6,12.211,21.494,47.96,0.13,23.175,-26.218,13.099,26.787,-48.77,5.71,5.007,-1.645,-19.878,2.854,101.124,-3.261,-32.425
1.9646339000000808,23.133,-5.755,-33.564,15.424,-52.699,49.166,-25.8,14.456,32.037,35.821,17.191,10.512,12.711,16.861,53.035,-4.481,13.93,-29.266,9.499,24.198,-47.696,4.167,0.903,-6.254,-24.468,-5.858,97.437,-10.943,-42.639
1.9646961999997075,9.79,-17.532,-43.777,-11.231,-67.504,37.334,-18.602,7.27,13.562,16.318,1.292,-1.281,-0.622,13.771,43.248,-18.309,11.867,-36.921,6.416,10.342,-57.895,-5.059,-7.294,-17.519,-38.276,-14.049,86.069,-19.641,-48.744
1.979634299999816,3.632,-25.2,-44.758,-37.348,-89.978,30.637,12.668,-4.521,-12.067,6.055,-5.882,-8.965,-11.892,10.683,36.545,-23.414,13.904,-38.933,1.287,9.307,-66.034,-3.517,-5.75,-20.575,-37.213,-13.011,82.396,-19.621,-48.183
1.9796941999998126,8.239,-20.564,-37.541,-23.99,-92.449,36.242,0.872,-3.492,-6.42,12.197,-1.265,-6.907,-6.757,11.185,41.632,-18.779,9.792,-40.431,0.773,16.47,-60.332,-0.439,-0.621,-16.456,-28.979,-13.51,87.437,-16.015,-43.524
1.9947809999998753,16.428,-12.858,-35.454,-7.572,-96.455,47.988,-29.867,8.807,19.202,20.894,4.372,-1.264,2.983,12.71,45.688,-19.273,7.22,-49.1,2.309,13.892,-56.686,-5.05,-2.158,-14.903,-32.536,-15.033,93.497,-14.975,-39.894
1.9948570000001382,14.875,-13.87,-39.517,-14.225,-111.728,50.502,-23.178,12.897,20.207,20.361,3.855,-4.337,0.931,9.624,48.717,-26.426,8.238,-54.174,-3.841,8.755,-62.777,-8.119,-8.815,-22.06,-34.553,-16.043,93.404,-17.009,-44.465
2.00975759999983,8.2,-13.856,-37.941,-16.26,-111.616,47.378,-7.273,10.323,5.842,15.217,2.314,-10.993,-6.242,6.54,51.229,-29.473,5.156,-51.558,-5.374,9.771,-64.763,-6.574,-10.856,-24.6,-28.371,-17.051,91.773,-18.529,-43.908
2.0098220999998375,15.876,-4.109,-27.656,1.175,-97.672,51.429,-15.462,13.386,14.034,21.35,11.021,-3.809,-2.65,8.583,51.178,-24.833,6.687,-49.97,2.316,12.835,-58.551,-3.493,-1.624,-14.329,-22.195,-12.936,97.829,-10.826,-30.544
2.0251020999999128,24.57,2.556,-20.457,7.834,-87.328,57.525,-25.693,11.323,25.29,33.112,18.695,5.928,2.988,11.648,54.201,-20.198,14.365,-51.969,2.314,14.871,-57.468,-2.465,2.989,-7.655,-17.562,-9.849,101.318,-2.618,-23.341
2.0251758999997946,12.762,-5.132,-29.658,-6.519,-72.896,49.783,-27.717,-2.008,17.58,29.492,10.991,-0.225,0.424,13.174,51.585,-24.276,12.302,-51.917,-3.324,12.295,-65.095,-6.049,-5.723,-15.332,-19.593,-14.45,86.359,-10.812,-32.54
2.0397454999997535,-1.595,-16.397,-40.899,-13.685,-45.159,30.778,-21.029,-10.203,5.267,11.532,0.222,-9.959,-5.724,14.697,33.603,-30.399,9.216,-49.816,-4.345,5.11,-72.714,-8.604,-9.816,-21.464,-24.697,-19.046,65.781,-23.609,-42.753
2.0398043000000143,-4.155,-18.43,-35.222,-12.134,-23.085,15.89,-1.54,-5.582,-10.107,-3.336,-6.951,-8.924,-11.354,15.707,21.274,-29.857,17.916,-48.229,-2.804,1.007,-76.74,-3.985,-4.171,-18.369,-23.135,-19.027,59.567,-21.024,-40.661
2.054831500000091,-8.25,-16.875,-30.064,-19.806,-25.111,14.337,-0.514,2.108,-17.269,-0.259,-10.53,-7.378,-9.806,17.741,26.376,-26.241,19.947,-47.669,-0.752,5.104,-78.2,-1.932,-4.167,-17.838,-22.088,-18.496,63.094,-20.491,-36.522
2.054894200000035,-6.704,-20.956,-39.768,-20.299,-32.258,21.495,-17.42,3.131,2.728,15.623,-1.298,-2.76,2.5,23.871,33.521,-22.628,16.341,-47.621,3.347,11.247,-74.024,-1.93,-5.699,-19.357,-23.602,-17.453,66.105,-27.13,-43.145
2.0698591999998825,4.061,-22.472,-40.24,-11.057,-26.59,28.646,-3.57,3.128,20.656,20.73,12.024,8.001,9.669,27.945,38.099,-18.507,25.034,-49.11,6.418,13.797,-70.364,1.658,-0.058,-16.776,-17.943,-16.411,72.699,-25.566,-47.201
2.069927099999859,5.081,-20.913,-34.053,-17.706,-31.174,31.691,12.827,4.662,10.901,14.562,7.913,5.431,3.512,24.331,42.159,-19.513,26.033,-53.672,3.85,8.148,-73.879,-0.393,-2.108,-16.759,-17.413,-17.931,75.7,-23.491,-41.006
2.084813999999824,-5.17,-24.99,-43.752,-25.885,-48.562,26.024,-14.338,-3.028,2.694,10.449,-1.829,-6.869,-2.127,17.135,38.018,-30.252,14.224,-58.741,-5.888,0.455,-79.441,-10.126,-15.938,-24.427,-28.154,-23.549,67.427,-30.128,-44.039
2.0848728000000847,-6.189,-25.478,-50.369,-18.175,-44.415,22.412,-22.52,-15.32,7.814,10.95,-0.802,-8.399,-1.1,13.019,31.32,-36.37,13.185,-58.17,-9.98,-1.082,-81.923,-10.116,-20.02,-27.477,-28.638,-27.111,60.187,-31.122,-53.216
2.0998497999999017,3.038,-15.718,-38.535,-13.033,-24.903,30.074,7.216,-10.694,7.806,14.013,4.834,-1.731,-0.587,12.494,36.925,-31.21,17.783,-54.526,0.276,3.53,-75.693,2.19,-7.705,-16.691,-18.364,-17.863,67.299,-21.87,-46.503
2.099907599999824,9.183,-11.092,-36.96,-14.045,-23.341,36.192,-0.476,3.149,8.823,18.61,7.391,-1.217,-0.586,14.018,43.035,-25.031,15.204,-53.447,8.985,9.674,-68.445,9.872,1.524,-6.94,-14.759,-6.574,72.355,-16.725,-40.309
2.1149310999999216,2.002,-21.839,-51.78,-16.593,-36.637,28.471,-22.505,1.609,12.4,13.981,0.211,-5.827,-1.098,17.078,37.869,-30.129,16.725,-56.467,1.803,7.615,-74.012,6.276,-4.113,-16.155,-18.843,-11.691,57.938,-25.417,-55.638
2.129914000000099,-11.32,-32.576,-59.412,-30.921,-45.822,17.684,-5.576,-10.688,2.142,2.184,-13.109,-12.481,-6.732,20.135,26.561,-41.882,19.782,-59.485,-5.883,-2.127,-84.697,-2.952,-14.867,-30.483,-28.045,-23.462,40.462,-38.712,-66.341
2.1299761000000217,-11.821,-31.006,-57.304,-36.013,-42.19,19.203,-4.546,-14.776,-5.033,0.645,-13.096,-13.493,-7.75,23.188,22.436,-42.353,18.738,-57.888,-4.34,-3.661,-83.587,-7.047,-18.95,-31.99,-36.727,-25.488,38.372,-40.722,-61.663
2.145307799999955,-1.051,-23.803,-50.074,-20.095,-32.414,27.893,-26.058,-7.076,5.731,9.865,-3.349,-8.356,-3.644,24.702,31.635,-33.089,20.769,-56.293,-2.287,3.002,-77.356,-2.429,-18.932,-25.81,-33.104,-20.851,40.895,-32.485,-58.528
2.145386099999996,2.536,-21.218,-41.827,-16.489,-34.943,28.89,-12.2,-3.483,10.848,12.417,-4.37,-7.836,-4.153,21.091,38.263,-34.08,19.723,-61.873,-3.309,0.95,-77.279,0.135,-19.937,-24.247,-24.874,-16.732,39.83,-29.891,-55.396
2.174898899999789,-0.54,-22.221,-39.224,-24.669,-42.081,28.861,-0.917,-7.066,4.69,8.306,-8.465,-12.439,-8.247,13.898,30.54,-44.292,11.506,-67.958,-6.38,-5.199,-78.738,-4.476,-19.917,-26.272,-26.386,-19.789,41.839,-36.009,-50.217
2.17496089999986,0.485,-19.637,-35.598,-14.399,-32.817,33.443,-18.847,0.113,5.71,10.859,-4.358,-13.451,-8.239,8.761,24.362,-46.297,6.372,-68.915,-9.959,-4.169,-77.123,-3.447,-16.311,-23.685,-26.872,-22.843,49.994,-35.46,-48.118
2.175003999999717,2.534,-14.495,-23.78,-1.576,-22.026,32.385,-8.582,13.946,5.192,13.922,-0.255,-11.9,-8.23,7.728,31.51,-41.64,7.902,-69.871,-7.388,-0.579,-73.972,5.265,-8.098,-15.464,-17.111,-15.136,58.654,-24.666,-36.799
2.176876799999718,-4.129,-15.505,-22.731,-11.821,-25.078,20.569,9.87,0.099,-5.06,5.712,-2.816,-14.45,-11.808,5.671,30.454,-43.135,5.333,-72.875,-5.331,-2.627,-73.385,5.26,-8.09,-12.375,-14.532,-11.535,57.57,-20.543,-31.127
2.190294399999857,-11.809,-24.199,-39.103,-25.642,-24.54,12.352,-16.267,-27.053,-9.153,-1.979,-7.936,-20.071,-15.895,1.054,19.665,-50.265,-2.357,-79.462,-15.06,-8.772,-80.484,-2.43,-17.816,-21.071,-23.739,-20.745,44.193,-30.769,-46.977
2.1903588000000127,-6.675,-24.174,-40.6,-17.931,-16.831,16.438,-35.719,-18.829,-3.509,3.146,-6.904,-14.928,-13.83,4.127,22.719,-48.677,-0.305,-77.333,-12.995,-6.202,-78.867,2.696,-13.699,-22.075,-21.666,-20.212,45.173,-32.787,-51.541
2.204967300000135,6.14,-10.318,-24.678,-1.519,-10.667,27.18,-15.191,3.219,4.179,9.291,8.472,3.53,-1.008,18.467,38.065,-27.112,16.089,-58.813,8.534,9.686,-59.833,22.161,5.782,-4.634,-4.739,-8.408,64.083,-18.922,-35.095
2.2050319999998464,4.597,-11.332,-28.24,-7.153,-5.533,27.665,-9.54,-6.006,6.737,7.745,14.612,12.236,6.165,29.72,34.954,-11.715,27.856,-44.922,14.674,16.848,-52.601,27.262,6.289,1.518,-2.172,-6.863,64.532,-18.391,-37.11
2.2200472999998055,-14.363,-32.325,-48.704,-29.688,-4.503,8.17,-26.949,-18.807,-0.954,-0.972,-4.358,-0.584,-6.649,27.641,14.939,-27.585,24.754,-50.512,-0.198,4.536,-67.917,8.279,-11.136,-16.414,-18.564,-17.614,41.413,-35.279,-53.979
2.22011190000012,-25.62,-38.953,-50.704,-36.318,-6.035,-7.72,-25.385,-15.202,-11.712,-13.779,-19.211,-14.928,-18.938,19.929,7.239,-46.001,17.045,-55.072,-10.956,-8.276,-79.12,-5.562,-18.297,-25.107,-25.205,-26.818,27.027,-39.342,-55.462
2.235016799999812,-21.496,-28.156,-38.358,-25.523,-4.492,-1.052,-13.065,-19.286,-11.7,-17.864,-15.606,-20.036,-18.919,17.347,11.33,-46.467,12.929,-54.505,-12.482,-12.879,-78.016,-1.97,-17.767,-16.373,-16.471,-25.767,27.0,-29.569,-46.185
2.2366879999999583,-17.888,-27.103,-34.734,-23.961,-8.586,6.121,-13.564,-20.291,-7.078,-11.698,-17.127,-22.065,-20.949,13.744,11.319,-48.982,8.306,-60.086,-11.957,-14.915,-74.864,3.668,-17.749,-13.283,-14.918,-19.594,27.485,-25.441,-41.015
2.2501406999999745,-16.333,-26.564,-30.6,-24.961,-12.164,4.578,-13.55,-4.389,-5.534,-9.125,-19.159,-21.531,-25.026,6.558,11.82,-55.593,2.662,-63.1,-9.896,-12.851,-71.203,5.713,-13.633,-14.294,-19.001,-21.111,27.97,-26.44,-38.413
2.250250099999903,-10.681,-15.779,-19.299,-12.641,-0.881,10.209,-0.217,1.251,-1.942,-7.579,-7.869,-18.436,-20.391,3.477,15.907,-49.39,0.61,-59.963,-8.862,-7.715,-67.034,8.269,-11.058,-11.206,-14.371,-23.651,33.578,-23.34,-33.764
2.280044799999814,-4.523,-10.64,-11.595,1.204,9.366,18.396,11.567,0.225,4.208,0.626,1.36,-12.782,-13.198,3.986,18.452,-41.144,2.659,-58.366,-5.267,-3.609,-63.893,11.847,-6.948,-7.096,-9.746,-16.455,41.229,-15.119,-26.045
2.296141499999976,-1.957,-10.117,-7.997,5.813,8.332,19.914,11.555,10.471,8.814,7.285,1.359,-4.06,-11.648,6.544,20.995,-36.492,4.193,-54.209,1.399,-0.019,-58.194,17.47,0.231,-0.941,-8.2,-11.316,47.335,-9.469,-20.384
2.296197300000131,-1.955,-5.496,-5.94,3.758,7.812,21.944,3.859,10.46,10.342,7.79,3.919,0.555,-9.587,11.66,21.999,-32.869,6.238,-50.569,0.885,1.518,-51.475,20.014,-1.818,1.109,-8.191,-13.354,49.849,-13.558,-22.413
2.2962336999999025,-3.49,-5.49,-12.082,-3.418,1.656,23.971,-4.342,1.74,8.283,7.27,6.477,2.091,-5.991,17.796,25.563,-33.348,9.818,-48.469,-1.165,1.517,-50.399,17.433,-8.476,-5.552,-14.843,-11.291,52.361,-18.667,-27.513
2.310115499999938,-2.462,-10.096,-13.607,-3.927,-8.079,24.459,-5.875,5.325,7.25,9.824,8.519,7.212,-0.35,23.926,35.271,-30.241,15.443,-36.125,6.008,5.613,-50.861,20.489,-4.882,-6.059,-17.902,-9.743,59.481,-15.062,-25.949
2.3118180000001303,0.102,-9.573,-6.933,2.737,-3.973,26.996,-3.819,6.344,9.804,12.888,12.097,11.816,3.749,30.562,35.748,-22.526,23.113,-24.818,11.125,9.706,-45.175,26.616,-1.803,-0.93,-13.786,-12.807,65.569,-9.924,-20.8
2.32518970000001,-1.947,-9.051,-5.902,1.198,3.203,21.846,-5.353,-3.396,10.306,10.314,8.499,9.243,1.696,34.118,23.417,-25.065,26.163,-26.33,8.553,6.623,-43.081,23.516,-5.9,-4.515,-14.797,-12.794,63.454,-9.914,-20.267
2.340215100000023,-9.118,-12.116,-10.507,-4.439,1.663,11.578,-4.835,-5.442,6.198,-1.48,-2.268,2.573,-1.892,32.034,17.758,-33.75,25.112,-22.718,7.519,1.493,-52.259,18.369,-4.869,-6.56,-13.757,-14.318,59.293,-8.88,-21.271
2.3402892999997675,-12.695,-11.079,-8.959,-4.434,0.125,11.054,1.318,-1.85,3.63,-6.601,-7.389,-7.163,-3.427,25.855,18.253,-39.864,22.526,-16.035,5.975,-2.095,-56.818,15.789,-5.889,-1.943,-8.108,-20.964,60.258,-2.211,-19.201
2.3551526000001104,-11.657,-8.507,-7.413,-9.041,-4.999,16.166,3.878,-4.922,5.163,-0.447,-8.406,-12.791,-6.497,17.632,15.161,-47.508,14.306,-25.753,-0.691,-4.654,-53.175,8.089,-15.105,-6.551,-14.248,-23.505,60.198,0.865,-18.157
2.3552159999999276,-4.986,-4.912,-8.943,-8.007,-6.018,20.249,5.923,-0.819,11.306,3.652,-4.299,-6.631,-5.466,13.003,20.269,-44.899,5.071,-30.85,-0.69,-0.551,-49.535,6.032,-16.114,-8.594,-17.307,-19.383,60.65,-0.16,-16.089
2.370129399999769,4.753,2.777,-2.274,7.882,10.382,28.425,21.799,18.65,21.028,9.284,6.463,2.085,3.249,16.577,33.056,-30.51,7.627,-20.061,7.507,8.671,-40.777,18.321,-5.852,5.247,-1.921,-13.728,70.323,4.963,-9.926
2.370183999999881,6.285,3.799,2.852,13.51,13.957,28.909,33.56,27.34,21.52,12.861,8.506,0.034,4.782,17.072,29.437,-32.016,8.644,-23.115,6.988,7.638,-34.588,21.889,-6.871,6.779,-0.382,-14.226,73.326,9.056,-12.989
2.3852661000000808,-4.992,-10.549,-6.373,-1.361,-10.647,15.56,20.719,10.919,10.74,1.065,-3.798,-11.749,-5.469,6.809,14.038,-49.403,-5.197,-36.411,-4.29,-2.616,-43.775,9.059,-18.647,-11.159,-17.288,-21.385,57.884,-3.76,-23.223
2.3853344999997717,-11.134,-16.686,-15.076,-10.068,-23.957,9.397,6.866,0.15,5.094,-9.183,-10.966,-16.861,-9.562,1.679,14.024,-50.378,-7.753,-31.764,-5.311,-2.101,-46.805,5.464,-19.653,-14.734,-19.32,-23.925,47.068,-12.978,-26.273
2.4003248999997595,-0.365,-6.936,-12.499,-3.911,-13.687,17.584,7.884,7.834,6.113,-3.026,-5.832,-7.622,-2.892,12.948,27.33,-38.544,8.648,-17.9,6.478,8.66,-31.901,16.729,-9.387,-5.498,-12.128,-20.315,55.217,-3.231,-24.198
2.400394199999937,9.882,-1.293,-9.925,-0.321,-9.574,21.153,5.314,5.265,0.472,2.1,-0.703,-0.955,-0.328,19.083,30.377,-33.895,11.201,-14.296,8.521,10.188,-24.697,22.348,-7.841,-7.542,-16.727,-19.27,63.871,2.92,-23.661
2.415612599999804,7.823,-1.804,-9.403,-1.345,-17.249,16.521,-3.4,-6.524,-4.14,-4.562,-5.313,-6.077,-5.45,11.379,24.199,-37.447,0.432,-16.843,-0.197,1.981,-30.308,13.617,-16.542,-13.169,-21.833,-19.763,59.709,-2.719,-22.613
2.4156785999998647,6.79,-1.29,-4.783,0.193,-23.38,15.48,-4.934,-5.492,2.524,-7.631,-7.357,-10.681,-3.396,8.806,24.687,-41.508,1.456,-15.29,-1.734,0.442,-31.302,6.943,-18.062,-13.156,-23.348,-20.255,55.551,-3.741,-19.517
2.43024639999976,13.956,-2.826,-1.192,1.218,-19.258,19.563,-4.417,6.296,11.743,1.598,3.409,-2.986,7.366,15.97,29.273,-35.831,9.651,-9.639,4.928,9.151,-26.148,11.034,-12.409,-13.143,-25.374,-20.235,62.155,2.411,-13.349
2.4303093999997145,20.089,0.251,-2.727,0.192,-7.968,25.691,1.735,17.048,16.855,13.892,13.139,9.825,12.482,15.954,27.707,-24.525,9.129,-6.555,5.948,13.752,-18.437,17.683,-11.884,-10.568,-21.25,-13.555,68.753,9.581,-8.725
2.4454571000001124,22.631,7.423,-4.262,3.778,0.237,31.813,20.177,19.08,17.35,15.415,13.126,11.864,8.371,9.79,28.704,-24.5,2.972,-11.16,4.917,12.202,-14.832,19.715,-12.897,-5.947,-15.081,-9.443,65.098,13.67,-12.815
2.4455184999997073,24.145,6.391,-6.307,8.385,1.261,31.269,24.767,13.426,14.259,11.301,12.088,6.217,7.338,10.805,31.749,-29.599,1.945,-15.247,4.4,10.652,-14.818,18.671,-12.372,-6.966,-17.628,-15.069,61.959,10.582,-19.462
2.4603416999998444,24.633,5.872,-5.276,7.352,7.92,26.627,4.763,16.999,16.806,14.364,15.15,9.284,10.404,12.331,27.106,-25.471,3.992,-12.67,3.883,12.179,-8.655,21.213,-11.335,-6.446,-18.122,-13.004,65.484,10.571,-17.393
2.460407000000032,25.633,10.477,-2.709,6.32,19.183,24.551,-1.902,24.666,21.4,17.936,14.623,13.886,9.882,10.27,26.567,-21.859,1.939,-10.096,6.953,15.24,-3.523,27.852,-5.688,1.757,-9.395,-2.745,67.98,17.221,-12.765
2.4769502999997712,24.583,7.393,-8.342,5.801,13.016,25.551,16.031,19.519,15.231,11.258,9.997,6.187,5.261,12.309,34.225,-27.473,-0.112,-12.135,9.508,14.713,-9.155,26.287,-1.584,6.366,-4.775,-5.304,66.887,15.154,-15.826
2.4770149999999376,17.898,-0.299,-14.481,3.234,-8.002,24.501,22.162,10.79,8.044,5.611,4.864,-0.479,1.67,12.296,29.58,-31.544,1.937,-11.611,1.813,9.575,-13.245,17.04,-8.242,-1.837,-11.942,-14.008,64.771,4.893,-24.007
2.4904035999998086,15.319,-0.811,-5.757,3.743,-12.092,20.89,11.382,10.779,8.548,6.63,3.322,-2.015,-3.455,3.062,20.329,-35.098,-1.651,-8.525,-3.311,4.955,-9.645,15.486,-12.845,-10.032,-19.103,-14.506,63.169,2.839,-21.422
2.490467499999795,16.841,2.776,6.032,8.862,-3.371,17.796,11.883,14.354,1.879,4.062,-1.292,-7.649,-7.55,-0.527,21.333,-42.748,-9.334,-10.054,-1.771,3.413,-10.66,14.958,-13.857,-10.535,-16.01,-14.492,60.544,5.91,-11.154
2.5054362999999285,13.238,1.236,0.39,5.78,-14.126,16.241,16.481,14.34,-7.344,-1.578,-8.975,-13.276,-7.543,3.572,17.726,-48.34,-7.788,-13.117,-9.454,0.336,-15.772,5.209,-22.04,-13.598,-18.043,-19.6,58.435,1.293,-16.779
2.5055151000001388,8.101,-7.987,-10.881,-3.448,-35.116,19.298,4.17,5.617,-3.238,-2.088,-7.942,-12.751,-5.998,2.544,11.56,-49.829,-4.194,-11.567,-11.494,-1.714,-17.294,4.179,-24.067,-19.732,-28.271,-22.655,55.302,-8.442,-31.106
2.520372800000132,12.704,-10.028,-8.308,0.654,-35.594,27.988,-5.056,3.562,2.913,3.037,-1.274,-7.103,-3.431,2.029,25.381,-43.119,-3.677,-3.871,3.887,5.46,-8.567,16.47,-9.698,-14.077,-24.657,-22.12,50.124,-8.946,-29.538
2.5347679000001335,20.376,-4.383,-4.202,8.851,-32.484,35.645,5.195,15.854,4.959,11.743,5.388,2.126,2.208,6.638,38.163,-30.781,1.962,1.768,10.031,14.164,4.761,25.163,1.582,-5.866,-17.972,-17.999,47.512,-3.814,-25.41
2.5348282999998446,17.794,-13.088,-15.468,-3.454,-51.407,34.585,11.338,14.813,8.028,13.78,7.431,5.71,3.231,5.607,29.928,-31.262,2.984,-3.869,0.799,14.15,5.269,22.064,-1.493,-12.52,-33.323,-15.932,47.977,-14.056,-38.705
2.5494337999998606,9.579,-26.907,-27.748,-21.381,-68.774,29.939,3.129,-1.596,5.971,9.668,3.838,2.63,-0.359,3.552,27.849,-36.866,-2.654,-11.037,1.823,13.111,3.727,18.968,-7.127,-20.704,-43.024,-17.453,48.954,-24.8,-48.912
2.5494943999997304,12.644,-19.195,-25.671,-15.212,-66.144,32.471,2.614,4.041,3.915,12.22,3.834,9.288,5.277,8.671,38.58,-27.096,0.935,-2.83,11.043,17.709,13.969,24.585,-3.534,-15.048,-21.464,-15.386,55.053,-14.017,-42.203
2.564412899999752,19.803,-7.905,-23.596,-1.877,-63.004,37.049,6.71,21.968,10.572,15.794,9.466,15.938,12.444,14.298,38.029,-20.409,7.594,4.346,9.495,20.252,18.054,30.708,1.593,-14.009,-8.635,-12.809,60.633,-2.22,-39.087
2.579525900000135,12.611,-14.557,-30.745,-9.559,-72.162,32.914,5.678,13.237,11.073,10.655,3.821,6.701,5.772,10.185,28.769,-31.659,6.049,-0.27,3.85,16.646,9.839,27.603,-2.507,-23.216,-20.409,-16.895,52.888,-9.902,-45.708
2.57958890000009,2.352,-21.203,-30.714,-16.21,-76.701,25.196,9.771,-1.633,2.353,6.034,-5.405,-1.503,0.13,6.589,27.203,-35.726,5.531,0.243,5.895,14.068,10.341,26.039,-5.579,-20.632,-20.901,-15.341,46.175,-16.04,-44.638
2.5796316000000843,4.399,-16.571,-22.999,-5.435,-65.353,23.122,18.983,5.541,-5.846,5.003,-4.375,-0.989,-0.382,7.607,28.201,-31.592,6.038,3.829,9.476,12.004,13.917,31.648,2.112,-8.315,-9.609,-9.69,51.764,-8.34,-36.396
2.5945622999997795,4.907,-12.968,-21.439,-1.331,-55.042,21.562,18.452,11.683,-11.988,-3.711,-8.981,-9.185,-9.091,2.989,22.025,-41.294,-0.116,-2.835,4.855,4.308,5.194,28.03,-0.964,-13.43,-14.21,-17.878,49.663,-3.208,-34.823
2.5946374000000105,-1.758,-12.955,-23.467,-5.428,-47.302,16.417,11.261,5.523,-10.439,-8.318,-16.144,-17.373,-13.693,-4.187,13.806,-52.011,-3.19,-6.418,-3.347,-3.893,-0.959,17.756,-17.357,-24.175,-19.319,-24.52,45.003,-4.742,-37.35
2.6095470000000205,0.806,-11.405,-19.857,-0.812,-31.886,14.864,9.2,10.129,-0.183,1.424,-7.931,-9.158,-2.408,1.453,10.206,-45.299,0.4,-0.776,-0.269,-2.865,3.14,23.374,-12.729,-20.053,-7.005,-14.761,61.351,-3.2,-33.214
2.6096145999999862,14.637,-4.222,-15.739,7.385,-11.362,22.534,8.167,23.951,12.113,17.304,6.421,6.22,10.402,12.21,18.393,-30.397,6.035,4.347,10.489,6.36,9.797,40.257,8.801,-7.225,1.199,-2.963,79.733,6.537,-25.496
2.6244957999997496,25.893,5.004,-13.674,13.013,2.994,31.22,0.986,27.513,24.396,27.533,16.149,15.948,17.052,13.735,32.207,-20.632,10.639,9.466,14.065,14.038,14.398,44.827,11.866,0.979,-2.9,1.138,81.19,15.752,-22.909
2.6261838000000353,20.744,-1.149,-15.197,7.877,-5.718,26.578,2.01,19.289,21.81,18.796,14.083,13.37,14.473,8.085,30.638,-23.173,3.969,5.358,6.366,8.901,8.236,34.536,-4.54,-8.756,-10.07,-3.986,77.011,7.539,-31.083
2.6396012000000155,4.842,-16.517,-24.916,-11.086,-32.352,14.769,17.889,7.486,2.321,2.383,-1.812,1.574,2.675,5.004,18.312,-34.421,-7.818,-8.479,-1.325,0.695,-4.58,25.28,-15.294,-26.678,-16.72,-16.278,70.786,-8.35,-41.811
2.6396593999998004,6.374,-14.451,-34.112,-14.149,-38.98,18.34,22.994,7.479,4.88,6.992,-2.835,0.035,3.697,8.072,20.855,-33.874,-3.712,-6.422,2.775,6.842,-5.087,29.865,-8.619,-23.065,-17.728,-15.237,68.154,-3.731,-43.306
2.6546408999997766,19.175,-7.264,-35.103,-3.376,-25.621,30.617,8.627,14.644,21.781,19.28,11.0,10.281,13.428,12.163,30.055,-24.619,6.538,4.343,9.945,16.057,0.041,37.008,-0.926,-14.332,-15.661,-5.488,75.258,6.007,-42.75
2.654702499999985,13.008,-14.942,-33.531,-13.619,-34.304,23.414,5.032,6.432,6.39,7.99,2.28,5.148,4.193,4.466,21.828,-29.205,-1.666,-1.809,4.299,11.942,-9.181,32.36,-7.585,-26.101,-19.231,-9.581,77.744,-4.758,-46.293
2.66998569999987,8.897,-14.414,-23.251,-17.191,-45.028,12.632,11.687,0.79,-7.448,-2.264,-7.969,-4.079,-5.033,-5.272,16.171,-33.787,-9.349,-7.442,2.246,9.369,-13.27,30.791,-7.577,-26.587,-17.163,-10.596,79.203,-7.314,-41.124
2.6845699000000423,24.257,2.506,-7.346,8.954,-20.393,25.427,6.552,15.646,16.125,14.644,8.433,7.709,7.78,0.368,32.549,-20.945,-2.679,-1.287,14.027,17.044,-3.523,42.543,10.361,-7.605,-3.313,2.735,90.907,10.624,-32.374
2.684625699999742,25.258,1.991,-8.876,9.969,-2.442,33.087,4.496,15.631,18.158,21.802,12.523,14.361,10.846,3.442,37.127,-17.338,-2.164,-1.798,14.525,17.539,-5.056,45.574,12.4,-11.184,1.813,3.245,90.816,11.125,-37.977
2.6996484999999666,13.449,-10.818,-17.576,-10.533,-11.661,21.27,12.689,1.27,-3.889,10.51,1.752,3.588,0.589,-6.808,20.696,-26.03,-7.797,-3.846,6.826,12.398,-11.711,36.82,2.142,-22.956,0.274,-4.956,79.455,-2.206,-43.062
2.699711799999932,22.145,-0.561,-8.337,5.359,-2.94,27.909,8.065,16.638,10.459,21.77,14.558,12.806,11.859,-2.702,24.774,-15.758,-1.642,5.38,14.504,18.021,2.645,41.906,13.41,-9.101,8.983,3.246,83.474,6.506,-32.773
2.7146201999998993,31.857,10.198,-1.157,23.284,14.994,42.226,1.397,34.04,29.404,37.63,28.376,30.212,26.704,12.669,41.655,-3.447,5.532,7.424,20.125,23.126,18.011,48.524,24.668,0.642,13.073,9.903,89.026,17.77,-29.154
2.7146834999998646,19.017,-5.182,-14.988,4.306,1.147,26.814,7.544,12.489,10.419,22.223,14.515,18.911,13.869,7.534,28.294,-15.226,-0.109,-2.318,7.809,13.37,13.895,35.155,7.224,-15.752,0.252,-3.427,74.592,3.407,-41.932
2.7297699999999168,7.727,-14.91,-27.268,-10.043,-19.859,9.881,-1.173,-10.577,-4.96,3.757,2.205,1.986,2.073,-6.306,10.335,-29.556,-4.72,-5.389,0.117,5.159,10.807,19.751,-7.64,-31.618,-8.97,-14.694,62.222,-11.453,-51.624
2.729833999999755,8.744,-11.309,-26.216,-7.984,-19.839,15.507,-17.053,-9.03,2.217,7.34,0.666,1.984,8.218,-0.152,15.96,-33.112,-1.129,-0.261,2.678,5.666,17.969,18.194,-3.534,-33.636,-7.424,-14.68,62.672,-10.417,-51.06
2.744669299999714,7.711,-15.909,-26.19,-15.661,-16.746,14.979,-9.352,-6.459,5.289,8.869,-5.482,-1.604,7.185,6.508,15.431,-38.202,2.459,1.789,-1.935,0.538,18.463,14.59,-6.092,-36.676,-11.003,-17.226,60.048,-11.943,-50.497
2.7447321999998167,-0.494,-20.504,-27.701,-21.28,-18.266,4.718,1.928,-9.526,-3.938,0.664,-13.161,-11.849,-3.068,-1.695,2.608,-44.312,-3.179,-2.312,-10.13,-7.66,12.297,4.842,-17.356,-44.324,-18.676,-23.869,51.791,-19.616,-51.471
2.7597665999996934,-3.055,-16.385,-24.599,-14.599,-13.124,6.25,-0.123,-6.443,-12.131,-0.874,-12.636,-13.374,-2.04,-4.768,5.167,-45.292,-8.299,-3.334,-11.145,-5.091,16.895,3.812,-17.851,-46.841,-17.121,-24.358,49.69,-17.547,-49.37
2.759833399999934,7.707,-10.221,-15.865,-8.949,-5.427,15.465,2.439,3.81,-2.897,8.861,-3.914,-4.139,6.159,2.922,13.871,-37.562,-0.094,6.403,-2.425,3.111,28.149,14.567,-6.563,-36.036,-7.882,-17.161,57.837,-9.845,-44.198
2.774830999999722,10.773,-11.235,-13.288,-9.452,-4.909,17.499,2.436,6.88,10.938,12.438,1.725,1.5,6.665,2.407,8.222,-29.84,4.005,8.958,0.139,3.621,27.609,18.138,-5.019,-31.901,-8.386,-15.095,62.902,-13.421,-46.203
2.7748986999999943,-5.119,-26.081,-29.669,-21.738,-12.589,2.112,-10.886,-11.058,-4.955,-0.894,-11.596,-9.26,-3.588,-8.867,-1.008,-42.105,-12.906,-6.42,-14.205,-6.629,15.798,5.825,-16.797,-45.702,-20.673,-23.276,53.106,-28.265,-62.551
2.7908477999999377,-6.651,-30.153,-40.91,-27.864,-12.576,-11.21,-14.974,-16.682,-21.344,-9.603,-20.806,-17.447,-8.708,-10.907,1.555,-52.309,-20.065,-11.024,-17.777,-9.184,10.659,1.208,-18.317,-48.217,-21.677,-23.253,55.102,-28.749,-67.099
2.7909129999998186,9.749,-10.655,-24.475,-10.418,3.83,2.634,-4.2,8.95,0.707,4.239,-5.416,-3.085,3.084,1.912,9.238,-34.839,-3.651,4.356,-1.366,2.096,18.333,12.99,-7.541,-33.312,-8.336,-12.471,76.563,-12.839,-50.125
2.8047922999999173,3.592,-10.132,-19.327,-6.309,7.925,11.34,-4.196,14.064,10.44,10.383,-3.362,0.504,7.692,4.471,7.179,-30.193,-3.647,3.839,-2.901,-0.468,15.241,9.391,-11.119,-38.914,-8.327,-16.557,76.487,-15.9,-49.051
2.8048555999998825,-19.978,-39.836,-46.973,-37.041,-14.624,-13.262,-12.901,-18.226,-17.747,-9.095,-28.461,-22.55,-8.197,-8.853,-6.66,-54.754,-22.087,-14.095,-21.854,-18.91,-3.73,-11.111,-26.99,-60.392,-28.811,-34.984,53.869,-40.987,-72.568
2.819781199999852,-21.495,-41.333,-52.049,-46.226,-26.905,-24.007,-8.277,-29.478,-23.365,-17.796,-32.019,-27.651,-12.288,-10.381,-12.801,-56.748,-16.942,-11.519,-18.246,-14.793,-7.312,-11.612,-24.401,-58.283,-32.369,-37.51,53.815,-44.02,-76.594
2.8348590999999033,-4.055,-15.676,-23.307,-14.416,-12.021,0.608,-4.171,-2.809,4.835,2.202,-7.396,-5.082,6.68,1.924,0.019,-35.174,-0.019,7.447,0.216,3.665,7.552,5.818,-7.47,-39.269,-9.795,-23.128,71.18,-22.459,-54.488
2.8349253999999746,-3.026,-16.173,-19.698,-5.693,-9.96,9.829,-16.974,3.854,9.441,10.397,-6.364,-3.54,9.235,-0.127,8.729,-34.627,-6.166,2.317,-1.834,-2.487,6.52,3.251,-9.0,-39.23,-4.662,-20.544,70.084,-20.899,-51.872
2.834968199999821,-21.979,-35.624,-39.146,-35.401,-32.492,-9.136,-24.642,-23.814,-16.183,-13.692,-30.436,-26.078,-12.291,-16.008,-3.063,-53.035,-25.115,-21.764,-18.738,-19.39,-8.343,-16.22,-25.897,-56.609,-26.686,-34.355,50.546,-38.809,-67.702
2.8498036999999385,-28.617,-36.613,-32.447,-43.05,-34.508,-12.713,-15.908,-30.451,-26.413,-24.949,-31.43,-29.125,-17.402,-22.14,-10.232,-57.593,-29.701,-23.791,-19.744,-16.297,-4.749,-15.179,-25.359,-58.602,-29.221,-36.883,40.762,-39.283,-61.486
2.849872400000095,-14.756,-24.281,-14.996,-15.855,-9.883,2.156,-14.867,-4.292,-8.969,-5.456,-13.468,-15.264,-1.503,-15.458,2.585,-44.728,-23.524,-6.349,-6.917,-6.547,11.65,1.23,-9.964,-42.149,-11.773,-23.013,50.967,-24.899,-42.469
2.8647995999999694,-14.741,-26.819,-23.178,-11.74,-6.799,-1.944,-24.074,-5.825,-6.398,-2.889,-17.041,-19.347,-1.502,-15.442,4.632,-44.171,-26.574,-9.929,-11.52,-13.2,11.638,-4.919,-14.565,-46.205,-15.348,-24.015,55.527,-29.485,-50.111
2.8798415999999634,-32.657,-41.649,-40.061,-38.369,-20.625,-22.435,-25.587,-35.021,-26.372,-22.866,-34.955,-36.234,-18.406,-27.722,-15.865,-63.082,-40.892,-26.825,-28.927,-24.97,4.966,-25.919,-34.018,-68.701,-31.726,-42.946,36.004,-47.898,-71.578
2.8816891999999825,-29.038,-39.046,-36.947,-38.33,-6.26,-21.9,-21.975,-30.887,-27.882,-19.257,-29.284,-33.124,-17.363,-29.744,-20.972,-66.093,-39.827,-21.675,-25.312,-21.871,16.232,-24.356,-32.96,-69.144,-30.158,-43.928,24.697,-44.264,-66.384
2.8949244000000363,-12.103,-19.539,-23.078,-10.115,18.85,-8.046,-24.515,-7.802,-10.948,-1.82,-13.886,-20.283,-4.538,-17.418,-4.557,-50.657,-24.93,-8.846,-15.553,-11.603,37.733,-12.549,-18.07,-53.706,-19.881,-29.027,31.332,-26.289,-47.362
2.8949886000000333,-19.263,-22.593,-26.128,-8.056,11.658,-11.624,-27.564,-11.893,-14.011,-9.503,-21.557,-23.337,-9.144,-17.913,-3.528,-53.681,-27.466,-15.497,-24.247,-16.715,46.917,-20.221,-24.199,-56.726,-22.423,-32.584,23.616,-31.386,-51.925
2.9103126999998494,-34.101,-41.014,-40.959,-30.589,-3.722,-22.371,-23.438,-19.054,-24.243,-22.301,-35.367,-30.486,-14.771,-23.019,-18.894,-63.873,-36.66,-21.117,-28.321,-25.407,51.993,-28.91,-35.958,-66.403,-29.573,-43.823,15.908,-48.261,-67.755
2.9103743999999097,-28.431,-36.362,-38.357,-32.608,6.527,-20.811,-15.218,-10.838,-19.608,-15.618,-29.184,-24.82,-3.997,-12.237,-19.899,-53.563,-27.915,-8.8,-17.022,-17.697,69.872,-20.172,-27.725,-60.702,-26.47,-36.606,29.212,-45.651,-63.589
2.9249188999997386,-26.866,-31.202,-30.121,-21.817,16.255,-21.815,-23.912,-7.241,-16.515,-12.529,-25.057,-23.77,-3.993,-10.176,-16.293,-48.386,-23.788,-7.767,-19.566,-16.655,84.146,-21.688,-24.111,-55.518,-20.808,-32.984,30.72,-42.019,-57.89
2.9399309000000358,-42.208,-48.077,-39.825,-30.504,1.382,-31.015,-37.208,-16.967,-23.158,-26.349,-39.888,-38.604,-18.846,-26.559,-31.646,-67.293,-37.597,-25.69,-36.965,-33.544,82.013,-42.159,-40.481,-65.196,-28.984,-47.808,14.295,-55.297,-70.127
2.939987299999757,-48.826,-50.079,-44.396,-42.769,-6.817,-34.058,-24.363,-24.635,-27.234,-36.056,-49.582,-47.274,-22.414,-28.07,-43.398,-77.472,-41.658,-28.738,-44.101,-39.659,85.517,-50.314,-45.051,-70.766,-36.639,-50.834,12.744,-58.316,-76.205
2.9416965000000346,-38.019,-34.147,-33.081,-35.042,4.461,-30.95,-14.605,-21.536,-26.182,-31.409,-42.873,-39.542,-18.293,-14.722,-32.596,-69.71,-33.419,-17.951,-38.934,-32.959,103.875,-42.579,-35.785,-61.474,-30.455,-37.975,22.465,-44.937,-65.37
2.9550313999998252,-38.493,-38.211,-37.659,-31.42,1.895,-33.993,-41.23,-22.539,-31.791,-31.89,-41.805,-40.527,-22.885,-21.367,-27.44,-69.128,-38.509,-21.519,-37.87,-38.561,112.48,-44.585,-39.848,-60.388,-30.425,-38.962,21.418,-44.892,-66.329
2.955091799999991,-51.775,-50.981,-52.99,-45.734,-13.476,-44.717,-54.509,-37.886,-43.03,-41.08,-53.034,-54.319,-30.547,-33.129,-40.733,-79.305,-45.13,-30.207,-43.98,-46.72,111.343,-52.738,-48.517,-71.598,-41.665,-48.144,16.786,-55.094,-79.583
2.9701107999999294,-47.624,-45.294,-45.253,-47.225,-10.901,-45.697,-33.45,-39.897,-39.401,-40.014,-50.932,-50.166,-29.492,-21.312,-40.18,-76.152,-35.351,-20.955,-40.35,-39.501,122.502,-47.05,-40.784,-67.94,-38.549,-43.485,20.868,-51.965,-76.43
2.9701789000000645,-32.207,-35.515,-30.863,-30.272,-1.156,-35.918,-27.269,-23.976,-26.554,-29.728,-38.586,-33.21,-21.265,-9.508,-24.77,-61.731,-28.144,-14.274,-30.063,-32.801,140.311,-38.806,-32.034,-56.602,-29.802,-36.782,30.068,-42.691,-65.082
2.9850345999998353,-32.175,-33.943,-31.344,-27.68,-8.84,-33.832,-34.926,-26.001,-27.552,-30.723,-35.986,-33.177,-18.683,-17.183,-22.184,-59.62,-34.775,-20.408,-31.058,-34.305,147.855,-41.841,-35.588,-59.619,-35.92,-40.331,35.674,-40.599,-62.968
2.985106999999971,-32.655,-27.761,-24.653,-29.189,-12.417,-30.725,-24.645,-30.586,-29.573,-31.205,-34.413,-32.631,-20.201,-18.19,-24.723,-58.536,-32.691,-13.727,-30.002,-30.173,153.855,-38.213,-31.454,-53.924,-32.81,-34.656,38.712,-32.874,-54.196
3.000029999999697,-21.864,-19.024,-11.308,-16.352,-1.134,-19.423,-16.936,-15.699,-21.859,-22.464,-26.694,-22.865,-17.107,-11.0,-18.551,-46.695,-22.413,-2.443,-20.75,-26.044,159.849,-28.441,-18.615,-33.378,-13.309,-24.887,42.771,-24.644,-39.797
3.0018842999998014,-30.552,-27.714,-23.08,-19.922,-5.744,-26.064,-26.652,-19.781,-25.936,-27.052,-34.864,-34.113,-18.114,-18.674,-25.705,-52.283,-31.612,-16.785,-28.927,-36.264,152.517,-39.171,-25.256,-37.955,-14.321,-33.571,37.093,-35.378,-47.954
3.0151827999998204,-49.989,-45.617,-41.5,-39.37,-24.181,-41.407,-37.897,-40.254,-36.156,-39.833,-50.711,-49.96,-25.781,-27.876,-37.974,-71.186,-45.412,-33.674,-44.267,-43.912,145.192,-54.501,-42.649,-56.873,-35.311,-45.321,23.224,-52.249,-65.325
3.0152476999996907,-46.353,-47.621,-38.385,-40.355,-24.669,-34.706,-45.543,-35.091,-37.144,-36.207,-46.049,-41.713,-24.73,-24.775,-31.789,-69.578,-38.195,-27.493,-37.05,-35.672,151.194,-46.762,-42.607,-56.816,-41.423,-44.763,21.151,-53.221,-67.821
3.030209300000024,-38.109,-43.475,-38.346,-36.728,-17.472,-28.011,-47.547,-29.42,-40.181,-28.999,-36.782,-33.987,-21.632,-23.725,-24.585,-57.213,-32.521,-21.318,-27.792,-28.976,154.629,-40.567,-38.978,-52.66,-37.283,-46.255,26.766,-51.119,-66.216
3.0302738000000318,-39.608,-44.456,-45.993,-41.302,-23.09,-35.155,-40.839,-41.174,-43.727,-32.556,-37.257,-36.515,-22.635,-21.652,-27.634,-54.082,-35.562,-20.784,-26.739,-27.922,152.938,-45.65,-37.914,-54.657,-37.246,-44.16,27.764,-52.605,-66.662
3.0455031999999846,-33.421,-35.702,-35.7,-36.65,-26.141,-27.948,-36.188,-37.034,-33.437,-29.449,-32.097,-28.793,-18.001,-12.922,-20.946,-48.905,-27.33,-10.517,-16.979,-23.284,157.908,-37.919,-26.606,-46.405,-33.623,-31.82,32.347,-45.38,-60.96
3.0455630000001293,-30.314,-29.007,-30.542,-33.028,-26.627,-17.674,-37.176,-28.288,-27.256,-22.76,-29.503,-26.715,-16.959,-11.372,-14.265,-46.295,-21.667,-8.457,-14.913,-21.211,159.287,-32.758,-23.505,-39.187,-32.564,-30.764,35.388,-41.236,-58.338
3.060150799999974,-37.456,-38.711,-42.806,-38.63,-37.359,-25.341,-41.238,-34.407,-34.913,-30.934,-37.158,-37.959,-25.139,-18.02,-19.886,-54.958,-30.867,-17.67,-26.681,-27.338,150.931,-45.533,-33.728,-44.783,-41.753,-39.955,27.156,-48.367,-62.89
3.0619704999999158,-37.418,-44.308,-41.227,-38.079,-45.006,-31.463,-45.295,-37.959,-38.977,-41.662,-42.244,-43.045,-29.212,-22.101,-24.477,-59.001,-31.348,-17.14,-29.216,-30.896,145.144,-50.611,-34.719,-48.324,-45.81,-41.452,18.419,-51.905,-65.901
3.075239899999815,-37.381,-41.19,-34.525,-41.115,-44.961,-29.382,-43.713,-43.044,-38.938,-42.132,-43.739,-44.538,-30.207,-26.689,-24.453,-61.504,-28.756,-19.685,-31.748,-33.939,142.95,-46.462,-34.172,-48.276,-45.764,-41.41,16.352,-51.34,-66.86
3.0902870999998413,-42.979,-42.173,-38.077,-45.172,-46.965,-26.791,-41.107,-47.612,-39.924,-36.967,-43.695,-47.568,-30.69,-27.687,-26.478,-67.077,-36.924,-34.01,-38.376,-39.028,139.733,-51.538,-39.773,-48.228,-47.256,-42.393,14.798,-51.289,-63.719
3.090349099999912,-41.399,-40.594,-33.428,-31.807,-43.845,-22.666,-44.652,-36.806,-39.884,-35.393,-42.627,-47.52,-27.073,-26.123,-29.013,-68.035,-40.473,-38.587,-39.875,-41.039,133.958,-57.635,-42.295,-45.618,-44.647,-40.302,15.296,-47.139,-57.508
3.1052396000000044,-46.481,-44.652,-32.883,-30.238,-38.165,-28.279,-45.12,-36.257,-40.868,-42.53,-51.293,-54.645,-29.095,-31.732,-36.156,-74.627,-42.994,-42.646,-49.056,-47.145,119.479,-63.212,-50.449,-51.72,-45.114,-48.458,11.182,-52.215,-63.086
3.1052993999996943,-59.754,-54.341,-43.608,-49.163,-36.59,-39.521,-40.464,-50.565,-39.803,-48.123,-56.365,-59.713,-32.14,-35.799,-41.755,-82.749,-49.611,-49.776,-54.643,-53.758,110.651,-69.297,-55.01,-56.791,-50.192,-55.07,7.585,-62.921,-69.682
3.120205100000021,-53.034,-43.016,-33.831,-41.43,-32.455,-32.822,-38.887,-42.83,-31.566,-38.341,-45.55,-48.383,-23.911,-26.541,-35.053,-69.859,-38.803,-40.505,-38.194,-46.532,118.737,-62.055,-43.171,-44.951,-39.896,-45.793,16.799,-53.125,-55.78
3.1202602999997,-39.149,-27.092,-17.915,-20.896,-30.886,-22.543,-32.188,-26.905,-33.072,-34.204,-40.894,-42.699,-22.35,-20.367,-25.285,-59.543,-30.055,-35.341,-32.521,-37.776,122.717,-53.796,-41.079,-39.783,-29.61,-43.186,23.442,-37.702,-43.429
3.1353494999998475,-42.696,-31.163,-26.607,-25.486,-35.978,-25.594,-24.471,-27.903,-39.699,-41.854,-44.439,-47.779,-26.938,-24.445,-23.722,-65.119,-39.759,-46.577,-43.247,-41.325,114.909,-59.89,-50.26,-49.478,-39.314,-50.315,18.295,-40.226,-52.607
3.13541320000013,-41.116,-32.157,-31.191,-25.46,-25.696,-22.495,-29.057,-25.314,-27.363,-32.079,-35.173,-34.924,-14.616,-19.298,-23.186,-51.734,-33.059,-38.333,-33.47,-36.673,118.381,-57.269,-40.475,-43.793,-40.812,-44.63,26.474,-40.698,-55.116
3.1503029999998944,-27.755,-23.927,-17.327,-14.164,-9.789,-15.3,-27.491,-18.628,-12.479,-18.214,-25.404,-16.446,-2.306,-6.471,-16.503,-28.628,-13.558,-16.778,-15.505,-23.316,126.971,-41.842,-27.115,-28.892,-23.353,-34.851,41.817,-33.485,-45.327
3.1503606000001128,-29.777,-26.977,-13.211,-20.297,-13.877,-21.945,-16.705,-21.684,-17.077,-27.418,-28.453,-20.528,-11.013,-6.464,-11.876,-31.161,-15.082,-15.736,-14.977,-23.805,119.672,-36.165,-27.088,-26.302,-16.669,-33.792,37.677,-30.89,-45.794
3.165712099999837,-39.481,-32.073,-21.395,-26.937,-18.987,-28.583,-27.959,-23.711,-24.233,-36.612,-34.06,-34.852,-20.736,-14.655,-18.012,-43.425,-19.165,-20.331,-15.987,-29.417,108.282,-38.69,-24.499,-27.812,-23.313,-34.27,28.417,-29.322,-52.409
3.1657775999997284,-37.392,-30.505,-24.96,-24.349,-12.308,-24.456,-40.227,-25.224,-24.208,-30.94,-37.099,-40.453,-22.252,-15.152,-25.166,-48.505,-15.56,-17.75,-15.459,-26.313,104.075,-40.701,-22.426,-26.76,-21.752,-33.724,31.975,-25.707,-48.77
3.1803835999999137,-26.084,-21.252,-17.25,-20.738,-4.098,-15.722,-15.084,-25.711,-20.598,-26.81,-31.427,-37.338,-18.643,-9.502,-15.919,-45.895,-15.032,-16.195,-12.37,-20.652,102.946,-36.562,-21.378,-21.61,-13.021,-29.079,43.214,-17.997,-38.987
3.1954295000000457,-12.738,-4.325,-8.012,-4.324,19.472,-5.46,5.936,-9.804,-9.307,-16.025,-15.002,-26.03,-7.866,-3.345,-5.145,-32.529,-6.308,-11.056,-2.111,-16.532,105.917,-26.279,-9.062,-10.318,-4.299,-19.316,52.392,-2.097,-33.313
3.1971057999999175,-4.528,3.876,-11.59,12.587,52.24,-4.43,-4.828,7.624,-1.101,-4.226,-5.253,-14.733,-0.686,-0.78,-11.8,-22.762,-1.178,-9.508,-1.597,-14.979,110.422,-24.716,-3.93,-7.233,0.316,-18.272,50.291,7.639,-31.743
3.1971589999998287,-2.987,2.335,-13.115,8.476,62.434,-11.598,-4.311,3.006,-3.661,-7.808,-6.784,-9.596,-1.71,-2.316,-14.35,-20.69,-9.886,-17.183,-6.718,-15.989,104.676,-28.277,-11.61,-10.3,0.828,-19.791,49.216,10.193,-28.637
3.210402499999873,-1.447,6.432,-2.343,1.295,54.175,-10.562,9.013,-9.293,-0.583,-10.362,-5.241,-8.561,-0.171,-1.289,-4.601,-15.547,-7.315,-17.166,-1.076,-16.485,95.862,-24.663,-13.648,-7.216,1.34,-15.673,56.851,14.793,-24.51
3.210464199999933,-7.081,2.839,-6.44,-2.805,45.411,-12.6,-2.267,-11.333,-0.583,-10.864,-10.871,-14.188,-1.708,-1.8,-7.158,-19.63,-1.16,-18.685,-5.686,-20.055,90.643,-30.273,-18.245,-10.795,-1.223,-21.292,50.134,7.094,-29.609
3.2244605999999294,-13.221,-7.41,-19.241,-9.974,38.194,-21.297,-15.584,-9.784,-10.316,-24.173,-22.131,-19.809,-6.317,-5.897,-15.348,-26.27,-4.232,-25.327,-12.852,-23.108,87.479,-34.854,-21.301,-15.395,1.339,-27.419,38.813,-2.647,-35.727
3.2245201999999153,-0.913,-0.743,-11.537,-5.866,44.303,-15.64,-8.909,-9.262,-5.695,-22.612,-13.912,-11.08,-0.163,1.282,-5.087,-10.874,13.19,-10.957,3.554,-10.79,91.49,-16.888,-2.836,2.039,15.683,-12.534,49.533,9.139,-27.494
3.2393890999996984,9.847,7.967,-1.792,1.312,56.042,-5.891,-10.949,-8.228,5.069,-8.244,-2.115,-0.311,7.009,13.063,5.165,2.456,39.305,3.911,15.334,0.492,96.521,-6.113,9.462,11.771,23.864,-1.763,58.193,15.79,-17.733
3.239447299999938,4.201,2.324,-4.351,0.286,54.961,-8.959,-21.184,-3.609,-2.108,-13.872,-8.26,-2.36,3.416,11.513,1.061,-2.669,37.728,-4.29,8.659,-4.12,92.839,-13.792,3.305,0.488,18.205,-8.422,49.938,6.04,-18.74
3.254481500000111,4.71,2.322,-2.298,5.922,54.906,-9.974,-15.528,3.054,-9.791,-21.542,-11.326,-7.993,-1.71,3.817,-3.551,-4.203,29.494,-7.872,8.138,-7.702,85.061,-13.265,2.789,-0.537,19.723,-9.95,49.888,7.058,-20.77
3.254547399999865,2.143,-0.242,-6.906,3.354,55.876,-14.063,-5.266,-3.609,-8.756,-21.521,-13.364,-18.231,-11.442,-2.847,-9.695,-13.421,24.854,-10.938,-0.58,-13.329,72.169,-20.937,-4.898,-5.147,16.117,-15.576,47.789,1.928,-27.409
3.2694948999996996,-14.253,-17.66,-25.342,-19.703,37.889,-27.881,-4.749,-22.561,-14.895,-35.332,-29.744,-32.557,-22.702,-15.139,-22.493,-34.924,9.459,-31.419,-20.559,-29.198,54.166,-43.97,-27.947,-27.683,-4.903,-31.954,30.835,-20.615,-46.85
3.285650999999689,-13.726,-23.278,-30.952,-24.294,27.093,-25.292,-4.744,-25.612,-16.417,-38.37,-30.227,-30.988,-19.093,-18.71,-22.983,-33.352,4.839,-37.535,-19.514,-28.656,52.575,-41.364,-27.919,-29.705,-10.534,-32.434,27.218,-24.181,-54.487
3.285712699999749,-0.392,-12.496,-23.237,-8.388,37.312,-11.434,-7.813,-10.729,-6.155,-20.401,-13.29,-15.588,-8.828,-4.347,-9.127,-16.413,18.667,-21.616,-7.711,-14.283,61.231,-25.441,-9.448,-14.306,3.821,-20.619,39.998,-12.373,-42.65
3.299541099999715,-2.441,-9.922,-22.189,-8.38,38.299,-12.96,-14.465,-6.62,-1.538,-17.819,-14.302,-11.986,-3.696,5.391,-3.995,-14.347,25.82,-17.496,-9.241,-13.756,57.584,-29.514,-12.0,-12.755,3.818,-20.086,42.52,-10.312,-37.484
3.299603500000103,-4.488,-11.962,-21.655,-12.982,33.138,-13.971,-14.963,-12.249,-1.536,-24.461,-17.874,-13.511,-0.618,3.849,-7.065,-13.308,25.795,-20.04,-10.256,-17.841,50.354,-33.071,-21.21,-10.693,-1.309,-23.139,38.379,-7.228,-41.545
3.3145025999997415,-2.434,-10.925,-21.121,-9.383,38.228,-8.322,-15.973,-10.187,-3.584,-21.363,-9.659,-11.448,-3.179,2.821,-11.669,-13.807,24.232,-18.483,-12.295,-15.774,44.668,-35.087,-19.139,-10.682,8.426,-23.629,33.729,-6.196,-38.43
3.316219799999999,-13.19,-17.574,-28.272,-15.522,37.677,-17.023,-20.055,-11.714,-12.802,-28.002,-19.895,-21.17,-13.934,-1.281,-19.854,-27.113,16.011,-22.563,-20.992,-23.955,32.84,-46.323,-21.169,-24.504,9.442,-30.265,24.986,-16.948,-40.953
3.329590299999836,-16.763,-20.118,-32.854,-21.654,35.59,-26.227,-13.887,-18.875,-17.4,-37.195,-32.683,-31.908,-19.556,-6.915,-21.883,-28.111,14.97,-22.541,-20.459,-27.517,28.197,-41.666,-24.222,-21.405,1.236,-29.21,28.035,-16.419,-50.133
3.329654799999844,-1.89,-5.241,-21.551,-8.824,46.313,-15.955,-5.676,-10.147,-7.136,-26.399,-18.306,-19.068,-14.926,-1.272,-9.566,-11.177,27.25,-11.247,-5.581,-11.608,39.439,-21.132,-10.366,4.231,8.407,-13.299,44.913,0.504,-37.276
3.3446375999997144,6.309,6.035,-8.209,3.48,58.05,-2.619,-6.183,4.208,5.678,-11.516,-3.431,-1.631,-7.226,8.975,2.739,1.13,36.445,-1.502,7.744,-1.35,42.474,-12.401,3.989,11.4,22.231,-3.552,52.553,11.262,-19.307
3.3447009999999864,-0.357,-4.73,-17.935,-7.282,52.869,-5.69,-7.202,-1.432,5.16,-13.042,-8.038,-4.703,-4.145,7.941,-0.338,5.227,31.798,-3.038,5.687,-8.009,31.673,-18.024,-4.212,-5.518,18.622,-14.307,42.254,3.566,-31.071
3.3595758000001297,-12.652,-23.168,-41.483,-29.304,30.787,-19.517,-11.805,-16.799,-10.726,-27.373,-17.764,-13.92,-9.776,1.786,-13.657,-2.463,22.032,-12.256,-6.614,-12.612,22.42,-30.302,-22.65,-20.369,0.161,-29.662,27.868,-17.955,-54.606
3.359633600000052,-20.324,-27.243,-45.028,-33.885,11.288,-22.059,-24.601,-27.029,-17.376,-32.469,-21.844,-15.955,-13.865,4.345,-17.742,-15.268,20.473,-17.879,-11.73,-14.136,19.323,-36.931,-23.14,-21.886,-11.11,-30.145,24.766,-28.695,-56.601
3.374548799999957,-13.644,-22.605,-33.2,-24.63,-1.531,-7.18,-31.749,-29.563,-4.55,-23.215,-19.261,-14.402,-9.753,9.464,-10.04,-12.179,24.039,-13.763,-8.132,-15.147,16.743,-32.284,-15.945,-16.229,-7.513,-25.504,34.475,-18.933,-49.372
3.376255300000139,-13.118,-27.193,-35.728,-30.753,-28.681,-3.586,-31.205,-25.435,-7.62,-26.265,-21.291,-18.999,-14.866,3.819,-6.444,-13.703,18.379,-14.261,-13.247,-14.619,10.066,-37.887,-23.101,-18.262,-4.432,-31.114,39.051,-20.451,-53.933
3.3897306999997454,-27.962,-35.363,-44.401,-44.042,-46.583,-17.927,-30.661,-28.996,-28.104,-43.145,-35.102,-31.787,-28.171,-5.406,-10.536,-30.596,9.139,-20.907,-22.455,-20.752,0.834,-48.095,-30.762,-25.416,-9.55,-36.718,26.205,-31.189,-61.564
3.389803199999733,-29.983,-30.717,-40.771,-34.777,-19.385,-25.082,-26.02,-35.115,-25.515,-43.614,-39.165,-36.366,-27.631,-5.913,-10.525,-31.078,12.204,-18.837,-21.408,-24.318,-1.216,-40.362,-23.559,-19.755,-6.979,-31.558,17.469,-19.887,-55.867
3.404712699999891,-17.658,-20.952,-36.119,-19.373,8.812,-17.884,-20.358,-22.272,-12.169,-33.837,-26.831,-26.596,-20.943,-1.809,-8.978,-19.263,19.876,-13.695,-15.239,-16.609,2.371,-34.687,-17.388,-8.977,3.274,-27.94,24.112,-6.547,-44.028
3.404774300000099,-16.615,-19.907,-33.009,-18.841,-1.956,-10.182,-21.875,-12.003,-16.768,-36.365,-24.755,-25.545,-22.459,-2.319,-9.481,-24.88,17.295,-16.243,-14.199,-14.543,1.345,-43.361,-23.006,-13.579,1.221,-30.474,26.137,-12.176,-43.984
3.420044599999983,-23.259,-22.961,-30.927,-21.896,-11.687,-12.733,-22.878,-22.238,-19.825,-37.865,-31.902,-34.228,-22.949,-6.927,-11.008,-32.539,8.568,-21.35,-21.87,-22.725,-6.341,-47.929,-27.594,-22.274,-10.563,-35.567,16.889,-16.262,-52.137
3.434664200000043,-25.285,-25.499,-40.118,-23.411,-3.991,-20.918,-22.855,-24.777,-16.731,-34.241,-30.846,-32.657,-17.803,-9.482,-15.608,-29.945,5.486,-24.915,-27.996,-24.752,-11.971,-50.442,-30.128,-23.789,-20.799,-39.117,12.261,-17.27,-57.72
3.434722299999976,-18.087,-27.523,-47.25,-24.925,-1.938,-14.749,-25.393,-12.969,-14.153,-29.084,-23.643,-20.842,-11.637,-4.35,-14.568,-23.768,8.042,-23.865,-22.332,-20.116,-8.372,-51.416,-32.147,-21.716,-21.802,-32.418,18.397,-24.425,-58.687
3.4497756999999183,-2.7,-20.836,-36.444,-20.289,8.823,-1.926,-23.831,-5.784,-2.356,-16.247,-11.324,-7.501,-1.379,6.413,0.816,-6.838,17.768,-8.984,-10.527,-11.387,2.907,-34.459,-23.918,-13.497,-4.362,-20.09,28.112,-16.716,-51.456
3.4498411999998098,1.401,-11.593,-30.26,-15.658,24.695,-6.535,-18.172,-1.679,2.257,-8.546,-2.091,0.704,4.257,12.555,10.549,8.026,27.484,3.32,-3.344,-0.617,8.027,-23.666,-13.136,-4.774,12.036,-19.558,32.183,-3.892,-44.233
3.464827400000104,-8.846,-14.143,-37.402,-19.228,18.523,-14.726,-19.691,-7.313,-10.553,-18.784,-8.236,-3.395,-1.895,7.419,0.804,0.846,22.846,-4.368,-5.39,-1.129,-0.69,-34.401,-16.709,-7.843,2.29,-27.223,26.515,-10.548,-47.262
3.464889899999889,-4.227,-20.789,-36.34,-21.258,10.307,-7.026,-24.794,-19.601,-10.03,-23.376,-10.79,-9.54,-5.479,1.776,-4.319,-5.815,13.601,-12.048,-8.458,-5.226,-3.763,-37.952,-24.376,-12.446,-4.884,-27.708,23.415,-14.124,-48.24
3.4798068999998577,11.147,-13.596,-27.082,-12.528,20.543,3.739,-23.232,-9.848,2.276,-12.082,2.029,-1.846,0.162,8.434,6.956,4.949,20.248,-1.79,-2.302,2.464,4.95,-25.107,-16.667,-3.212,8.953,-21.533,33.125,-0.277,-38.97
3.4798688000000766,9.599,-5.898,-27.055,-8.417,26.67,6.297,-18.086,7.581,0.224,-8.484,5.101,5.329,2.723,14.574,12.584,7.506,26.375,4.872,2.823,9.634,7.506,-19.959,-8.966,4.988,13.042,-14.851,38.727,2.797,-35.857
3.4947895000000244,-0.657,-14.089,-33.688,-15.581,22.545,3.217,-15.506,0.401,-5.924,-15.135,-5.663,-2.361,-1.378,6.874,6.936,-0.699,15.59,-3.842,-3.84,5.013,-1.723,-24.037,-14.08,0.372,1.246,-15.861,30.492,-9.501,-41.969
3.4948497999998835,-0.656,-20.222,-30.58,-18.127,20.473,-0.885,-11.392,-8.309,-4.381,-16.145,-6.682,-7.482,-1.889,0.72,9.491,-1.21,9.427,-5.888,-5.373,-0.115,-6.332,-26.575,-15.603,-2.702,-0.804,-20.968,28.412,-13.078,-40.902
3.5098668999999063,3.443,-10.468,-13.644,-6.838,17.379,2.19,-7.283,3.995,1.259,-7.419,-1.552,-1.327,3.749,5.842,15.629,3.914,17.102,3.34,3.342,1.422,-4.276,-25.011,-8.928,3.448,-2.34,-18.386,38.117,-6.405,-32.664
3.509930499999882,1.903,-6.359,-6.458,0.854,16.337,3.212,-12.911,11.675,4.331,-3.313,-3.6,0.211,7.843,6.861,8.441,0.836,19.647,4.361,-0.248,2.445,-5.809,-28.06,-13.017,1.395,-11.56,-16.318,39.616,-3.837,-29.558
3.524874700000055,-7.321,-16.087,-19.259,-8.369,20.419,-9.086,-22.119,-1.656,-3.357,-13.556,-10.256,-10.547,2.712,1.219,-3.863,-9.923,10.406,-5.377,-13.055,-3.192,-14.0,-41.352,-28.373,-12.438,-8.474,-28.085,25.744,-13.567,-36.188
3.5249377000000095,-13.461,-20.681,-26.924,-19.119,23.985,-15.225,-23.122,-14.975,-11.551,-20.203,-13.832,-16.172,-6.0,-1.856,-6.421,-17.085,1.686,-8.958,-15.604,-9.337,-20.134,-47.97,-29.37,-19.086,3.83,-33.692,18.034,-18.676,-44.349
3.5402211000000534,-4.226,-13.489,-16.139,-14.489,29.596,-4.451,-22.074,-10.349,-4.367,-12.498,-9.72,-6.934,-2.407,0.707,-0.779,-10.921,4.246,-2.801,-8.928,-3.18,-16.015,-36.652,-13.971,-7.796,2.801,-21.875,26.725,-6.875,-36.108
3.5549145999998473,3.463,-5.278,-4.852,-2.691,37.251,-0.348,-25.638,-2.142,2.297,-10.436,-1.513,0.757,5.28,5.829,4.345,-0.151,13.975,7.448,-2.771,4.508,-9.339,-27.394,-6.785,3.995,-4.374,-13.656,30.285,3.378,-19.678
3.5549748999997064,-2.689,-5.785,-3.823,-0.64,41.825,-9.57,-26.125,-5.726,-4.365,-16.061,-3.049,-1.293,3.225,9.922,3.828,2.41,16.523,15.125,1.842,3.991,-11.379,-28.903,-10.876,2.454,3.827,-14.667,23.082,-1.748,-20.17
3.5550207999999657,-4.223,-8.853,-3.819,-7.299,48.443,-11.609,-22.0,-5.208,-7.435,-16.045,-8.169,-0.779,-1.901,10.937,-1.298,1.896,13.945,19.721,3.89,3.475,-13.929,-27.337,-9.841,-0.622,15.094,-13.628,20.497,-3.283,-25.786
3.5699601000001167,1.929,-4.746,0.283,-5.755,53.005,-6.987,-16.343,7.093,-3.329,-13.98,-6.111,2.295,-1.899,11.95,0.24,4.455,17.005,21.75,4.398,7.058,-10.842,-24.236,-4.196,3.477,10.469,-12.078,22.526,4.405,-18.588
3.5700314000000617,0.903,0.894,1.308,2.448,51.416,-3.394,-9.154,14.77,-1.276,-11.404,-1.494,-0.269,0.152,12.451,5.875,3.939,16.988,19.679,3.369,7.05,-10.318,-24.212,-8.29,4.498,3.286,-12.578,20.967,7.986,-12.934
3.585015099999964,2.951,0.893,-0.743,3.982,59.049,2.757,-1.973,15.268,1.799,-4.733,2.606,2.293,4.25,11.414,3.308,3.935,11.335,15.561,2.853,5.506,-8.771,-22.651,-11.355,3.981,9.942,-8.979,24.02,7.466,-14.458
3.585081799999898,10.12,-3.718,-2.791,-2.681,70.773,5.316,1.103,15.253,4.871,0.395,7.726,11.513,8.857,9.353,2.28,7.517,10.812,16.058,3.363,6.526,-5.176,-21.603,-6.733,8.588,16.08,-5.896,33.217,4.897,-18.029
3.6003522999999404,1.913,-13.448,-12.522,-12.413,59.431,-4.423,-4.021,5.504,0.255,-5.241,2.083,5.353,6.799,3.708,4.839,4.436,8.239,16.042,-2.276,3.958,-13.88,-28.242,-9.288,5.505,8.892,-14.087,31.135,-4.329,-28.257
3.600448099999994,-10.896,-23.681,-26.854,-21.622,33.244,-12.103,-15.288,-4.236,-5.893,-16.506,-10.215,-8.997,-0.381,-2.955,-0.289,-7.864,0.547,9.366,-10.983,-1.17,-25.137,-35.898,-16.451,-3.209,7.346,-24.319,23.419,-15.596,-38.475
3.6150244000000384,-6.275,-23.145,-24.266,-22.625,26.039,-7.48,-21.42,0.379,-3.325,-17.002,-8.155,-4.377,1.157,0.634,-0.801,-7.856,2.083,9.869,-3.287,3.955,-19.989,-31.764,-11.312,0.892,17.585,-23.27,28.519,-19.679,-33.314
3.6299934999997276,-0.633,-19.536,-16.045,-19.528,38.82,-1.837,-16.788,4.477,1.801,-7.763,1.075,7.411,8.84,9.855,7.397,4.959,8.741,21.129,10.036,13.172,-11.26,-20.974,-3.103,8.064,21.153,-15.05,35.662,-19.659,-28.157
3.6317355000001044,-5.756,-24.639,-21.664,-21.046,49.028,-6.446,-7.55,0.887,0.263,-10.83,-2.0,2.792,10.368,9.845,3.803,4.954,9.757,22.133,5.415,9.573,-16.372,-21.977,-5.662,6.007,16.521,-16.06,28.967,-22.713,-34.789
3.645075899999938,-9.336,-27.689,-23.692,-20.512,54.102,-14.125,-7.03,6.009,-2.812,-19.528,-7.634,-2.846,6.259,6.761,-5.935,-2.735,9.747,15.963,-3.3,1.366,-23.015,-29.64,-10.267,3.439,14.968,-20.654,26.376,-23.715,-36.291
3.645140000000083,-3.691,-17.927,-8.811,-9.221,69.929,-10.524,-16.244,13.688,3.339,-9.775,-1.991,5.354,8.815,11.877,-2.342,2.903,10.762,19.533,-0.222,3.927,-19.406,-26.536,-9.744,5.997,13.416,-16.535,35.571,-12.933,-24.472
3.6604840999998487,5.534,-5.614,2.469,-0.503,87.278,-1.804,-20.327,9.575,11.02,2.018,7.233,13.546,15.466,16.989,5.857,13.146,12.8,23.612,3.876,10.07,-14.776,-19.85,-6.661,10.602,10.329,-7.81,37.585,-0.112,-14.714
3.6605583999999,5.528,-4.584,0.417,-1.527,87.703,-4.877,-12.622,1.881,3.325,-6.693,6.713,11.483,15.963,13.898,6.363,12.62,13.812,19.49,1.311,7.499,-15.273,-23.416,-6.654,13.665,5.708,-8.314,31.912,0.4,-17.26
3.6750167000000147,-1.137,-12.776,-4.194,-6.648,81.467,-13.069,-6.974,-3.756,-12.56,-14.371,2.096,8.91,11.336,9.273,1.746,11.071,10.212,18.446,0.285,3.393,-18.844,-24.417,-10.234,10.578,2.628,-13.941,31.368,-4.723,-22.879
3.6750793000001067,1.938,-12.251,-2.653,-5.617,86.509,-8.445,-14.651,-9.9,-12.548,-5.135,6.192,11.975,12.862,11.825,3.281,15.158,12.251,24.063,4.383,9.537,-16.776,-18.758,-5.613,10.567,11.847,-11.366,35.435,-2.669,-17.733
3.690018599999803,9.108,1.081,1.96,3.098,94.619,-4.338,-25.395,-12.964,-2.801,-1.031,12.846,16.061,16.435,20.01,13.012,19.242,22.485,27.625,10.526,17.212,-11.636,-17.714,4.639,16.192,29.254,-5.719,37.449,1.944,-7.981
3.691660800000136,1.927,3.13,-5.214,3.607,87.865,-13.555,-29.98,-14.488,-6.385,-9.74,5.661,11.434,10.271,19.99,10.95,15.124,20.926,26.061,7.954,10.535,-15.211,-19.233,1.048,12.077,36.397,-10.324,31.264,1.43,-11.047
3.7050696999999673,-5.76,-9.169,-19.554,-9.717,70.358,-20.201,-33.024,-14.473,-14.063,-14.853,-6.128,3.226,1.551,10.749,-0.332,4.863,11.683,23.473,0.262,1.303,-23.905,-20.239,-7.15,6.43,32.774,-13.9,25.085,-3.695,-21.282
3.705132699999922,0.394,-8.135,-20.046,-14.83,63.628,-15.058,-28.381,-10.36,-7.901,-9.715,-0.486,5.784,7.185,13.3,6.328,5.882,18.331,27.036,3.335,7.449,-21.319,-19.706,1.567,15.645,33.254,-8.763,35.306,-4.203,-20.748
3.7201452999997855,5.004,1.095,-16.44,-7.13,55.88,-5.822,-21.18,-7.276,-0.209,-4.582,7.711,11.926,14.862,21.996,19.642,11.512,24.461,29.058,8.455,14.102,-14.126,-17.637,6.176,18.191,36.807,-7.729,48.59,-2.662,-17.654
3.7202188000001115,-2.685,-6.591,-25.645,-10.71,23.548,8.017,-27.306,-6.757,0.304,-3.553,1.043,5.254,10.749,9.678,17.573,0.742,10.092,20.32,1.274,7.428,-17.186,-23.255,-7.662,1.779,28.061,-17.968,44.443,-12.393,-28.907
3.7350860000001376,-13.441,-20.417,-35.866,-21.97,-8.751,19.279,-30.353,-6.238,1.328,-3.549,-6.642,-3.973,6.128,-2.114,17.043,-12.579,-0.677,8.516,-6.924,2.297,-25.878,-36.552,-17.389,-12.055,10.102,-27.684,33.128,-29.799,-45.784
3.7351441000000705,-18.551,-28.593,-40.441,-25.021,-30.259,12.6,-14.441,-14.428,-0.722,-8.157,-9.197,-6.53,5.609,4.035,18.563,-14.103,-1.701,1.335,-10.503,2.295,-30.462,-44.2,-20.957,-20.753,-1.179,-33.804,23.361,-42.065,-56.497
3.7500749000000724,-22.631,-37.786,-48.597,-32.681,-40.987,2.854,-13.402,-26.197,-11.48,-18.907,-18.41,-14.208,-2.081,-4.166,8.811,-24.848,-11.945,-7.888,-19.202,-4.88,-36.067,-50.816,-32.207,-28.929,-5.789,-39.918,16.678,-49.707,-61.563
3.752039599999989,-27.219,-40.822,-48.036,-42.382,-61.951,7.974,-31.832,-26.683,-17.104,-21.962,-24.027,-23.415,-8.739,-19.018,5.216,-36.606,-18.081,-11.466,-22.769,-9.486,-41.154,-57.425,-36.273,-27.875,-4.246,-43.976,19.735,-51.195,-58.94
3.7652226999998675,-20.532,-31.048,-31.594,-30.044,-68.549,17.187,-24.115,-18.972,-10.427,-13.231,-13.756,-17.244,-3.095,-5.167,22.117,-23.249,-5.767,-1.208,-12.5,1.795,-32.404,-44.56,-22.405,-17.089,8.566,-37.785,32.523,-37.311,-43.512
3.765288199999759,-1.043,-20.258,-17.73,-12.596,-66.943,25.367,-2.574,-10.756,0.342,-6.557,-2.984,-3.395,2.544,8.67,35.414,-5.807,5.509,7.502,-1.217,13.576,-15.465,-29.658,-12.136,-6.826,21.365,-25.451,47.347,-19.855,-26.562
3.780255699999998,5.105,-18.701,-16.176,-16.169,-82.245,33.539,-8.719,-8.184,0.854,-6.551,-4.518,-2.879,-1.045,0.465,33.842,-8.363,2.43,0.835,-2.24,13.05,-13.401,-36.801,-16.223,-8.356,20.319,-22.352,52.423,-18.811,-25.511
3.7803180999999313,-9.244,-27.904,-21.283,-25.375,-99.069,28.382,-25.617,-16.372,-8.881,-11.155,-13.223,-14.659,-10.778,-5.683,29.71,-17.064,-7.819,-7.363,-9.41,5.352,-24.146,-45.473,-23.379,-19.618,14.663,-32.576,40.587,-33.137,-37.269
3.796281999999792,-16.92,-39.147,-27.409,-28.423,-101.532,15.034,-32.763,-24.553,-14.507,-19.853,-20.894,-21.305,-17.427,-7.727,26.606,-24.219,-11.91,-5.819,-13.499,2.786,-29.245,-41.842,-22.843,-23.185,11.063,-38.179,29.788,-41.813,-42.355
3.796348699999726,-9.218,-37.058,-26.357,-28.907,-103.992,18.605,-33.243,-21.967,-12.956,-22.395,-19.849,-18.21,-15.873,-8.231,25.043,-25.732,-3.188,-1.202,-7.338,7.906,-26.654,-38.214,-17.697,-12.915,14.125,-30.456,37.956,-34.599,-34.115
3.8102656000000934,-2.037,-25.751,-15.06,-21.706,-105.937,32.931,-20.914,-17.334,-9.869,-11.102,-10.095,-8.97,-8.172,3.048,31.678,-13.923,8.086,3.922,4.453,14.558,-18.43,-30.491,-9.483,-4.193,25.894,-22.229,50.213,-24.318,-25.884
3.811938999999711,3.601,-22.651,-8.897,-14.512,-102.245,40.07,-15.258,-12.706,-0.638,2.229,0.674,0.773,-1.504,10.217,40.868,-3.151,11.151,6.992,6.497,17.105,-9.703,-23.8,-5.887,-0.091,27.405,-18.62,52.212,-23.781,-25.858
3.8253515999999763,7.183,-23.653,-15.548,-18.596,-101.118,42.592,-29.587,-5.009,7.56,5.813,6.821,5.383,3.108,7.133,44.413,-5.197,9.603,-0.187,0.343,17.6,-9.181,-29.924,-12.541,-0.09,9.447,-20.138,49.086,-26.319,-28.906
3.8403865000000224,7.688,-19.531,-20.656,-17.553,-97.431,42.037,-29.045,-4.491,1.405,5.807,6.814,7.427,4.642,8.663,48.979,-5.192,7.032,-5.31,-1.706,18.095,-13.782,-35.53,-19.188,-6.238,5.339,-23.704,41.865,-24.756,-31.951
3.8404497999999876,8.705,-18.487,-20.635,-14.974,-92.21,38.409,-15.696,-11.147,-2.183,5.289,4.245,8.444,1.564,10.703,50.979,-2.113,7.025,1.867,-1.705,17.564,-14.793,-34.47,-19.169,-11.867,20.703,-27.267,34.138,-26.78,-36.53
3.8553130999998757,5.623,-25.128,-24.713,-22.643,-100.827,38.882,-22.341,-12.673,3.967,3.235,3.217,2.8,0.025,5.569,43.756,-8.258,9.067,3.915,-5.289,13.961,-18.877,-38.534,-20.687,-15.441,27.342,-31.85,31.542,-33.414,-41.617
3.8553759000001264,-1.043,-28.689,-27.25,-24.158,-111.997,37.819,-31.028,-11.123,1.401,-0.355,1.164,-3.863,0.025,2.49,38.589,-14.91,0.349,-4.286,-6.821,11.385,-23.469,-40.544,-24.252,-16.963,23.217,-33.868,30.486,-35.429,-40.551
3.870307799999864,3.057,-23.537,-25.686,-19.01,-104.713,30.609,-25.873,-16.235,-6.797,-2.403,-1.911,-3.859,-4.586,-0.586,41.625,-15.407,-8.873,-4.282,-4.765,11.886,-19.347,-34.868,-20.13,-11.823,25.243,-30.248,26.87,-28.734,-35.387
3.8703660000001037,11.763,-17.878,-27.709,-23.09,-95.899,32.627,-26.36,-16.731,-0.642,0.161,3.214,-0.269,-5.093,-1.098,45.169,-11.293,-2.204,0.846,-0.149,14.948,-12.667,-27.661,-12.425,-0.54,32.39,-22.533,26.33,-21.533,-31.765
3.899387299999944,17.899,-9.664,-23.071,-18.456,-96.828,46.427,-28.895,-5.956,11.141,7.845,13.457,3.318,4.645,4.538,53.833,-0.524,4.97,3.406,8.56,23.642,-7.019,-17.387,-2.679,9.706,43.628,-12.264,35.013,-12.29,-23.024
3.899449900000036,22.492,-2.994,-15.363,-7.679,-98.78,48.942,-33.989,-7.999,11.13,9.374,11.394,5.876,5.153,3.509,57.366,2.551,0.867,2.891,12.138,28.23,-4.451,-10.71,-1.139,10.209,45.121,-9.178,37.54,-9.204,-18.903
3.8994911999998294,12.223,-15.286,-25.081,-17.917,-104.317,34.036,-45.226,-27.971,-2.201,-0.881,-0.4,-0.278,-6.635,-4.179,43.476,-9.747,-4.769,-5.309,1.879,16.931,-12.643,-21.458,-13.946,-4.146,27.658,-23.514,22.645,-24.564,-30.667
3.8995350000000144,6.063,-24.493,-27.618,-25.072,-101.139,31.441,-39.033,-24.869,-7.322,-0.368,2.162,-0.277,-3.555,3.51,37.797,-6.664,-0.154,-4.279,2.39,14.352,-12.631,-22.461,-11.883,-5.679,28.142,-26.564,18.524,-29.662,-28.587
3.914483300000029,20.402,-7.05,-8.635,-8.653,-77.471,48.828,-23.113,2.82,7.03,17.051,20.09,17.141,13.867,16.314,54.665,13.323,13.167,13.656,17.757,31.756,0.702,-4.508,8.622,13.795,52.193,-9.631,31.313,-10.165,-8.066
3.914545999999973,13.721,-8.58,-15.286,-7.62,-73.295,46.73,-30.262,-3.843,7.023,16.009,16.996,16.612,11.804,10.662,55.635,9.723,15.203,12.105,12.104,30.187,-6.471,-9.626,2.978,6.609,43.431,-12.183,23.598,-15.79,-19.329
3.9298328999998375,-11.908,-35.211,-38.837,-24.006,-91.153,26.191,-31.256,-28.942,-9.89,-3.987,-4.025,-2.872,-4.089,2.455,37.137,-7.705,2.892,-2.764,-3.278,13.251,-26.445,-30.621,-14.956,-14.915,22.383,-31.639,4.106,-42.414,-43.9
3.929894399999739,-6.773,-28.003,-22.404,-15.273,-81.328,31.8,-8.171,-9.445,0.878,3.189,-1.46,3.278,1.55,11.674,40.173,-0.525,9.037,10.047,9.021,22.459,-18.221,-19.832,1.453,0.982,43.366,-25.459,11.787,-29.052,-24.389
3.944555799999762,-0.618,-15.168,-3.427,-6.036,-66.39,42.014,-6.114,9.007,14.197,14.457,8.276,8.91,7.697,12.174,50.379,1.525,16.712,16.697,12.598,26.023,-13.08,-11.103,11.697,14.813,50.495,-17.749,16.898,-14.678,-10.02
3.94462220000014,-25.209,-42.817,-26.989,-32.67,-88.352,17.894,-26.087,-23.277,-11.432,-10.148,-15.811,-20.3,-14.853,-8.33,31.886,-27.166,-7.383,-15.083,-17.128,-0.131,-40.731,-38.244,-17.516,-15.428,18.169,-39.761,-9.759,-46.939,-40.236
3.9595561000001,-28.77,-49.434,-37.209,-40.322,-90.826,7.117,-25.037,-31.963,-21.667,-20.384,-28.091,-30.526,-24.059,-16.006,19.046,-38.922,-21.208,-29.925,-22.747,-5.766,-45.301,-45.378,-25.695,-25.659,21.224,-46.381,-17.434,-52.527,-44.806
3.959621799999695,-4.15,-17.11,-7.97,-7.494,-57.947,33.238,-10.155,0.857,8.581,5.764,-2.959,-5.905,-2.518,0.404,35.421,-17.878,0.843,-9.403,0.842,13.195,-21.178,-17.156,-0.566,3.056,53.991,-23.793,6.662,-19.687,-12.999
3.9745500999997603,-4.146,-14.019,0.235,-0.314,-56.865,36.791,-14.243,0.343,11.134,5.758,-1.42,-7.436,0.558,3.477,39.996,-15.299,5.965,-7.344,-4.282,9.084,-27.816,-18.164,-4.152,3.565,48.301,-20.183,9.217,-19.155,-14.01
3.9746111999997993,-19.511,-30.911,-19.745,-23.88,-84.985,15.749,-26.524,-26.297,-15.517,-13.203,-24.984,-27.408,-14.812,-7.797,25.612,-35.263,-10.947,-26.805,-22.72,-3.733,-44.695,-39.662,-24.64,-17.955,15.978,-36.044,-9.748,-42.19,-33.464
4.004482299999836,-13.344,-24.732,-21.775,-17.708,-75.678,20.857,-23.424,-20.635,-14.477,-3.969,-16.25,-21.233,-8.137,-4.716,28.148,-34.203,-8.887,-26.778,-16.038,1.394,-36.453,-31.938,-18.98,-11.277,24.159,-32.422,-7.176,-33.951,-27.283
4.019533000000138,1.014,-15.486,-9.457,-2.834,-43.327,33.131,-12.642,-10.881,-1.655,10.38,4.771,-7.38,3.142,1.949,37.853,-19.825,1.88,-13.943,-5.776,8.052,-29.244,-18.074,-7.69,0.005,41.041,-21.119,5.639,-23.671,-19.059
4.021212399999968,2.55,-17.007,-10.985,-12.565,-27.402,23.877,-16.728,-13.944,-0.629,6.783,2.204,-4.811,0.065,1.947,34.229,-17.243,2.391,-13.417,-7.819,8.044,-31.264,-23.691,-11.781,-3.069,27.68,-23.147,1.022,-29.795,-26.212
4.021274799999901,1.011,-15.453,-17.634,-14.089,-20.202,17.705,-24.908,-7.782,1.421,6.264,2.202,-2.757,2.626,7.068,29.072,-17.738,2.901,-14.94,-7.811,7.012,-26.11,-25.717,-13.306,0.008,23.041,-23.636,-4.614,-26.179,-28.235
4.03467529999989,3.059,-11.852,-18.129,-4.853,-15.059,22.298,-21.809,-6.75,-1.654,6.258,5.274,-4.291,4.161,6.037,30.068,-15.671,1.873,-13.389,-7.291,4.955,-29.158,-21.08,-10.219,2.057,38.9,-17.977,0.001,-18.98,-23.084
4.034742599999845,3.568,-8.766,-17.598,-7.922,-11.97,19.714,-14.103,-13.915,-9.849,-1.433,0.146,-7.873,-5.065,-1.654,33.111,-15.656,0.847,-9.789,-5.235,8.537,-34.252,-18.497,-8.16,-3.58,43.472,-18.984,2.563,-15.375,-22.036
4.0497065999998085,2.54,-1.585,-16.044,-4.841,-3.249,19.182,-9.99,-6.729,-1.643,1.643,3.732,-2.742,-3.523,6.032,36.664,-10.517,12.117,-2.095,2.968,14.163,-27.045,-14.381,-2.516,2.571,41.379,-18.965,4.097,-6.138,-20.477
4.049772399999711,2.537,2.003,-13.466,1.312,1.365,23.774,-13.566,-0.062,9.63,10.35,8.851,0.847,4.677,13.198,35.603,-7.945,18.252,0.981,5.526,11.075,-28.043,-12.317,0.56,10.765,49.022,-15.872,5.63,-5.107,-18.919
4.06468249999989,0.486,-1.073,-13.965,-7.399,-2.223,18.627,-19.701,-6.21,5.522,7.778,-0.892,-5.814,0.574,3.964,30.957,-17.159,6.451,-3.63,-1.139,7.99,-34.675,-17.428,-2.002,3.582,54.096,-19.442,-2.573,-11.25,-19.413
4.064745199999834,-3.613,-6.195,-13.439,-11.49,-2.22,9.387,-8.922,-9.278,2.955,0.598,-6.526,-11.443,-3.525,6.009,26.315,-22.777,4.395,-5.676,-2.675,11.056,-31.054,-20.996,-2.512,1.017,51.993,-24.546,-9.742,-9.19,-21.955
4.079721300000074,-7.196,-12.337,-13.425,-8.404,-1.706,8.865,6.968,-7.219,7.05,-0.939,-6.52,-11.944,3.139,16.249,20.653,-24.291,10.538,-6.183,-3.185,10.533,-33.072,-23.025,-6.608,2.041,47.842,-26.058,-9.22,-14.816,-29.105
4.094756699999834,-7.309,-11.88,-12.968,-7.72,-0.567,8.466,7.593,-7.218,7.391,-0.882,-5.893,-11.943,3.366,16.589,19.911,-23.833,11.22,-6.011,-3.014,10.873,-32.499,-22.111,-5.924,3.236,48.748,-24.974,-9.049,-13.676,-28.134
4.094816599999831,-7.422,-11.423,-12.511,-7.036,0.572,8.066,8.219,-7.217,7.732,-0.825,-5.266,-11.941,3.593,16.929,19.169,-23.375,11.902,-5.84,-2.843,11.214,-31.926,-21.198,-5.241,4.431,49.653,-23.89,-8.877,-12.535,-27.163
4.094855400000142,-7.535,-10.966,-12.055,-6.352,1.71,7.667,8.844,-7.217,8.072,-0.768,-4.639,-11.94,3.821,17.268,18.426,-22.917,12.584,-5.668,-2.671,11.554,-31.353,-20.285,-4.557,5.626,50.559,-22.805,-8.705,-11.395,-26.193
4.094892900000104,-7.648,-10.51,-11.598,-5.668,2.849,7.267,9.47,-7.216,8.413,-0.711,-4.012,-11.939,4.048,17.608,17.684,-22.459,13.266,-5.497,-2.5,11.894,-30.78,-19.371,-3.873,6.821,51.464,-21.721,-8.533,-10.255,-25.222
4.094929999999749,-7.761,-10.053,-11.141,-4.984,3.987,6.868,10.095,-7.215,8.754,-0.654,-3.385,-11.937,4.276,17.948,16.942,-22.0,13.948,-5.325,-2.329,12.235,-30.208,-18.458,-3.189,8.016,52.37,-20.636,-8.361,-9.115,-24.251
4.0949673000000075,-7.874,-9.596,-10.684,-4.3,5.126,6.469,10.72,-7.214,9.095,-0.597,-2.758,-11.936,4.503,18.288,16.2,-21.542,14.63,-5.154,-2.158,12.575,-29.635,-17.545,-2.505,9.212,53.275,-19.552,-8.19,-7.975,-23.28
4.095004499999959,-7.987,-9.139,-10.227,-3.616,6.265,6.069,11.346,-7.213,9.435,-0.54,-2.132,-11.935,4.73,18.627,15.457,-21.084,15.312,-4.983,-1.987,12.916,-29.062,-16.631,-1.822,10.407,54.181,-18.467,-8.018,-6.835,-22.309
4.096746599999733,-8.1,-8.683,-9.77,-2.932,7.403,5.67,11.971,-7.213,9.776,-0.483,-1.505,-11.934,4.958,18.967,14.715,-20.626,15.994,-4.811,-1.816,13.256,-28.489,-15.718,-1.138,11.602,55.086,-17.383,-7.846,-5.695,-21.338
4.096795500000098,-8.213,-8.226,-9.313,-2.248,8.542,5.27,12.596,-7.212,10.117,-0.426,-0.878,-11.932,5.185,19.307,13.973,-20.168,16.676,-4.64,-1.645,13.596,-27.916,-14.805,-0.454,12.797,55.991,-16.298,-7.674,-4.555,-20.367
4.096835100000135,-1.545,3.565,-0.082,11.586,25.952,11.413,17.195,-2.082,17.792,10.333,3.734,-6.797,8.766,19.8,19.594,-19.123,20.245,5.099,1.943,14.607,-26.351,-10.691,6.207,22.518,67.719,-6.036,-12.277,6.208,-9.588
4.109826899999916,-2.056,2.537,7.602,14.136,35.66,14.475,23.325,2.019,23.921,15.958,4.755,-7.815,9.269,15.169,25.21,-21.666,14.077,3.045,-2.67,9.982,-29.399,-15.291,4.663,20.959,66.626,-14.227,-14.827,0.567,-9.579
4.10988610000004,-12.3,-3.101,6.57,7.462,35.112,12.924,31.499,1.505,24.922,13.38,4.238,-13.443,10.285,17.203,16.475,-25.743,14.063,-4.131,-10.864,4.849,-37.054,-21.936,0.048,14.79,62.461,-20.36,-12.25,-7.631,-13.155
