Timestamp,Cz,Fz,Fp1,F3,C1,C3,T7,C5,CP5,CP3,CP1,P1,P3,O1,CPz,Pz,Oz,O2,P4,P2,CP2,CP4,CP6,C6,T8,C4,C2,F4,Fp2
0.0,23.77,-15.543,-13.48,-17.457,13.352,56.732,-20.697,-11.17,5.473,3.313,10.414,2.015,6.112,1.822,26.044,-12.532,25.393,-51.524,9.403,41.307,17.38,-4.556,-7.786,-14.528,-20.777,-11.093,18.857,-9.014,-12.017
6.720000010318472e-05,20.16,-14.503,-15.004,-11.804,9.752,55.651,-25.799,-11.671,3.419,-3.863,8.354,-1.573,-1.066,-5.865,29.092,-14.057,22.294,-56.595,7.857,43.315,13.264,-6.6,-11.877,-16.563,-27.928,-9.545,24.986,-9.517,-16.103
0.015035100000204693,22.189,-12.44,-14.989,-15.378,6.156,56.62,-10.404,-20.369,-0.683,-6.42,5.272,-2.596,-0.04,-30.962,29.575,-16.604,18.173,-57.051,8.874,39.685,12.739,-4.545,-15.451,-16.546,-32.511,-9.535,27.522,-9.507,-12.501
0.015099600000212376,32.413,-6.792,-11.9,-11.777,13.322,60.662,4.463,-14.713,10.588,2.808,16.538,7.14,6.62,-48.35,34.157,-7.366,24.815,-50.846,13.988,45.281,16.824,-0.954,-11.337,-18.066,-28.893,-7.989,31.081,-3.35,-7.878
0.030392200000278535,33.405,-10.371,-13.937,-10.228,18.432,61.113,-0.152,-6.501,18.775,3.829,22.157,13.281,6.101,-40.617,38.221,0.838,29.913,-46.185,17.56,48.822,15.271,-2.49,-10.301,-21.122,-32.962,-7.468,33.099,-9.495,-18.116
0.03045700000029683,24.662,-18.045,-24.682,-18.415,10.217,53.88,-2.201,-6.495,7.485,-5.908,9.327,2.509,-1.59,-30.842,31.523,-10.946,18.612,-52.286,6.784,37.502,6.034,-10.172,-19.0,-26.224,-46.761,-12.584,27.43,-22.293,-24.246
0.04501060000029611,24.638,-14.953,-28.243,-19.421,8.157,53.314,4.973,-8.537,0.305,-6.415,3.682,-8.252,-9.273,-31.836,24.319,-27.328,8.348,-60.943,-8.592,28.756,-0.12,-18.871,-29.227,-30.809,-48.252,-16.157,22.792,-19.709,-15.512
0.046669700000165903,30.761,-7.254,-16.432,-11.717,20.957,61.97,-0.667,-8.017,3.891,0.252,13.412,-7.219,-10.801,-23.095,27.881,-27.301,10.901,-61.394,-11.145,30.264,-2.169,-22.438,-30.223,-28.216,-41.031,-13.067,27.893,-13.542,-8.837
0.06003710000004503,29.193,-6.734,-14.366,-11.705,28.62,59.858,-16.548,-6.472,1.326,-0.773,13.911,-7.724,-8.228,-8.215,28.877,-23.688,15.501,-55.698,-10.109,28.184,-7.802,-23.441,-25.069,-25.114,-39.965,-12.03,29.914,-14.553,-12.414
0.07507800000030329,25.065,-9.801,-28.184,-15.28,22.956,53.138,-26.777,-13.125,-4.823,-6.408,5.7,-9.765,-8.22,-2.059,23.725,-25.713,22.145,-51.031,-14.198,26.107,-13.43,-25.466,-23.507,-24.065,-32.753,-14.579,28.347,-10.952,-15.988
0.07514090000040596,27.089,-10.304,-33.791,-17.826,14.224,50.011,-37.509,-26.432,-8.405,-11.012,3.133,-3.608,-9.237,5.115,26.776,-21.077,31.857,-46.369,-13.671,29.155,-9.83,-20.83,-18.873,-17.893,-20.425,-10.979,31.393,-4.793,-13.41
0.09002400000008492,30.136,-12.343,-30.684,-28.054,10.624,39.203,-44.132,-36.14,-15.056,-15.099,4.155,4.08,-6.153,14.332,31.872,-10.81,32.85,-40.688,-0.85,35.273,-0.086,-5.44,-3.485,-8.141,-13.745,0.816,39.558,-1.715,-6.225
0.09008110000013403,38.815,-8.744,-25.018,-31.1,15.736,38.139,-34.354,-35.591,-15.554,-9.449,10.298,10.736,2.05,16.367,36.963,3.034,33.329,-31.938,20.668,51.632,11.184,14.545,13.937,4.675,-1.948,13.11,51.814,8.021,5.565
0.10502370000040173,51.072,5.097,-9.623,-12.114,24.942,60.13,-25.61,-23.772,0.856,3.368,25.657,22.509,10.245,14.301,49.222,19.424,42.005,-23.709,36.529,67.462,16.296,30.412,24.682,19.015,9.325,20.782,63.545,21.845,21.953
0.10508760000038819,42.312,5.092,7.292,-2.368,18.769,62.119,-23.535,-14.527,9.052,3.365,25.119,20.437,8.185,3.528,48.148,14.282,36.328,-26.247,30.857,59.71,4.497,25.771,21.071,13.873,-2.467,15.638,56.822,17.213,31.153
0.12022000000024491,17.166,-17.967,23.167,-14.661,-3.791,37.466,-15.827,-22.197,-2.74,-9.446,2.552,-1.101,-3.094,-15.943,26.07,-13.397,14.774,-43.127,13.92,39.67,-17.025,2.179,3.119,-7.146,-25.006,-2.821,37.297,-2.272,29.585
0.12028780000036932,13.563,-24.609,54.907,-11.572,-7.373,39.991,-12.737,-16.027,-2.737,-11.486,-1.036,-9.296,-6.677,-19.001,18.36,-24.654,8.1,-52.817,8.783,36.044,-21.618,-6.02,-5.593,-14.311,-23.957,-11.527,33.161,-3.807,40.313
0.13521880000007513,27.382,-8.191,84.566,5.345,11.59,60.443,-16.823,7.555,9.561,-1.228,12.797,0.447,-2.572,-10.272,30.124,-16.945,12.19,-47.129,9.799,40.619,-14.937,2.183,3.634,-6.612,-11.638,-1.27,44.399,12.078,65.376
0.13528600000017832,24.28,-11.257,88.579,-1.832,13.627,51.673,-10.146,-3.211,-1.72,-5.326,4.587,-9.288,-9.229,-15.898,25.483,-26.662,2.444,-47.594,-0.457,31.869,-26.193,-8.065,-3.03,-11.729,-18.286,-3.318,41.281,6.431,66.848
0.1512139000001298,13.498,-27.127,85.417,-18.736,-0.731,40.351,-9.112,-28.823,-18.112,-19.153,-9.25,-29.258,-22.028,-24.591,11.113,-47.128,-8.829,-56.768,-14.289,19.542,-45.122,-29.574,-25.056,-28.111,-35.686,-19.708,28.432,-16.117,52.949
0.1512883000000329,17.07,-23.001,95.065,-15.132,2.344,52.606,-21.398,-13.425,-7.848,-14.523,-1.043,-24.618,-22.518,-18.419,17.762,-46.568,-4.722,-56.199,-17.861,19.01,-43.54,-31.594,-28.105,-34.23,-38.724,-22.25,29.94,-16.101,58.019
0.16517160000012154,22.689,-15.294,109.315,-8.456,10.538,54.09,-15.741,-2.653,-1.18,-6.311,5.105,-12.298,-16.348,-14.302,25.941,-34.226,2.455,-48.971,-14.769,24.114,-36.324,-27.976,-20.904,-27.536,-33.562,-16.592,36.058,-8.4,69.231
0.16523800000004485,19.08,-21.426,117.915,-15.108,-1.255,43.278,-9.065,-34.926,-18.085,-18.6,-2.072,-15.36,-17.356,-18.898,20.28,-32.143,2.453,-44.823,-14.242,25.114,-41.411,-31.534,-24.47,-24.947,-35.066,-19.65,33.46,-14.027,69.162
0.18028250000043045,20.085,-22.429,119.334,-17.654,-9.963,46.308,-32.11,-51.797,-27.288,-27.291,-3.095,-15.344,-19.9,-18.367,22.309,-31.086,6.549,-37.094,-11.154,26.626,-43.931,-26.38,-22.908,-23.897,-32.981,-19.63,37.525,-11.964,71.142
0.18034720000014204,31.336,-11.136,122.801,-8.415,-1.244,50.873,-48.984,-31.253,-23.162,-18.042,4.593,-2.521,-12.196,-6.053,34.07,-14.661,18.325,-23.737,0.128,37.87,-34.153,-11.496,-5.979,-7.48,-15.018,-5.778,51.832,3.417,81.317
0.19526570000016363,42.575,2.707,140.096,9.524,9.003,53.383,-36.64,-17.902,-17.504,-12.389,13.81,8.752,-1.937,12.396,41.72,2.772,29.065,-9.881,8.325,49.103,-26.434,-2.263,8.884,11.996,2.928,9.085,64.588,15.709,94.044
0.19533590000037293,42.021,6.291,150.715,21.297,8.482,64.088,-23.795,-22.495,-12.363,-15.962,14.821,5.669,-5.522,14.433,41.166,-1.329,22.888,-11.92,1.144,41.882,-31.531,-6.359,3.239,7.885,-1.173,6.514,65.548,17.23,98.048
0.21079160000044794,27.634,-4.986,138.269,13.592,-2.285,60.95,-18.649,-30.669,-22.085,-23.119,-0.051,-9.193,-18.836,-7.611,29.854,-22.845,0.836,-33.425,-12.177,28.008,-41.745,-16.599,-14.695,-11.59,-22.177,-8.862,52.675,1.844,77.97
0.21085990000028687,17.872,-13.178,128.397,8.967,-14.066,49.619,-14.019,-31.151,-33.333,-27.706,-4.662,-15.844,-22.916,-25.022,22.14,-31.019,-7.874,-39.539,-8.579,30.541,-45.802,-16.07,-15.705,-18.239,-32.401,-12.439,41.864,-13.015,57.912
0.22529890000032538,20.416,-11.116,129.293,21.766,-11.49,59.303,-17.079,-14.726,-17.419,-16.408,10.2,-7.631,-13.671,-21.923,28.778,-20.229,1.868,-19.52,7.311,39.732,-42.17,-6.32,-0.832,-15.659,-25.196,-7.816,46.945,-9.928,61.953
0.2253642000000582,20.908,-17.252,117.38,20.72,-6.356,69.49,-17.062,-5.49,-2.544,-2.559,12.239,-7.111,-7.51,-15.241,29.261,-21.234,-2.745,-14.889,8.329,36.106,-43.153,-4.265,1.73,-16.668,-23.634,-12.419,49.46,-9.918,55.231
0.24030190000030416,18.326,-26.969,99.332,0.207,-10.448,62.248,-10.385,-21.878,-12.788,-6.143,1.981,-16.838,-12.113,-19.837,22.572,-34.02,-19.648,-28.707,0.636,31.972,-50.794,-8.359,-4.419,-16.651,-30.27,-14.456,44.287,-16.568,33.659
0.24038060000020778,18.82,-24.38,89.499,-6.966,-13.511,60.136,-14.985,-26.467,-13.8,-10.748,4.028,-17.334,-16.2,-30.063,26.136,-35.523,-22.702,-27.141,-0.902,32.964,-52.793,-11.425,-3.902,-14.073,-26.142,-8.293,45.268,-10.404,30.551
0.2553591000000779,16.751,-25.893,73.016,-3.885,-12.985,62.638,-23.167,-3.899,-4.052,-7.663,6.073,-14.755,-14.134,-36.693,27.646,-31.901,-21.143,-22.503,-7.049,27.808,-52.227,-18.073,-11.071,-21.231,-22.017,-12.896,46.247,-12.443,27.447
0.27076330000045346,18.272,-32.527,52.963,-5.931,-10.411,60.526,-16.996,-0.309,-9.683,-9.704,2.993,-15.765,-14.12,-35.631,23.008,-32.894,-25.732,-26.579,-16.775,24.194,-58.323,-27.277,-23.355,-33.506,-32.753,-20.568,42.102,-26.262,5.39
0.2708255000002282,27.987,-25.322,45.225,-6.949,1.895,62.515,-6.221,-21.825,-11.211,-9.182,10.162,-6.527,-13.594,-26.887,28.108,-26.201,-23.145,-22.454,-15.734,30.83,-57.752,-27.762,-24.356,-31.935,-39.893,-15.936,47.695,-25.212,-1.788
0.2854554000000462,35.132,-18.125,38.008,-10.528,10.09,65.014,-11.338,-22.828,-4.539,-4.05,19.374,3.213,-7.945,-18.15,38.838,-13.88,-18.511,-16.796,-10.083,34.898,-46.424,-19.025,-19.209,-21.145,-34.218,-11.31,58.406,-17.502,3.849
0.2855279000000337,40.732,-21.18,27.211,-11.542,7.518,64.436,-35.405,-9.485,-8.121,-4.046,24.99,6.796,0.26,-11.985,45.972,-2.595,-17.468,-13.706,-3.925,40.498,-37.156,-6.71,-12.017,-14.976,-23.937,-5.151,68.082,-16.972,-2.302
0.3004038000003675,48.888,-18.598,22.573,-2.309,10.585,69.495,-56.886,-17.673,-6.576,-0.456,31.625,16.011,4.359,-5.825,53.61,9.703,-10.79,2.189,7.35,51.728,-30.459,4.567,-3.296,-9.326,-13.155,9.712,77.235,-10.295,-8.96
0.30236120000017763,44.741,-21.141,12.304,-7.942,8.525,65.839,-52.219,-32.512,0.091,0.057,25.958,14.97,-1.794,-5.819,51.508,8.156,-7.706,12.433,7.342,50.14,-28.379,0.977,-5.854,-7.779,-14.166,8.677,73.572,-11.822,-14.074
0.31545260000029884,26.253,-37.001,-3.589,-28.939,-12.488,44.769,-32.186,-27.869,-16.816,-20.948,4.927,-7.074,-15.112,-17.084,35.575,-12.344,-16.92,2.687,-6.497,34.208,-41.158,-14.394,-16.095,-21.092,-27.985,-10.287,60.178,-28.716,-26.868
0.31551800000033836,17.517,-41.062,0.513,-22.763,-22.21,38.064,-24.982,-17.595,-31.656,-32.198,-1.738,-17.313,-19.195,-25.776,26.317,-22.066,-22.026,1.66,-8.54,29.051,-49.826,-17.453,-15.566,-30.292,-28.981,-16.937,55.507,-35.347,-29.915
0.32947290000038265,27.234,-27.701,15.881,6.974,-6.818,56.982,-27.519,-18.089,-16.767,-11.673,11.584,-4.488,-12.004,-23.701,33.976,-11.285,-15.856,16.003,2.739,37.731,-40.043,-8.726,-5.304,-23.089,-18.194,-10.772,57.501,-28.652,-21.688
0.3295385000001261,33.354,-21.014,18.427,16.189,3.435,66.146,-21.856,-22.682,-4.967,-1.928,21.306,6.275,-6.356,-21.116,43.163,0.509,-8.156,28.282,10.421,42.816,-30.269,-3.082,3.922,-15.382,-15.102,-9.737,57.443,-24.012,-16.543
0.3444717000002129,25.636,-23.554,17.384,4.389,-2.204,55.321,-16.198,-17.536,-9.573,-11.66,21.285,9.342,-3.276,-14.435,43.12,6.144,-1.487,39.525,17.583,45.847,-26.652,3.581,11.603,-11.268,-9.451,-6.653,60.46,-18.865,-9.354
0.34453670000038983,22.024,-24.043,19.416,-2.787,-3.739,51.168,-23.867,-5.736,-6.49,-6.013,20.751,15.481,4.412,-5.711,42.052,11.773,3.637,46.657,24.225,51.437,-19.966,12.286,17.739,-2.547,2.854,1.551,61.936,-15.26,-1.66
0.3595047000003433,22.002,-30.167,5.564,-8.932,-6.297,54.19,-34.601,-13.415,-0.335,0.653,20.731,15.978,6.457,-12.878,42.01,11.762,-0.977,44.049,20.615,51.386,-19.946,8.688,17.209,-2.545,2.339,0.524,57.776,-23.442,-11.905
0.36121770000045217,9.173,-44.993,-16.983,-21.731,-23.196,41.841,-39.178,-32.869,-10.069,-12.667,12.001,4.691,-2.259,-25.16,32.747,0.479,-12.759,39.394,9.324,40.576,-29.147,-2.591,7.458,-14.838,-10.472,-9.21,49.009,-37.763,-29.311
0.3745016000002579,3.016,-53.145,-25.163,-29.906,-29.833,36.676,-42.212,-27.201,-15.182,-16.241,4.816,-3.511,-6.867,-20.012,24.005,-7.718,-19.407,39.355,1.63,31.826,-30.655,-7.712,-1.259,-23.02,-15.072,-14.836,43.325,-46.435,-35.942
0.37456850000035047,20.944,-41.309,-20.015,-20.655,-12.897,55.595,-38.072,-9.755,-1.847,-1.368,15.57,4.177,2.361,-8.209,34.739,0.486,-15.801,43.414,4.702,37.429,-20.891,-3.606,0.792,-20.435,-10.958,-10.723,50.454,-38.704,-32.32
0.38956080000025395,33.73,-25.899,-14.872,-2.703,-3.151,62.199,-22.664,-14.868,2.253,0.683,25.288,13.395,6.969,-4.615,46.488,11.757,-10.15,47.982,13.406,46.101,-8.574,4.082,6.939,-12.73,-8.386,-1.491,64.748,-22.271,-22.554
0.3896278000001985,28.573,-29.459,-17.418,-4.75,-11.344,50.354,-14.957,-24.075,-8.507,-9.564,19.115,10.307,-0.722,-4.61,43.367,13.282,-13.214,49.983,15.955,46.055,-2.93,5.615,4.883,-8.619,-9.402,1.072,67.244,-23.273,-19.457
0.404935800000203,28.545,-39.675,-26.11,-19.09,-12.358,57.988,-26.213,-14.829,-6.962,-4.943,19.096,10.809,0.303,-7.167,42.299,15.318,-16.787,53.007,13.889,46.521,-1.903,2.024,1.292,-12.709,-8.368,-2.515,66.153,-34.009,-30.708
0.40500340000016877,33.127,-36.05,-22.498,-11.898,-1.074,72.787,-38.994,-4.056,3.804,6.332,30.348,18.483,9.012,-12.795,48.917,20.938,-17.794,58.077,14.388,49.549,1.685,2.022,3.34,-13.208,-4.773,-1.488,71.21,-28.339,-31.702
0.4195809000002555,26.946,-29.866,-9.155,6.557,3.537,63.493,-36.394,-5.077,-1.323,0.691,25.707,11.805,5.417,-17.905,44.257,15.281,-24.949,55.969,9.25,40.79,2.196,-4.641,0.262,-13.707,-8.867,-6.097,66.015,-22.675,-20.4
0.4212841000003209,16.673,-37.008,-6.072,1.939,-9.274,52.158,-23.037,-11.732,-12.593,-13.142,10.312,-2.039,-5.347,-22.498,31.405,1.434,-36.195,48.229,-3.567,27.941,-3.954,-20.517,-12.546,-24.965,-19.617,-20.435,50.58,-36.997,-24.478
0.4346723000003294,11.021,-41.07,-11.702,-9.846,-23.609,53.131,-6.62,-14.281,-14.629,-15.691,6.203,-1.525,-7.391,-24.525,28.3,-2.666,-37.695,48.693,-7.662,29.45,-1.901,-22.034,-14.582,-31.087,-22.159,-20.927,44.382,-45.67,-31.626
0.4496495000003051,8.961,-36.418,-14.252,-7.274,-23.073,53.078,0.046,-13.755,-11.029,-11.064,9.783,3.087,-4.31,-25.013,31.346,0.923,-36.121,53.255,-1.506,35.056,7.835,-14.327,-4.834,-25.421,-15.989,-11.685,45.874,-40.501,-26.471
0.4497142000000167,3.829,-43.554,-20.897,-9.829,-21.001,52.512,-17.372,-18.864,-7.944,-11.053,8.236,-1.014,-5.33,-28.574,28.241,-1.127,-41.72,52.177,-3.042,31.435,8.852,-17.387,-7.391,-28.469,-17.51,-18.333,41.218,-50.194,-34.642
0.46470970000018497,-5.909,-62.466,-35.221,-25.188,-31.738,49.898,-34.261,-25.505,-7.936,-13.091,3.105,-2.55,-6.349,-29.57,20.528,-6.249,-46.289,49.563,-10.723,26.281,3.72,-22.492,-16.092,-38.175,-26.714,-29.586,35.029,-68.587,-54.075
0.4647757000002457,-14.1,-73.674,-43.383,-36.434,-46.051,44.213,-24.493,-27.529,-13.051,-13.078,-1.509,-3.572,-4.806,-22.368,16.921,-8.292,-45.218,51.051,-11.225,25.23,4.741,-21.958,-17.101,-41.723,-29.761,-31.605,31.92,-77.228,-57.607
0.47969190000003437,-18.184,-78.723,-52.561,-42.545,-57.276,46.218,-21.907,-34.674,-14.575,-14.09,-6.118,-10.229,-6.85,-20.809,12.806,-11.358,-47.222,52.024,-9.164,21.106,8.322,-28.596,-20.67,-46.292,-30.243,-35.672,26.253,-81.761,-59.086
0.47976180000023305,-20.728,-84.28,-67.878,-47.113,-65.416,51.295,-40.84,-38.738,-10.974,-17.15,-11.747,-14.317,-10.942,-31.034,6.645,-16.982,-54.347,48.898,-14.278,15.962,10.363,-36.252,-28.334,-51.368,-37.386,-39.735,21.103,-86.29,-71.835
0.4947453000004316,-16.096,-82.147,-71.396,-44.504,-63.813,50.219,-42.337,-30.502,-6.865,-16.108,-11.223,-11.741,-9.906,-38.175,8.175,-16.965,-57.367,50.386,-15.801,17.483,17.013,-31.092,-28.818,-50.292,-43.496,-35.597,25.693,-82.618,-74.837
0.49481550000018615,-2.76,-69.257,-58.004,-35.751,-49.405,56.829,-28.462,-20.225,1.852,-7.895,1.083,-4.045,-1.7,-30.453,19.95,-4.653,-49.625,60.07,-5.539,25.662,33.389,-19.278,-22.641,-43.582,-39.354,-28.901,38.987,-70.752,-58.368
0.5097121000003426,8.514,-56.892,-49.237,-25.469,-37.572,70.604,-23.31,-13.033,5.948,-0.202,12.353,6.718,2.913,-20.176,31.201,12.258,-41.378,68.207,5.737,33.834,48.725,-6.451,-12.885,-34.829,-30.605,-21.7,53.293,-58.898,-42.428
0.5097776000002341,9.017,-57.347,-51.237,-22.882,-42.146,69.509,-16.115,-14.557,-6.866,-3.788,10.804,5.687,-3.238,-20.668,31.682,14.295,-46.46,68.139,5.732,34.312,52.263,-3.371,-8.261,-31.721,-29.55,-19.629,60.924,-57.815,-44.947
0.5251179000001684,2.348,-64.462,-51.186,-31.056,-51.837,64.316,-10.463,-24.276,-16.08,-9.42,5.157,-2.004,-9.382,-22.184,26.527,5.572,-53.586,65.509,1.115,31.204,51.186,-14.638,-14.913,-36.3,-32.594,-26.782,56.252,-64.929,-54.124
0.5251803000001019,2.858,-62.349,-48.061,-31.537,-46.662,75.523,-13.014,-14.518,-1.207,-0.701,8.226,4.658,-2.201,-17.551,28.55,11.201,-50.971,69.542,0.602,32.71,56.258,-17.185,-17.46,-33.702,-31.537,-25.218,55.684,-65.377,-52.533
0.5397242000003644,8.491,-56.651,-53.136,-19.21,-37.394,86.206,-3.267,8.038,15.188,13.644,16.415,14.387,5.999,-16.509,33.645,19.9,-48.871,73.058,1.113,32.165,63.374,-9.483,-12.831,-28.545,-28.944,-18.533,61.776,-63.774,-54.017
0.5397865000004458,4.384,-58.644,-64.866,-19.703,-41.968,80.996,5.957,3.419,9.537,11.069,15.886,4.639,0.87,-21.616,26.439,8.097,-54.969,63.764,-5.035,23.423,64.335,-18.183,-18.966,-34.664,-29.427,-26.199,56.591,-71.908,-68.82
0.5547888000000967,-2.281,-56.536,-62.239,-22.757,-43.463,76.817,1.341,-3.756,5.429,6.447,11.259,-3.562,-1.693,-28.254,19.752,-4.719,-63.624,52.942,-12.203,19.814,61.709,-29.436,-25.607,-39.753,-30.423,-32.833,50.387,-69.786,-69.776
0.5548560000001999,3.869,-46.233,-46.296,-6.853,-32.661,83.4,7.487,14.178,16.182,16.687,15.859,3.614,7.53,-37.448,25.368,-0.104,-69.195,55.45,-12.703,23.38,65.234,-23.771,-21.483,-34.077,-30.905,-24.603,63.144,-54.86,-55.361
0.5698721000003388,6.939,-46.187,-44.712,0.838,-34.677,84.854,11.066,16.726,16.166,19.232,16.868,0.536,4.961,-43.045,24.318,1.433,-68.102,57.444,-12.178,20.795,72.341,-25.284,-22.999,-34.556,-34.972,-25.091,70.253,-55.317,-55.306
0.5699386000001141,-2.801,-52.288,-53.889,-10.433,-50.524,76.06,-8.925,-4.296,1.293,6.405,5.068,-12.784,-6.314,-40.441,14.047,-7.79,-67.521,52.263,-13.702,15.651,70.731,-32.943,-29.636,-42.718,-40.06,-34.287,57.888,-67.557,-64.472
0.5847614000003887,-7.409,-53.261,-47.175,-9.91,-57.134,70.86,-14.04,-10.439,-2.294,1.275,-1.597,-12.772,-6.82,-34.253,13.009,-10.856,-70.015,56.822,-11.64,18.197,69.636,-27.275,-26.02,-40.626,-37.459,-32.716,53.731,-66.465,-60.309
0.5848229000002902,-3.303,-54.744,-37.394,-4.265,-56.564,73.351,-1.73,-7.355,-0.755,2.811,0.966,-8.148,-6.301,-28.583,17.607,-6.746,-66.359,67.011,-5.992,23.302,80.837,-21.1,-18.822,-31.364,-30.761,-26.535,62.899,-61.276,-54.101
0.5998046000004251,-3.812,-58.276,-39.918,-11.945,-60.094,73.79,-12.487,-6.835,-8.439,-3.34,0.453,-10.702,-11.418,-28.042,16.564,-3.666,-58.608,67.969,-3.937,23.279,88.953,-20.054,-14.192,-26.21,-26.12,-23.435,64.885,-62.239,-54.047
0.59986600000002,-4.321,-60.779,-37.829,-12.446,-62.083,68.081,-22.208,-1.193,-10.992,-5.898,-0.06,-9.666,-9.357,-33.137,16.548,-3.662,-60.086,68.413,-3.421,21.206,86.303,-15.424,-13.153,-22.085,-20.97,-20.85,62.771,-61.152,-51.944
0.6148597000001246,-9.44,-73.014,-39.841,-12.433,-69.193,59.304,0.868,-9.901,-8.932,-4.867,-4.671,-9.657,-11.91,-37.203,13.97,-8.269,-67.199,69.369,-8.541,17.599,83.143,-21.556,-21.337,-25.649,-25.048,-26.977,62.708,-68.775,-60.089
0.6299042000000554,-23.263,-88.31,-59.269,-27.278,-79.882,52.072,12.65,-26.797,-13.021,-8.449,-12.351,-16.307,-21.119,-42.801,4.222,-16.458,-71.742,61.103,-20.315,9.384,79.986,-35.879,-33.099,-40.993,-43.466,-39.758,58.547,-90.224,-83.083
0.629969400000391,-19.141,-81.561,-67.406,-22.64,-68.019,61.241,-4.781,-8.327,-3.787,1.806,-1.068,-9.631,-12.389,-45.832,7.804,-11.831,-71.158,58.993,-19.27,10.912,82.467,-32.257,-32.041,-43.001,-49.058,-38.693,64.124,-90.646,-87.61
0.6459883000002264,4.444,-58.938,-52.994,3.51,-42.336,79.111,-3.239,21.395,20.295,24.858,21.987,8.822,7.603,-32.978,23.678,5.6,-58.279,73.791,-1.833,25.758,98.779,-15.831,-18.689,-23.49,-30.566,-24.822,83.015,-64.427,-67.03
0.6460533000004034,4.952,-51.707,-43.207,3.507,-37.683,77.495,18.281,15.226,21.3,27.907,21.965,9.326,9.645,-24.748,23.654,10.205,-52.586,78.84,1.755,27.781,105.852,-11.716,-12.523,-16.294,-18.752,-19.162,87.543,-54.117,-57.742
0.6607803000001695,-14.008,-60.877,-43.676,-11.866,-47.891,64.097,16.726,-2.208,3.86,13.534,8.111,-4.516,-1.635,-33.433,11.335,-2.613,-65.853,71.077,-9.005,16.483,94.988,-20.926,-18.145,-26.524,-26.418,-25.291,74.136,-61.747,-60.758
0.660842500000399,-14.506,-62.353,-46.194,-6.731,-49.38,65.058,-4.296,-0.669,5.905,10.959,5.541,-5.024,-6.244,-32.375,10.299,-5.172,-67.836,73.567,-7.459,15.954,93.356,-21.93,-19.664,-25.985,-27.928,-29.364,72.012,-59.636,-51.476
0.6750375000001441,-8.344,-57.68,-48.71,-1.089,-48.819,67.042,-14.538,2.406,9.998,12.485,5.023,-2.457,-5.214,-23.633,13.362,-0.556,-57.01,77.08,-2.841,19.012,101.972,-12.686,-15.034,-18.275,-19.191,-26.26,80.649,-53.429,-42.203
0.6769162000000506,-10.897,-56.085,-44.05,-6.211,-54.918,58.778,-7.351,-3.744,-5.894,3.251,-2.666,-10.139,-9.307,-30.782,9.763,-5.166,-60.539,69.83,-6.424,14.894,102.382,-13.186,-17.068,-17.744,-16.611,-21.623,86.204,-50.814,-42.673
0.6899935000001278,-2.177,-44.246,-34.785,4.554,-54.863,62.306,8.026,-5.79,-13.06,0.687,-1.127,-11.154,-12.371,-33.313,14.364,-5.674,-62.528,70.785,-2.831,17.953,104.841,-14.198,-16.026,-12.091,-15.057,-16.991,98.413,-41.542,-36.482
0.6900590000000193,14.731,-28.32,-34.75,21.968,-44.562,76.588,14.165,2.413,-0.239,11.957,8.096,-2.946,-7.236,-23.546,24.083,4.066,-49.658,79.423,3.831,27.157,114.47,-3.937,-6.276,-0.296,-7.357,-8.265,112.66,-31.254,-30.298
0.7050427000003765,13.692,-31.878,-42.912,15.286,-41.955,72.925,10.565,9.07,4.372,11.945,4.502,-4.48,-5.179,-28.133,19.961,2.013,-53.706,73.709,-3.345,22.007,112.307,-4.446,-8.319,-0.808,-6.838,-7.232,109.985,-34.297,-38.465
0.7051207000004069,1.383,-42.092,-43.381,-0.611,-47.549,56.458,16.19,3.938,-2.805,1.687,-6.773,-10.111,-11.322,-41.425,12.769,-10.285,-69.022,60.827,-12.563,11.226,99.387,-19.298,-19.582,-10.029,-16.565,-18.495,102.191,-43.996,-49.697
0.720010000000002,2.406,-36.415,-40.776,6.562,-38.792,57.939,20.785,3.422,-1.265,6.296,-0.107,-8.051,-7.724,-48.043,15.317,-11.299,-67.928,58.717,-13.575,13.776,93.652,-22.865,-23.661,-17.191,-24.233,-25.137,102.089,-48.563,-55.283
0.7200751000000309,10.088,-34.329,-49.957,15.777,-23.384,72.226,11.03,13.665,9.494,22.171,14.238,-5.482,3.042,-51.581,16.839,-7.189,-65.299,56.097,-17.147,13.25,95.607,-23.867,-29.785,-22.809,-26.258,-25.112,102.499,-52.1,-62.912
0.73501430000033,3.418,-46.59,-61.178,-0.633,-29.508,70.104,13.58,9.553,10.51,20.099,9.613,-8.55,0.477,-40.259,8.625,-13.33,-71.894,47.844,-25.84,0.942,94.487,-38.187,-43.075,-30.983,-32.891,-33.796,99.322,-58.196,-69.509
0.7367325000000164,-9.905,-49.105,-46.772,-11.39,-40.75,60.3,21.764,-2.752,2.814,9.321,-1.667,-13.665,-6.696,-21.776,0.932,-24.075,-75.408,45.235,-31.961,-3.158,85.683,-48.395,-48.155,-39.149,-43.105,-43.496,94.1,-60.187,-57.657
0.7500873000003594,-7.334,-37.273,-13.938,6.552,-34.561,63.314,3.811,5.96,1.787,11.361,0.384,-17.749,-6.689,-26.877,-1.118,-28.149,-77.894,43.14,-33.466,1.969,78.425,-44.248,-44.521,-37.061,-43.574,-39.354,92.981,-45.782,-27.373
0.7501515000003565,5.993,-26.477,12.204,18.328,-26.33,65.812,-1.316,11.077,1.273,15.448,4.482,-13.633,-7.195,-36.584,5.031,-21.461,-76.279,41.048,-23.699,6.065,86.544,-31.397,-34.23,-19.093,-27.649,-24.97,107.233,-24.22,-0.193
0.7650833000002422,11.623,-21.328,19.876,13.187,-29.377,60.623,23.789,-5.84,-4.364,10.309,4.989,-6.447,-7.187,-23.227,16.296,-10.169,-66.981,48.179,-7.282,16.817,102.339,-11.385,-14.728,-0.118,-10.715,-13.674,124.032,-16.511,6.467
0.7651504000000386,9.562,-24.893,8.073,12.149,-30.885,62.612,22.74,-7.884,-7.433,8.762,7.546,-6.441,-4.106,-19.106,17.817,-5.548,-64.353,51.717,-1.639,24.485,105.31,-1.64,-3.955,6.029,-4.044,-9.05,122.883,-22.13,-6.347
0.7804613000002973,9.04,-33.065,-11.915,12.649,-25.731,67.672,3.25,6.981,-4.352,12.34,9.075,-6.434,-5.639,-33.431,13.701,-7.079,-64.801,45.518,-2.15,19.85,102.644,-1.126,-1.902,7.048,0.058,-5.455,121.736,-25.181,-19.661
0.7805241000000933,13.642,-29.958,-12.415,16.735,-14.947,73.24,19.64,14.146,5.386,17.963,13.677,2.281,-2.56,-26.738,21.884,0.1,-52.953,52.132,9.123,24.953,108.176,13.22,8.859,18.312,10.817,1.723,139.032,-17.984,-16.567
0.7951216000001295,20.288,-21.219,3.479,32.087,-6.222,81.876,35.502,23.354,19.725,28.191,21.86,9.451,7.177,-6.219,30.059,9.834,-44.191,62.838,16.799,33.638,108.58,20.379,16.022,27.003,13.367,5.307,148.115,-9.257,-9.378
0.7969704000001911,18.219,-24.271,1.938,34.105,-11.852,81.282,20.61,28.966,18.681,28.675,17.228,3.806,6.657,-12.36,23.369,3.164,-51.319,51.505,6.536,22.333,97.713,2.94,2.686,12.631,-2.528,-1.87,138.233,-15.395,-18.591
0.8101837000003798,6.93,-36.03,-11.384,18.189,-26.184,73.003,15.466,16.129,9.441,16.351,3.89,-4.907,-2.571,-41.549,14.636,-12.721,-60.489,33.522,-4.229,13.089,87.882,-11.408,-14.223,-8.899,-19.944,-12.627,132.972,-30.237,-34.454
0.8102592000000186,0.263,-43.679,-17.008,10.998,-28.72,76.004,27.234,9.965,15.579,18.896,2.862,-10.025,-2.568,-65.586,11.548,-19.88,-63.502,27.854,-10.885,15.125,83.183,-17.032,-24.967,-17.087,-25.559,-18.762,131.814,-35.842,-41.079
0.825253900000007,3.849,-39.536,-21.089,10.987,-18.957,75.416,34.891,16.103,18.637,28.099,7.47,-13.089,-0.004,-69.107,7.95,-20.885,-63.951,27.826,-14.46,11.524,80.026,-24.699,-30.065,-18.094,-28.095,-21.305,129.121,-32.22,-42.575
0.8401523000002271,11.017,-25.152,-23.117,10.977,-12.278,62.533,37.418,18.136,12.471,24.484,10.536,-7.44,-0.004,-52.132,12.553,-18.815,-59.789,30.359,-6.249,15.099,81.483,-18.527,-23.887,-15.002,-28.067,-17.697,136.164,-27.064,-39.971
0.8402128000002449,15.617,-17.443,-16.946,15.064,-11.754,60.421,29.696,22.216,23.217,24.972,15.136,3.326,3.582,-29.026,22.787,-10.599,-53.581,35.452,4.004,27.379,84.988,-6.725,-14.642,-9.864,-21.891,-10.507,149.86,-18.84,-33.783
0.8551974000001792,19.7,-18.962,-20.516,16.074,-10.717,66.508,19.932,22.194,30.366,32.632,16.658,4.347,6.652,-17.213,23.276,-5.978,-49.942,37.978,5.024,26.839,85.927,-8.255,-14.115,-9.854,-18.283,-9.984,154.321,-15.748,-31.7
0.8552564000001439,25.828,-14.332,-28.18,14.008,-6.096,66.442,28.622,9.877,13.43,31.062,18.691,5.367,5.109,-20.782,25.814,-4.947,-43.744,44.6,11.167,27.837,88.915,-4.661,-8.465,-5.234,-20.314,-9.974,157.241,-17.269,-31.668
0.8702715000003991,33.486,-3.559,-18.418,19.63,-5.577,68.937,36.79,8.842,6.756,30.007,25.844,14.584,6.64,-28.959,37.572,3.767,-32.429,52.753,23.451,41.129,96.511,10.201,4.863,5.53,-14.146,0.794,170.916,-8.542,-26.514
0.8703394000003755,38.576,2.592,-8.665,25.758,-12.232,73.991,29.069,16.518,18.02,33.051,26.331,15.081,10.22,-29.954,39.071,9.399,-27.274,49.626,23.428,42.625,100.001,13.777,6.907,7.574,-9.521,5.404,179.454,1.2,-19.827
0.8853217000000768,35.976,2.589,-12.243,24.707,-18.367,72.38,22.379,9.841,18.515,27.894,21.182,7.382,8.16,-23.777,33.909,-0.345,-35.444,42.404,14.695,35.41,95.802,8.127,-2.321,-0.631,-17.196,-2.286,173.127,-3.412,-19.807
0.8854644000002736,32.354,-1.0,-13.768,20.072,-20.398,70.259,19.283,4.708,14.398,25.305,22.185,6.862,5.078,-11.457,34.387,-7.517,-40.019,41.337,13.143,35.887,90.583,5.046,-6.417,-7.29,-23.327,-5.87,169.368,-11.093,-26.96
0.9006615000002967,34.371,-4.072,-18.365,18.003,-22.427,66.602,21.313,10.339,16.945,28.866,21.138,9.417,7.123,1.362,32.816,-2.386,-33.831,40.271,15.692,37.388,89.98,3.504,-4.362,-8.307,-19.205,-4.839,175.858,-12.107,-29.494
0.9007257000002937,36.898,-1.507,-25.006,23.62,-24.454,62.949,37.173,11.866,17.44,26.788,17.019,9.919,9.677,0.336,32.783,1.202,-33.285,37.669,15.164,37.863,90.403,2.988,-2.308,-4.713,-16.624,-7.396,178.756,-8.509,-22.805
0.9153101000001698,35.324,0.032,-22.42,25.646,-24.429,60.837,45.333,12.878,18.447,23.175,17.002,7.86,8.13,-18.62,34.287,-3.409,-39.399,32.509,8.489,37.313,86.214,-0.089,-5.892,-6.757,-20.194,-8.926,176.528,-5.426,-19.708
0.9153889000003801,32.727,-6.116,-23.422,17.935,-29.528,56.678,34.529,15.939,20.478,26.225,15.448,1.705,0.95,-36.532,28.618,-10.066,-39.872,23.767,2.332,30.103,77.931,-8.286,-12.546,-12.386,-23.76,-10.966,176.352,-12.081,-29.422
0.9303823000000193,27.059,-14.307,-33.132,14.331,-37.183,58.67,25.786,12.337,18.408,28.761,12.358,-0.346,-3.149,-40.594,26.027,-13.642,-40.345,17.595,0.281,27.512,72.217,-10.839,-16.119,-11.349,-25.273,-11.467,174.126,-22.827,-39.639
0.9304488000002493,22.421,-18.903,-35.661,7.145,-39.195,65.784,22.686,7.714,18.902,26.683,11.321,-0.858,-0.585,-30.307,29.587,-15.678,-43.378,14.504,-2.793,30.558,72.145,-10.828,-18.153,-14.924,-27.297,-7.87,169.853,-28.952,-44.21
0.9454452000004494,25.985,-19.397,-31.014,-1.572,-40.693,63.157,23.176,6.17,16.322,23.582,9.261,-4.443,-0.072,-15.42,28.533,-18.224,-40.261,8.342,-4.84,27.453,73.098,-13.379,-19.159,-23.106,-28.806,-6.325,173.27,-31.485,-44.166
0.9455163000002358,32.619,-15.791,-23.811,10.213,-43.214,58.995,37.497,9.75,11.695,26.633,13.862,-0.341,-0.072,-14.38,32.603,-14.619,-37.659,4.747,3.874,31.524,75.586,-7.218,-15.554,-15.91,-23.142,-3.757,184.367,-24.793,-38.487
0.9604370000001836,33.611,-13.726,-19.176,19.424,-39.584,68.158,40.533,17.424,16.294,35.827,23.07,7.857,4.027,-28.198,38.718,-6.92,-38.134,6.279,9.506,42.251,80.121,2.523,-10.415,-9.235,-19.533,0.345,191.867,-17.084,-35.887
0.9605004000000008,29.479,-20.885,-27.354,4.035,-42.619,70.651,18.976,10.235,16.79,34.255,19.461,3.75,2.998,-38.416,32.532,-9.987,-38.096,1.15,1.3,38.111,77.992,-1.578,-13.991,-18.959,-27.198,-5.29,189.114,-26.288,-44.56
0.9744042000002082,28.937,-21.889,-32.962,3.007,-52.31,61.871,15.371,-2.071,6.015,24.487,13.294,1.185,-0.591,-33.254,31.475,-14.075,-34.984,-1.413,2.835,34.999,74.328,-4.138,-14.489,-16.891,-27.683,-9.896,186.363,-29.848,-45.54
0.9744641000002048,41.716,-7.522,-20.121,22.984,-43.548,66.932,34.311,10.739,11.132,34.196,23.526,12.455,8.119,-18.876,43.226,-2.278,-22.654,11.396,17.177,47.259,82.963,10.211,0.895,1.057,-12.286,2.409,195.911,-9.326,-27.051
0.9895999000000302,51.408,3.244,-15.491,24.498,-27.111,77.624,36.838,21.999,26.49,48.506,33.237,17.565,15.283,-7.075,46.257,5.409,-11.36,17.533,21.771,51.31,89.54,18.91,10.115,5.666,-8.175,9.579,202.375,1.442,-16.266
0.989716000000044,40.598,-2.907,-29.82,10.641,-28.108,68.837,27.58,7.632,19.291,39.236,24.494,9.863,8.608,-2.457,38.014,-4.843,-18.009,5.22,14.576,41.013,78.179,10.694,1.396,0.025,-18.413,-0.676,190.39,-4.707,-25.471
1.004507300000114,30.311,-10.076,-32.864,7.044,-30.642,54.936,24.478,3.014,11.075,29.976,17.298,4.73,4.501,2.669,31.828,-9.449,-23.114,-2.47,9.951,35.849,70.417,4.536,-0.655,3.099,-17.883,-8.36,182.002,-1.629,-28.007
1.0198331000001417,34.892,-5.456,-26.171,11.648,-19.853,56.93,14.208,15.819,22.847,37.118,24.453,6.262,8.082,3.691,30.772,-2.779,-15.918,-2.468,9.429,34.276,77.006,11.703,8.567,9.244,-10.18,-7.84,186.431,5.033,-16.708
1.01989390000017,37.418,0.698,-27.169,17.272,-15.734,61.484,14.193,15.803,26.922,40.155,29.551,9.33,7.05,-9.633,33.815,-2.264,-16.415,-5.539,9.932,32.193,78.466,16.815,10.608,12.308,-8.633,-7.32,186.757,6.053,-12.593
1.0345224000002418,33.283,2.234,-20.482,22.377,-21.866,54.763,38.258,13.225,17.674,36.016,24.399,10.345,7.043,-17.82,33.269,-4.824,-18.448,-8.095,9.922,32.16,75.314,12.7,9.061,15.37,-6.575,-8.337,185.546,12.707,-13.093
1.0345859000003657,32.225,4.281,-6.117,27.478,-18.771,52.146,46.416,19.872,18.168,34.955,21.813,7.773,6.523,-10.118,28.625,-5.843,-14.843,-11.673,8.887,29.054,74.726,12.175,11.613,17.916,-2.982,-13.452,186.897,15.768,-5.395
1.0495063000003029,27.069,3.252,-7.648,31.549,-12.604,55.68,27.927,18.828,19.175,35.433,22.815,3.155,0.881,-10.62,26.034,-10.448,-21.488,-17.809,7.854,25.951,68.504,12.162,9.04,14.824,-7.59,-23.172,176.976,8.58,-3.341
1.0511955000001763,19.358,-3.411,-10.202,29.468,-18.739,49.989,26.362,13.173,13.008,33.86,19.206,1.102,-0.657,-17.782,24.471,-14.536,-24.54,-19.328,5.797,26.95,63.312,7.539,1.346,7.125,-11.681,-26.223,165.528,9.596,-6.923
1.0645684000000983,27.535,-1.359,2.104,29.951,-20.77,50.452,37.094,17.259,18.118,35.363,21.236,6.224,3.955,-11.616,28.545,-9.399,-9.659,-16.235,5.791,30.509,70.421,8.044,1.345,5.069,-9.62,-15.438,170.486,15.221,0.256
1.0646331000002647,43.389,12.987,5.176,44.778,-5.38,69.869,25.786,23.902,31.42,46.086,32.486,14.927,8.562,-5.969,41.837,-2.217,-1.965,-14.682,8.859,37.139,74.962,10.085,4.93,6.088,-13.197,1.996,179.537,14.694,6.403
1.079615300000114,45.395,17.073,-2.514,47.807,2.31,81.07,12.953,23.365,32.413,55.774,35.527,16.449,12.652,-9.549,47.43,-2.215,-5.549,-15.179,8.85,38.639,72.837,3.415,-0.198,-1.603,-19.844,8.654,176.796,9.556,-3.849
1.0796817000000374,36.128,5.785,-4.561,29.829,-7.426,70.742,23.698,17.707,24.696,47.009,27.295,10.798,9.053,-6.978,39.186,-5.799,-2.982,-18.238,6.28,33.989,72.765,1.363,-6.858,-9.798,-21.873,-1.601,168.422,1.862,-15.116
1.0946375000003172,30.969,-0.881,-7.118,23.139,-12.542,62.987,33.921,16.152,16.987,36.204,25.731,11.811,2.384,-3.897,35.048,-3.744,0.607,-18.732,7.81,33.955,73.204,7.509,-2.753,-5.177,-22.363,-11.845,162.618,-4.8,-17.15
1.09470280000005,32.475,0.657,-11.209,30.8,-12.529,63.949,29.276,17.16,12.871,40.266,31.34,16.41,6.48,-6.455,38.6,1.383,1.119,-14.615,12.926,39.044,74.155,12.112,4.935,3.025,-16.706,-10.809,157.333,-0.184,-13.547
1.1096418000001904,33.979,0.656,-8.636,27.696,-14.566,58.762,25.148,8.946,15.42,43.3,28.747,14.857,8.523,-6.961,39.073,2.406,3.167,-15.113,15.986,40.03,77.155,14.662,9.028,8.145,-3.881,-5.675,153.589,3.402,-10.46
1.1113414000001285,32.921,-3.443,-10.677,17.422,-12.502,53.58,21.025,-0.796,16.942,35.572,22.059,12.793,0.829,-7.979,38.01,-0.158,-1.447,-21.245,13.409,36.916,77.078,13.622,7.482,9.161,-4.39,-0.546,150.362,-5.311,-13.523
1.1246110000001863,34.425,-4.976,-16.302,14.843,-8.903,58.137,18.442,8.426,12.314,35.536,23.574,13.292,2.366,-4.897,38.484,-3.744,-6.056,-26.347,8.272,35.342,74.439,9.51,3.888,5.566,-15.144,2.016,150.211,-9.404,-16.071
1.124677100000099,40.026,-0.873,-12.699,22.0,-4.284,66.276,23.034,22.25,16.4,44.722,30.722,15.328,11.585,4.33,39.982,-5.277,-2.464,-27.345,8.777,36.331,75.39,10.525,3.885,4.536,-14.104,-1.572,151.086,-1.197,-7.858
1.139713500000198,40.498,1.69,-9.1,28.126,-0.693,65.697,23.524,14.031,22.019,45.19,29.667,13.776,9.012,5.35,38.918,-4.759,-3.486,-30.904,7.743,35.783,73.777,10.003,1.319,3.507,-9.991,-6.694,146.324,1.878,-3.752
1.1397779000003538,34.822,-3.435,-10.628,20.413,-9.402,56.922,17.352,-2.89,12.775,36.948,21.953,8.639,1.318,7.906,36.83,-6.804,-10.143,-34.972,0.563,33.185,71.142,3.845,-8.928,-5.206,-17.154,-8.736,139.005,-0.686,-10.92
1.1557525000002897,42.984,-1.383,-3.958,17.831,-10.417,58.915,17.335,5.822,11.226,40.497,27.566,13.241,5.415,28.903,41.403,-2.698,-2.448,-30.838,6.198,37.763,79.268,9.476,-6.87,-2.127,-19.186,-4.629,142.965,5.463,-2.712
1.155827500000214,54.212,12.451,8.342,35.232,4.45,75.762,17.83,26.821,27.096,53.264,42.395,28.085,13.607,42.194,52.121,8.575,9.85,-21.586,17.975,47.971,89.435,21.25,3.895,9.658,-15.068,5.622,150.506,11.092,14.196
1.169774000000416,45.449,10.902,4.747,35.709,-2.214,74.149,20.886,17.061,23.483,47.063,35.693,24.983,10.519,25.758,50.019,4.468,7.279,-22.589,10.272,44.85,83.71,12.52,-2.256,1.452,-21.201,6.641,140.622,3.397,6.498
1.184821600000305,36.694,-1.917,-6.016,19.279,-18.093,59.73,34.185,-5.498,11.676,36.77,22.337,11.638,4.361,10.363,38.186,-7.832,4.197,-26.665,2.577,36.608,76.966,4.31,-7.89,-5.21,-32.963,-2.588,130.235,-1.73,-7.853
1.1848908000001757,46.903,8.844,2.699,31.043,-2.194,70.429,33.639,8.852,26.521,51.078,33.073,19.823,11.529,15.988,42.759,2.422,11.878,-18.954,15.895,44.768,86.111,19.163,8.0,14.775,-30.88,1.513,138.302,11.08,7.011
1.199783000000025,46.344,22.667,19.603,47.406,8.567,78.556,16.187,30.873,34.18,56.15,39.188,27.488,15.616,14.435,49.376,8.055,7.255,-19.447,16.903,48.822,90.123,22.217,12.603,23.47,-15.48,8.172,137.651,19.266,24.423
1.1998449000002438,25.806,4.714,13.948,29.428,-16.545,53.886,13.609,15.985,11.604,28.941,17.632,5.944,-1.306,-12.732,32.42,-16.031,-12.22,-36.846,-2.581,31.867,74.151,4.777,-2.267,3.466,-4.194,-2.595,117.021,7.976,14.664
1.2148458000001483,20.657,-11.173,-0.923,16.591,-29.336,42.562,27.428,3.161,-1.728,18.666,7.368,-5.845,-9.502,-37.822,21.117,-26.774,-11.695,-34.76,-1.554,26.712,67.417,6.309,1.834,-0.123,-2.141,-6.178,108.195,3.357,3.891
1.2149155000001883,31.907,-0.915,3.689,27.333,-13.425,56.864,35.085,14.429,7.496,32.992,19.144,6.968,2.803,-32.661,32.367,-11.89,6.76,-16.282,12.792,40.005,77.084,20.647,15.152,17.808,-2.139,4.586,112.185,12.575,7.986
1.2298710000000028,26.752,-0.402,3.173,21.67,-9.825,52.196,25.828,8.267,13.123,30.91,18.1,6.961,1.264,-26.481,31.31,-13.927,1.63,-22.926,4.07,35.354,75.47,12.43,4.891,15.228,-7.259,-0.029,105.926,7.439,3.879
1.2299373000000742,14.942,-15.259,-19.372,6.791,-20.574,41.385,-1.862,-1.476,6.45,21.657,7.324,-3.804,-10.008,-40.287,15.397,-27.234,-15.79,-37.76,-9.766,22.511,67.197,-1.927,-8.946,-1.693,-19.035,-10.787,98.135,-8.45,-10.981
1.244914300000346,21.075,-14.731,-30.624,8.834,-14.406,49.541,-18.254,11.334,0.808,26.247,11.415,-0.214,-3.851,-41.271,19.992,-21.571,-9.627,-29.013,-5.658,28.124,72.253,1.661,-4.327,0.358,-24.652,-5.141,100.598,-7.929,-16.606
1.2449830000000475,28.738,-9.081,-23.421,6.776,-1.071,48.467,1.744,4.662,1.832,26.733,18.576,5.421,1.276,-25.348,30.731,-15.914,1.654,-19.762,-3.091,31.682,77.304,3.196,-1.249,8.554,-22.578,-3.599,101.01,-2.798,-14.028
1.2599273000000721,23.074,-15.732,-23.91,-4.502,-2.607,35.098,22.747,-21.982,0.293,20.046,11.897,2.342,-5.385,-20.2,26.089,-20.509,-2.959,-22.816,-5.649,23.966,73.64,-2.443,-6.883,1.886,-21.531,-10.768,97.323,-8.943,-13.501
1.2599938000003021,23.051,-15.716,-29.009,3.7,1.494,35.576,10.941,-11.714,-1.244,20.026,10.861,6.951,-1.794,-16.593,25.551,-13.828,-2.444,-18.183,-2.057,26.504,76.641,2.683,-5.851,-0.678,-22.021,-8.708,97.226,-8.422,-11.951
1.2752446000004056,29.176,-7.504,-26.418,18.553,18.911,42.712,-8.538,14.425,7.467,27.178,21.608,13.091,5.893,-6.843,30.136,-4.081,3.194,-10.992,1.018,33.649,82.712,8.316,-3.284,2.909,-23.024,-5.625,93.542,-0.729,-9.377
1.2753073000003496,24.536,-12.619,-26.392,5.727,20.429,40.62,-3.918,6.214,11.045,28.688,22.099,9.492,2.813,-9.91,26.52,-6.638,-0.395,-13.543,-0.519,30.03,80.58,3.696,-8.404,0.345,-26.075,-11.767,86.276,-2.265,-12.442
1.2898859000001721,20.925,-18.242,-25.341,-12.21,17.335,36.481,21.189,-7.112,-1.261,25.585,15.929,10.507,0.761,-14.511,27.518,-4.07,1.654,-9.431,4.092,28.463,81.012,7.791,-5.834,1.369,-24.512,-8.17,89.776,-4.312,-12.942
1.28994560000001,28.589,-11.564,-19.68,-1.439,31.662,36.445,30.901,4.678,-3.309,29.658,22.061,17.669,6.396,-11.422,34.15,6.18,11.387,2.362,8.186,35.094,88.103,17.517,3.906,10.077,-17.827,2.597,95.322,-1.746,-6.269
1.3050546000004033,25.486,-11.552,-23.759,12.907,38.29,36.921,11.403,13.895,8.477,34.239,24.6,16.627,6.902,-19.608,28.481,5.15,10.351,2.359,1.006,35.059,84.941,8.791,-0.709,6.481,-18.834,-4.066,84.98,-8.404,-8.824
1.3051177000002099,15.215,-20.25,-29.37,6.234,35.178,33.298,1.145,7.733,10.518,28.057,18.428,13.536,3.821,-23.174,21.792,1.046,6.754,2.357,-1.045,29.901,79.221,-0.952,-7.368,-1.723,-24.451,-15.332,76.186,-16.08,-17.012
1.3199813000001086,16.736,-23.816,-23.193,-2.994,41.803,29.166,15.489,7.213,6.409,23.419,19.434,17.109,5.866,-9.319,25.357,6.68,10.846,12.601,8.178,30.383,85.801,7.246,-0.188,4.427,-22.377,-11.731,81.233,-12.478,-13.921
1.3200463000002856,9.547,-32.501,-29.83,-6.577,36.638,27.6,14.449,2.083,2.304,22.883,15.316,11.969,5.348,-11.359,19.696,2.063,6.224,9.002,4.071,26.254,82.642,3.652,-0.188,2.373,-23.891,-13.256,71.93,-18.101,-17.493
1.3349442000003364,-10.955,-43.739,-49.78,-15.792,16.621,23.986,-4.521,-16.875,-4.358,12.101,-0.581,-3.925,-2.854,-23.131,4.307,-16.895,-3.004,-7.913,-11.814,13.933,67.19,-14.282,-15.045,-15.048,-34.114,-24.513,51.878,-33.964,-34.894
1.3350014000002375,-8.894,-34.474,-45.632,-16.801,13.531,17.814,-6.054,-21.469,-4.866,5.942,-4.678,-8.019,-6.95,-13.374,3.278,-23.025,-3.513,-3.807,-11.802,11.357,68.66,-11.706,-15.03,-14.008,-33.055,-21.415,57.974,-28.807,-31.273
1.3499919000000773,6.996,-20.095,-28.68,-4.489,21.714,19.333,1.637,-8.64,-2.812,12.083,0.962,-2.376,-4.894,-9.774,11.984,-16.855,-3.509,6.956,-1.544,18.518,80.886,2.138,-3.232,2.4,-24.825,-9.098,73.285,-13.409,-13.311
1.3500588000001699,4.94,-23.661,-33.775,-1.41,20.156,23.925,-1.951,-8.631,-6.907,13.096,-1.089,-4.423,-8.987,-28.72,11.46,-17.35,-9.141,-3.297,-5.129,17.987,80.805,-1.963,-6.815,-1.189,-29.923,-10.114,68.089,-15.957,-17.396
1.3650579000000107,4.423,-24.15,-41.426,-2.434,20.648,27.487,-8.096,-8.622,-2.29,13.083,3.523,-5.955,-10.003,-33.814,11.448,-17.333,-10.669,-11.491,-11.272,15.408,82.261,-6.059,-14.492,-10.409,-36.041,-14.714,65.459,-21.577,-26.601
1.3651258000004418,14.152,-15.416,-34.724,1.155,29.849,33.095,-11.675,3.682,7.446,21.267,13.254,2.248,-1.796,-19.436,18.609,-10.655,-6.56,-0.721,-3.063,22.565,88.839,0.094,-13.453,-4.251,-33.443,-11.114,73.079,-17.969,-21.451
1.3800952000001416,10.039,-17.962,-35.714,-7.043,31.868,34.086,-6.54,-1.957,1.804,20.733,9.654,3.782,0.767,-12.244,16.541,-11.157,-5.016,3.378,-1.523,21.518,86.701,-6.053,-17.538,-6.808,-40.07,-12.127,66.858,-23.587,-21.942
1.3954383000000234,0.808,-26.141,-39.777,-15.745,25.176,26.88,10.373,-19.374,-8.444,14.052,1.448,-3.394,-6.406,-16.33,10.377,-19.343,-12.184,-5.847,-14.33,7.152,82.004,-18.343,-27.255,-18.072,-46.178,-21.336,55.008,-32.785,-28.068
1.3954988000000412,3.881,-25.091,-30.515,-5.996,21.565,24.804,10.875,-13.207,-6.387,14.551,2.983,-3.39,-6.912,-20.412,12.928,-20.86,-18.319,-9.94,-17.901,3.558,84.996,-17.812,-27.227,-13.444,-37.935,-21.315,59.051,-27.116,-23.429
1.4100807000004352,8.488,-18.918,-25.362,3.232,24.617,30.927,-1.431,0.126,-1.257,16.585,6.054,-1.338,-2.806,-20.392,12.915,-15.717,-12.665,-2.245,-9.174,12.776,90.034,-11.647,-17.979,-1.135,-30.724,-12.072,69.238,-15.818,-14.696
1.4101408000001356,9.504,-11.214,-26.873,4.253,29.716,34.482,12.402,-0.898,-0.231,16.569,5.023,-3.386,-5.365,-20.371,9.829,-13.139,-8.042,3.393,-6.091,15.837,96.604,-7.024,-10.788,3.989,-29.157,-7.449,70.706,-7.093,-9.558
1.4251188000002912,9.494,-10.178,-24.285,7.835,27.637,37.009,24.685,-3.459,-5.867,14.503,2.457,-3.895,-9.458,-25.474,10.843,-16.712,-16.231,-2.758,-9.671,9.161,99.581,-8.554,-13.339,3.986,-26.054,-10.004,66.025,-6.062,-11.598
1.426807700000154,7.948,-15.804,-25.285,4.754,22.998,44.657,4.681,-6.529,-15.082,10.39,-0.62,-5.94,-8.424,-26.473,9.296,-18.745,-21.85,-10.953,-11.711,6.591,97.432,-14.693,-15.887,0.908,-29.614,-10.506,64.422,-11.179,-19.271
1.4402865000001839,15.112,-9.128,-21.674,4.749,31.684,52.809,-5.57,-6.523,-11.993,18.064,5.016,-6.446,-4.829,-15.688,11.848,-7.968,-16.193,-4.282,-6.064,13.244,105.019,-7.506,-4.601,7.567,-24.461,-3.835,69.48,-5.532,-10.542
1.4403534000002765,25.856,2.152,-7.82,21.138,46.51,58.904,-1.979,6.804,0.826,33.415,16.794,4.319,-0.214,-9.013,23.107,4.336,-9.517,6.993,4.188,20.916,119.259,6.846,8.212,21.392,-5.481,5.39,76.583,7.281,8.936
1.4551862000002984,19.17,-7.584,-13.96,17.018,44.414,56.796,-16.833,8.334,0.826,28.771,15.241,7.9,2.348,-16.688,22.059,1.77,-10.532,5.962,4.184,20.382,118.115,4.79,2.056,16.759,-8.037,3.335,74.97,1.126,3.291
1.4552556000003278,7.368,-24.995,-39.049,-15.274,29.0,42.394,-15.792,-9.605,-9.934,15.422,1.906,-1.329,-1.24,-22.819,10.254,-3.355,-14.62,1.345,-5.041,13.19,110.824,-4.436,-6.143,3.935,-27.497,-10.5,65.161,-17.318,-18.229
1.4701215000000047,7.873,-23.945,-40.547,-23.456,27.434,36.204,11.888,-10.62,-8.387,23.604,4.977,1.746,-2.264,-17.161,11.268,-1.302,-9.482,5.442,-0.938,13.176,117.374,-0.846,-0.502,9.054,-27.469,-9.977,62.022,-19.862,-18.723
1.4701867000003404,10.939,-12.138,-24.625,2.695,41.239,52.05,10.34,6.809,1.868,34.851,17.268,11.478,4.911,-10.996,20.479,3.822,-0.251,11.584,6.235,19.823,124.941,5.303,4.11,17.754,-19.245,1.303,73.231,-9.084,-5.896
1.4851336000001538,11.44,-10.589,-25.112,9.353,39.661,58.658,-4.528,7.827,0.329,25.082,11.615,3.782,3.881,-16.621,19.434,1.769,-6.398,7.987,-4.017,16.217,123.279,0.174,-2.042,12.613,-25.373,-3.821,75.719,-6.513,-5.891
1.486974000000373,9.379,-17.751,-29.186,-6.538,20.154,42.717,12.383,-3.452,-8.381,12.762,0.333,-5.443,-6.881,-31.973,14.291,-7.454,-21.249,-1.243,-10.161,5.955,123.156,-6.998,-6.651,7.478,-30.983,-11.502,63.86,-14.191,-13.057
1.5001931000001605,10.394,-17.733,-19.935,-1.921,20.134,41.138,27.228,1.675,-3.249,18.897,6.993,1.222,-4.825,-38.601,15.814,-7.447,-17.641,0.295,0.096,10.56,128.668,-1.356,-1.009,14.643,-23.78,-2.781,65.333,-11.103,-11.507
1.5002565000004324,22.679,-5.42,-11.718,22.159,41.118,60.052,21.053,17.554,11.611,31.686,18.769,10.955,6.451,-30.878,23.482,8.954,-3.279,13.615,7.78,21.82,136.224,11.966,9.751,25.899,-12.486,6.443,83.199,6.838,-0.225
1.5152451000003566,27.268,1.758,-8.633,28.797,43.126,63.578,18.47,22.148,14.161,33.191,19.262,12.993,5.419,-23.163,25.508,13.556,-1.227,17.7,7.772,18.724,142.748,17.077,12.302,30.484,-10.936,5.412,87.726,14.004,8.485
1.5153095000000576,15.969,-0.806,-4.013,18.01,29.251,51.219,23.062,17.002,1.851,25.473,11.558,7.857,-3.807,-21.602,19.847,1.247,-8.398,9.485,6.228,11.533,141.58,11.424,5.63,24.305,-17.585,3.87,79.442,5.281,8.476
1.5305931000002602,13.904,-1.317,-1.448,15.943,27.685,47.069,26.113,10.838,-7.884,21.349,5.911,-0.348,-8.414,-17.482,16.241,-3.877,-12.488,6.914,0.074,12.034,135.291,4.24,2.038,19.158,-19.617,2.329,78.338,-0.872,6.931
1.5306562000000667,14.915,-1.316,-4.52,18.488,27.145,51.633,27.624,6.728,-3.778,22.865,7.442,-2.397,-6.869,-11.83,13.664,-4.386,-12.475,9.981,-4.025,10.485,133.107,2.187,1.524,19.139,-21.134,-4.333,78.259,-1.384,4.875
1.5452328000001216,7.215,-7.462,-6.052,14.371,19.433,53.631,17.862,10.308,1.861,23.354,11.021,0.68,-1.739,-10.793,10.064,-8.48,-10.926,10.484,-0.435,6.888,135.023,4.234,-1.551,17.07,-24.699,-6.891,72.033,-2.919,1.284
1.5469731000002866,9.257,-10.528,-6.559,13.845,23.512,48.966,12.722,14.908,-3.776,22.818,8.448,0.679,0.824,-9.758,13.128,-4.373,-6.817,10.985,2.64,8.418,138.986,6.279,0.499,17.053,-20.576,-2.785,65.814,-3.429,1.795
1.560305100000278,16.933,-10.006,-9.114,12.294,31.173,45.843,19.369,8.746,-8.895,23.82,8.44,3.752,-0.201,-9.236,17.725,4.341,-5.785,12.511,3.149,11.996,144.995,8.834,5.622,23.184,-15.432,-0.221,66.26,-3.425,2.818
1.5603731000001062,13.33,-11.533,-13.715,6.646,31.654,47.335,19.349,8.225,-1.714,24.821,14.579,9.896,2.36,-17.936,19.757,6.898,-6.804,14.036,5.195,14.033,148.436,13.436,6.641,26.235,-14.392,0.804,72.854,-2.397,-1.796
1.5753295000004073,14.341,-9.472,-13.702,9.714,35.209,45.238,16.256,15.389,0.337,22.747,13.028,7.325,4.407,-25.09,20.249,6.379,-6.797,16.583,5.19,12.995,147.263,13.935,8.171,26.721,-11.816,4.389,76.879,-1.883,-2.307
1.5903339000001324,16.376,-7.925,-11.126,11.241,34.661,40.07,22.9,2.566,-8.885,18.626,5.33,-1.904,-2.257,-20.966,17.155,3.811,-8.84,14.517,0.062,8.371,144.554,9.823,9.188,25.669,-13.854,4.385,71.167,-6.491,-0.255
1.5904004000003624,7.138,-15.602,-15.726,3.033,22.331,37.468,22.365,-11.782,-10.926,13.996,1.739,-3.439,-7.89,-17.872,13.552,-2.853,-12.417,9.892,-3.524,3.752,140.311,5.714,2.006,17.959,-21.525,-3.816,64.436,-10.071,-5.89
1.6053021000002445,5.594,-18.66,-20.321,1.493,17.186,35.381,10.559,1.55,-7.328,12.958,0.2,-4.46,-6.858,-19.391,12.514,-5.924,-14.454,6.808,-7.107,1.187,139.146,1.61,-3.119,14.355,-19.966,-8.423,65.396,-7.499,-8.958
1.6053598000003149,11.736,-13.519,-15.178,7.639,22.804,37.908,5.938,11.795,-5.784,14.994,-0.313,-10.604,-5.826,-16.297,9.427,-6.942,-18.538,1.678,-10.174,-0.352,141.569,1.096,2.007,19.464,-14.311,-3.804,65.331,-4.93,-5.363
1.6203549000001658,14.286,-10.944,-10.039,10.705,27.904,48.628,14.129,5.635,-0.655,18.053,6.348,-6.494,-3.771,-13.207,11.979,-3.862,-20.568,3.214,-2.991,2.723,143.476,9.804,8.153,23.543,-10.198,2.86,69.876,-1.852,-1.771
1.620418100000279,26.055,-4.785,-4.394,21.965,36.585,56.776,30.509,8.191,8.055,25.207,18.637,8.369,3.917,-9.096,27.337,10.487,-11.839,17.043,11.869,12.454,149.993,21.578,15.829,30.179,0.058,12.078,86.712,8.909,7.452
1.6354134000002887,36.787,5.978,4.832,30.652,45.77,61.33,37.138,17.917,15.219,32.867,27.84,17.07,11.598,0.647,35.506,23.284,-4.142,26.247,18.517,19.101,158.04,24.63,23.498,37.834,7.743,17.702,98.409,16.584,16.154
1.635470400000031,29.578,6.997,0.216,21.912,43.163,64.855,20.195,19.948,17.253,32.321,25.25,15.516,14.66,-5.501,31.885,20.699,-7.212,22.635,13.888,17.033,153.271,22.044,17.839,31.136,0.05,13.073,92.675,14.519,9.99
1.6514547000001585,22.376,0.842,-11.567,15.231,31.849,57.618,8.904,16.854,10.576,26.654,18.053,11.402,13.109,-25.476,28.267,14.018,-7.205,23.125,10.8,14.454,145.945,20.485,9.625,21.883,-7.634,8.962,87.459,12.967,2.295
1.6515194000003248,25.428,2.891,-4.895,20.338,26.182,45.265,22.727,13.251,9.028,26.627,18.035,10.366,11.559,-21.864,25.164,14.517,-1.05,30.274,15.4,17.002,149.386,18.927,12.176,24.935,-4.553,10.49,91.47,17.053,7.928
1.6654515000000174,23.865,8.011,7.405,23.392,30.254,44.707,31.926,13.751,19.778,27.625,19.554,13.942,15.133,-4.424,23.09,12.965,-3.61,33.317,17.946,18.009,149.236,18.396,13.189,22.349,-6.085,7.918,88.817,20.109,13.556
1.6655563000003895,20.255,6.466,4.836,20.295,30.224,44.15,27.283,10.663,19.758,22.987,10.825,10.341,13.581,-4.419,22.555,6.805,-15.39,27.136,12.805,11.331,140.89,16.329,6.516,14.129,-16.837,5.86,80.019,16.503,12.005
1.680431800000406,17.673,2.361,8.417,13.102,19.948,35.397,24.182,-1.643,3.856,13.742,1.08,-4.013,2.809,-10.05,14.847,-0.887,-23.571,19.937,8.181,7.221,136.651,10.677,4.972,14.628,-20.407,5.855,78.402,10.851,10.969
1.6804963000004136,18.168,8.506,29.413,19.749,19.415,36.386,15.449,3.994,3.853,11.167,2.616,-3.497,2.294,-9.528,11.759,-1.398,-25.085,24.528,13.808,14.386,138.563,11.691,12.14,19.736,-9.628,5.336,84.984,16.988,20.179
1.6944533000000774,29.421,26.429,57.561,44.832,33.228,48.645,6.724,26.531,21.267,22.426,15.933,11.876,13.562,-11.055,25.067,9.362,-21.986,34.749,21.479,22.569,143.035,22.438,19.812,25.352,-2.958,7.893,93.096,32.34,41.676
1.6945168000002013,34.002,32.038,85.168,47.861,35.757,51.67,17.988,22.919,21.758,28.552,18.991,9.814,10.987,-12.581,28.116,10.377,-25.038,30.616,17.872,18.448,141.868,20.878,17.231,28.912,-13.201,8.397,93.003,37.943,60.59
1.7095706000000064,22.697,21.247,104.551,31.932,24.962,39.836,30.266,-1.183,5.855,14.691,6.165,-2.491,-0.294,-14.618,16.305,-3.466,-37.308,21.364,5.558,9.72,131.48,7.537,6.455,22.223,-20.361,2.241,85.225,30.221,67.701
1.7096316000001934,22.674,27.373,119.815,45.732,23.913,35.185,21.014,3.429,5.337,9.553,8.208,5.196,6.366,-8.455,19.874,-0.901,-36.246,28.003,7.09,15.858,132.373,13.165,7.473,20.664,-1.385,5.825,85.14,34.289,78.904
1.7244440000004033,31.361,41.691,136.602,56.445,31.573,43.859,10.747,20.332,14.553,21.839,21.007,15.95,14.556,5.898,32.15,13.445,-25.964,39.245,18.866,26.601,140.95,28.009,18.224,27.816,16.547,15.041,92.739,46.038,94.195
1.7245029000000613,24.157,31.403,138.514,29.236,27.443,41.766,16.371,6.479,7.878,17.719,11.252,8.761,5.32,0.769,27.507,9.333,-32.085,35.108,17.822,22.476,132.612,22.346,16.157,23.69,4.748,11.952,90.085,39.844,89.49
1.7395574000001943,19.01,21.125,128.642,26.645,18.194,29.941,22.503,-5.822,2.747,5.918,2.532,5.166,2.753,-16.65,23.381,3.688,-41.787,31.999,12.681,16.818,126.332,17.2,13.579,21.617,-7.552,10.915,88.97,33.657,74.543
1.7396267000003718,32.311,32.375,124.415,53.259,16.127,36.571,14.796,12.626,17.602,14.621,19.435,14.895,14.021,-17.146,35.141,13.418,-34.061,41.701,19.329,26.535,134.914,29.478,21.25,29.792,2.701,18.589,102.201,46.431,76.006
1.7545634000002792,38.427,33.88,116.093,42.447,5.352,49.342,7.608,15.688,23.732,22.803,25.051,13.343,13.495,-20.203,39.204,10.331,-29.928,46.782,19.822,30.607,129.656,25.863,17.643,22.078,1.674,14.472,106.71,45.36,79.004
1.7699052000002666,31.216,21.55,94.46,19.863,-18.219,46.219,18.359,-4.82,8.339,13.559,9.145,-1.527,4.26,-28.38,30.456,-5.049,-37.583,40.587,9.043,19.305,115.182,9.443,4.817,5.662,-15.746,1.65,96.869,25.334,62.018
1.7699636000002101,32.721,18.455,73.874,30.602,-25.886,45.148,24.489,3.894,2.695,10.472,8.111,-3.062,1.182,-15.031,28.376,-7.093,-40.619,39.522,5.448,16.212,115.067,9.434,2.763,7.193,-15.73,1.136,94.723,19.161,40.439
1.7845367000004444,40.886,20.998,58.431,36.719,-18.175,53.3,7.046,23.358,17.037,17.121,20.398,6.162,4.255,-5.795,35.008,2.648,-40.578,50.241,9.541,25.418,117.513,16.084,6.347,11.284,-9.567,2.671,101.289,20.167,31.69
1.7845948000003773,45.456,17.391,47.614,20.801,-23.28,55.296,2.94,11.551,25.217,21.203,23.452,11.279,9.886,-20.133,41.12,10.843,-39.513,57.876,14.655,32.565,115.859,20.679,10.439,9.224,-12.119,2.669,106.823,17.585,30.121
1.799572100000205,42.849,10.713,37.32,9.509,-33.503,51.655,23.43,2.83,16.995,19.132,20.867,11.268,10.9,-31.896,42.616,11.344,-38.449,56.281,17.714,32.532,117.28,23.732,11.965,10.751,-10.058,4.715,107.74,20.129,21.382
1.8012800000001334,36.146,3.018,19.864,8.475,-23.735,45.455,26.992,16.147,8.781,11.941,20.334,9.207,6.279,-33.401,37.45,5.697,-44.558,55.2,13.085,28.913,111.527,16.536,4.269,7.155,-12.097,-0.412,99.948,15.498,4.967
1.8146051000003354,34.573,5.577,10.623,14.102,-2.195,43.361,11.084,22.279,15.432,11.929,22.875,8.686,10.371,-30.806,33.314,8.765,-44.514,63.854,11.535,27.347,101.17,11.909,3.24,5.61,-17.72,-2.974,95.75,12.409,0.351
1.8146792000002279,41.198,17.354,13.686,26.895,7.541,51.002,7.486,21.744,26.175,21.651,24.901,14.313,15.484,-24.628,40.966,15.929,-33.711,74.549,19.209,31.931,99.532,24.704,18.094,20.462,-2.845,8.812,105.9,26.741,12.646
1.8296331000001373,39.62,17.849,10.598,29.942,3.948,49.926,18.75,22.747,19.489,18.555,21.29,11.224,8.296,-27.165,41.437,9.765,-36.239,75.499,19.189,31.899,97.895,29.29,23.199,28.638,12.014,12.39,106.819,29.788,15.195
1.829697600000145,29.847,8.61,2.903,20.691,0.357,36.556,30.002,15.04,8.199,7.266,15.633,0.967,2.652,-24.576,30.125,-1.003,-46.961,73.886,11.486,25.719,87.551,16.966,13.954,19.388,-0.805,3.156,91.343,16.438,1.347
1.8449964000001273,28.28,4.503,-7.346,14.522,2.919,33.446,24.849,8.365,8.19,6.234,13.056,1.478,2.65,-15.33,28.046,0.023,-45.377,74.837,7.376,24.669,80.804,13.875,11.378,15.783,-18.223,2.64,86.641,12.836,-9.413
1.8450572000001557,27.739,1.424,-27.831,8.873,7.014,33.412,-3.353,7.332,7.67,3.154,9.457,3.014,-4.013,-31.709,30.067,1.047,-49.43,70.664,5.831,22.083,76.624,13.861,7.268,14.23,-19.742,3.15,91.165,7.187,-19.649
1.8596620000002986,19.002,-5.75,-44.709,0.154,2.909,23.645,-17.182,-1.385,-1.047,-5.559,4.837,-2.112,-7.595,-45.509,21.84,-1.003,-56.553,69.056,2.752,17.962,70.4,6.675,-1.448,0.896,-13.574,-5.05,83.389,-5.115,-33.462
1.8614944000000833,16.934,-7.793,-44.664,-5.993,-1.193,21.572,2.815,-6.506,-1.558,-1.967,8.418,3.525,-0.415,-18.824,23.867,3.096,-48.3,78.208,5.823,23.067,68.28,10.254,-0.934,-6.278,-13.048,-4.533,78.183,-4.598,-35.478
1.8747285000004013,25.626,-4.711,-45.132,-8.037,5.469,29.235,13.571,2.722,8.177,5.207,16.607,12.743,6.757,-3.948,33.577,9.241,-44.665,83.253,12.989,28.68,70.774,17.929,2.653,2.438,-22.769,2.644,88.35,-3.056,-31.856
1.874799300000177,27.65,-4.194,-55.333,-5.467,15.197,29.718,-1.3,6.817,13.804,5.202,15.565,7.607,5.726,-30.072,28.933,7.695,-53.842,79.072,12.976,24.553,66.604,14.325,0.089,6.534,-22.746,-0.945,90.311,-4.078,-33.361
1.889738800000032,19.425,-7.264,-61.938,-2.9,20.817,24.053,-1.298,1.688,9.18,2.636,8.89,2.989,2.646,-46.435,21.732,2.052,-54.813,81.554,7.328,19.405,55.267,10.724,-1.961,-0.133,-11.453,-3.505,75.364,-1.0,-35.889
1.9047592000001714,15.82,-11.867,-63.925,-7.508,26.432,20.443,15.609,4.247,3.535,0.584,8.369,6.06,1.619,-38.704,21.71,-0.512,-50.147,88.645,8.345,19.898,48.039,10.201,-3.496,-2.694,-14.515,-2.477,66.067,-6.634,-39.44
1.9048163000002205,16.394,-11.674,-64.173,-7.059,27.581,22.362,15.671,6.168,4.495,2.056,9.52,7.66,2.644,-38.251,22.86,0.897,-48.924,89.722,9.369,20.984,48.546,11.353,-1.83,-1.413,-13.169,-1.516,67.148,-6.121,-38.794
1.9048571000002994,16.968,-11.48,-64.421,-6.61,28.73,24.28,15.733,8.089,5.455,3.529,10.672,9.26,3.668,-37.798,24.01,2.306,-47.701,90.8,10.392,22.07,49.052,12.504,-0.165,-0.132,-11.822,-0.555,68.228,-5.608,-38.149
1.9048966000000291,17.543,-11.287,-64.67,-6.16,29.88,26.199,15.795,10.009,6.416,5.002,11.824,10.861,4.692,-37.345,25.16,3.715,-46.478,91.878,11.416,23.156,49.558,13.655,1.501,1.149,-10.475,0.406,69.308,-5.095,-37.504
1.9066204000000653,18.117,-11.093,-64.918,-5.711,31.029,28.118,15.857,11.93,7.376,6.475,12.975,12.461,5.717,-36.892,26.31,5.124,-45.255,92.955,12.439,24.242,50.065,14.807,3.166,2.43,-9.129,1.366,70.389,-4.582,-36.858
1.9066673000002083,18.692,-10.899,-65.166,-5.262,32.179,30.036,15.92,13.851,8.336,7.948,14.127,14.061,6.741,-36.439,27.46,6.533,-44.032,94.033,13.463,25.329,50.571,15.958,4.831,3.712,-7.782,2.327,71.469,-4.069,-36.213
1.9067018000000644,19.266,-10.706,-65.414,-4.813,33.328,31.955,15.982,15.771,9.296,9.421,15.279,15.661,7.766,-35.986,28.61,7.942,-42.809,95.11,14.487,26.415,51.077,17.11,6.497,4.993,-6.436,3.288,72.55,-3.555,-35.568
1.906735800000206,19.84,-10.512,-65.662,-4.363,34.477,33.873,16.044,17.692,10.256,10.893,16.43,17.261,8.79,-35.533,29.76,9.351,-41.586,96.188,15.51,27.501,51.584,18.261,8.162,6.274,-5.089,4.249,73.63,-3.042,-34.922
1.9067697000000408,20.415,-10.319,-65.91,-3.914,35.627,35.792,16.106,19.612,11.216,12.366,17.582,18.862,9.815,-35.08,30.91,10.76,-40.363,97.265,16.534,28.587,52.09,19.413,9.828,7.555,-3.742,5.21,74.71,-2.529,-34.277
1.9068036000003303,34.227,4.036,-59.697,6.336,47.374,57.273,6.356,37.524,34.771,34.383,36.007,35.237,22.612,-39.143,46.76,25.093,-38.274,108.439,22.153,40.342,57.673,32.713,23.65,21.38,9.069,16.988,94.103,7.207,-22.46
1.9197355000001153,26.508,-7.239,-66.809,-15.187,28.884,33.137,6.349,9.821,17.83,12.832,20.09,15.221,8.757,-49.862,32.881,8.162,-50.531,95.523,9.323,28.518,42.246,12.7,5.184,8.038,-8.358,4.676,83.251,-5.608,-33.708
1.9347627000001921,13.673,-21.064,-73.915,-28.492,14.51,16.198,6.855,3.664,-4.217,-7.161,2.651,1.886,-2.522,-38.029,20.041,-6.703,-53.042,87.23,0.604,17.219,31.446,-1.145,-10.703,-7.851,-17.572,-3.014,70.36,-14.824,-40.334
1.9364614000000984,34.152,4.573,-49.763,4.324,47.283,48.97,5.824,36.448,20.891,24.097,28.776,29.037,20.534,-10.839,40.001,17.895,-36.595,111.222,23.145,36.669,50.37,27.546,12.874,12.137,4.475,16.969,88.733,9.782,-12.117
1.9498053000002074,53.073,25.573,-27.171,29.935,74.901,64.29,18.626,42.559,42.899,45.077,46.678,42.84,32.809,-2.631,57.891,38.369,-23.75,127.504,39.516,52.002,58.516,41.863,31.304,30.567,14.717,26.686,98.89,29.24,9.924
1.9498660000003838,26.38,-0.068,-46.099,-0.321,42.551,34.512,23.73,12.29,21.339,16.343,21.529,18.718,9.722,-14.924,40.927,16.301,-34.485,110.471,18.984,35.556,33.867,15.693,9.243,9.02,-4.253,7.704,73.688,5.644,-12.627
1.9651898000001893,4.837,-21.585,-69.107,-19.788,16.893,24.231,3.727,14.84,9.022,4.031,10.236,9.478,4.077,-17.471,22.956,-1.646,-46.234,99.089,6.67,24.25,22.05,6.456,-5.11,-8.408,-12.958,-5.111,57.221,-17.415,-33.107
1.965245600000344,23.788,-7.219,-59.817,5.334,44.54,46.748,-7.036,33.268,30.53,27.593,30.206,27.912,23.029,-5.158,36.765,17.311,-33.892,111.798,24.081,38.57,34.323,22.331,15.387,9.532,3.961,4.628,70.483,-2.541,-19.241
1.9799330000000737,28.375,-2.088,-54.634,11.477,58.328,44.652,9.878,24.013,33.574,27.566,30.688,29.933,20.956,-5.665,47.487,26.516,-27.711,112.198,27.131,42.63,31.215,22.309,22.032,17.207,13.178,11.795,75.024,5.146,-15.636
1.9800061000000824,9.903,-20.529,-65.85,-19.786,32.142,16.431,28.823,9.645,8.437,4.997,11.19,12.997,6.079,-24.102,30.533,8.046,-42.027,97.742,12.759,28.243,16.839,13.577,4.079,2.845,3.944,5.636,60.092,-11.765,-32.014
1.9949005000003126,12.967,-24.095,-64.247,-26.938,28.524,15.902,23.159,17.319,4.842,7.041,13.228,14.521,9.146,-31.25,24.867,7.013,-42.498,99.693,15.82,28.727,16.31,17.15,4.587,4.379,0.354,2.044,57.47,-10.728,-28.908
1.9964278000002196,24.225,-9.214,-61.621,-5.906,50.524,40.477,-1.967,29.598,24.305,22.403,29.096,29.363,18.871,-24.047,38.675,20.839,-30.672,105.741,23.489,38.432,17.318,19.182,13.292,11.035,3.427,5.116,64.073,0.553,-20.17
2.0099418000004334,20.102,-8.693,-69.244,-8.462,45.351,43.51,-7.088,22.396,27.867,20.332,28.042,27.285,18.34,-22.486,37.099,16.719,-36.277,95.902,17.318,36.344,12.69,14.552,3.544,0.265,-4.261,6.135,59.91,-6.62,-28.859
2.010009600000103,22.131,-14.319,-63.027,-21.261,35.059,30.659,15.972,13.152,18.105,13.651,20.33,19.573,14.735,-19.902,31.939,11.067,-40.339,91.195,17.301,34.771,15.751,16.074,-1.07,-1.272,-8.867,6.129,60.875,-5.589,-27.294
2.0249714000001404,30.306,-5.596,-53.23,-9.969,47.32,34.215,18.006,20.823,14.501,13.638,24.92,20.578,13.696,-14.759,40.104,14.642,-33.126,94.178,20.87,35.249,17.785,19.132,7.128,7.951,-3.223,6.635,69.011,6.712,-17.02
2.0250339000003805,21.567,-5.078,-60.349,-4.836,48.809,35.717,-4.554,22.852,13.974,9.525,22.334,16.459,10.096,-24.99,34.941,5.406,-37.192,84.862,9.066,27.016,4.959,11.941,2.51,1.795,-7.318,2.018,60.745,-1.491,-21.614
2.0399748000004365,11.299,-19.417,-65.412,-20.713,35.44,21.337,-3.012,8.996,14.985,5.417,11.553,7.733,4.451,-32.65,22.61,-4.845,-44.327,74.531,1.372,23.916,-4.779,4.244,-4.665,-5.891,-13.971,-0.546,49.413,-13.785,-27.228
2.0400382000002537,18.46,-17.861,-65.347,-18.643,40.528,24.902,6.724,12.061,19.068,9.51,15.127,12.849,5.471,-17.248,31.297,1.307,-35.573,80.092,12.129,32.601,1.373,9.875,2.512,1.799,-5.248,3.041,56.024,-8.648,-24.639
2.054936400000315,24.589,-12.208,-72.454,-6.329,47.66,41.271,-5.578,26.394,19.562,14.112,22.797,20.008,11.101,-6.472,37.926,4.892,-29.39,81.548,16.728,34.618,1.372,14.988,4.047,3.847,-1.144,2.526,58.529,-7.615,-28.713
2.056703500000367,15.343,-23.466,-73.918,-22.717,36.341,35.082,-11.72,19.707,10.32,6.413,16.626,13.328,7.503,-17.737,30.715,-0.748,-33.459,71.733,8.002,29.46,-9.388,7.289,-4.666,-2.817,-9.852,-1.063,47.712,-14.78,-35.856
2.069983500000035,13.278,-27.541,-69.234,-36.526,33.744,23.776,-4.536,8.417,6.212,-1.79,14.561,10.241,2.373,-23.354,33.246,-0.235,-31.889,68.075,8.506,32.504,-7.33,6.769,-2.1,0.259,-8.818,2.524,45.615,-16.302,-33.771
2.070047700000032,26.073,-14.706,-69.164,-19.071,44.981,32.974,-5.556,13.532,15.939,5.896,25.817,19.964,9.031,-18.208,41.922,7.45,-23.148,73.642,19.256,40.669,0.875,20.083,12.246,11.53,2.462,7.133,56.841,-9.113,-28.102
2.085033900000326,28.608,-8.544,-63.972,-7.269,48.522,39.088,-0.939,23.764,17.46,16.649,31.426,24.043,14.145,-20.751,42.393,14.102,-18.514,70.495,19.749,41.14,-1.688,24.161,16.333,16.641,8.095,8.15,63.444,-2.444,-22.951
2.085105800000292,19.87,-12.121,-63.396,-14.946,46.936,35.975,11.869,28.351,10.783,16.12,27.297,21.457,12.081,-22.78,41.325,14.088,-18.495,61.715,13.069,37.001,-4.76,17.989,8.632,13.551,9.111,8.142,59.282,-6.028,-23.44
2.101088400000208,19.85,-13.134,-73.066,-18.005,46.377,37.476,11.857,24.737,17.944,13.542,26.245,26.047,16.68,-20.708,41.284,9.975,-13.866,61.654,13.569,37.476,-5.78,18.483,6.062,10.976,7.053,6.084,57.686,-13.706,-29.052
2.1011483000002045,24.441,-13.121,-70.944,-17.475,41.208,40.0,6.21,16.515,24.586,14.041,29.805,28.07,16.663,-21.712,40.218,10.478,-10.778,61.08,13.555,38.463,-13.459,16.416,6.568,9.94,1.41,3.517,62.239,-11.643,-30.048
2.1150511000000733,23.905,-12.595,-61.139,-13.871,36.043,42.01,3.642,21.622,15.34,11.978,29.262,21.382,8.962,-23.227,41.203,10.98,-14.354,49.235,7.906,35.351,-16.007,7.69,-0.099,5.32,-2.689,3.513,59.615,-9.583,-26.944
2.130095800000163,29.004,-6.947,-62.103,0.487,38.057,49.652,-3.021,34.408,15.325,12.99,27.184,19.823,10.49,-18.593,42.698,7.382,-11.265,43.551,6.361,35.315,-10.355,7.682,-1.123,5.827,-1.15,4.534,55.457,-9.061,-22.818
2.1301635000004353,34.61,-2.842,-62.041,2.536,40.068,47.041,0.568,33.349,21.457,14.002,28.181,22.877,11.504,-11.402,43.168,9.937,-2.033,47.093,11.478,39.379,-10.345,13.822,9.124,16.067,6.536,9.653,65.648,0.682,-16.136
2.1451456000004328,31.502,-2.839,-53.269,-13.348,33.88,38.285,19.523,23.581,14.776,8.352,28.153,21.83,5.345,-4.218,45.174,14.537,1.556,45.509,16.077,40.876,-10.847,18.419,13.213,21.686,13.702,14.766,72.754,6.317,-11.509
2.1452063000001544,31.983,-0.275,-48.093,-10.261,32.821,45.931,14.892,25.607,15.786,10.906,30.687,25.394,14.561,-2.165,48.203,17.084,6.677,41.878,22.209,44.421,-6.738,26.085,12.688,21.152,10.614,14.752,68.583,3.749,-9.96
2.160098900000321,37.074,5.873,-47.533,6.655,41.498,60.742,-10.738,33.266,30.115,22.678,36.804,31.517,24.793,-6.261,49.691,20.654,12.306,42.86,24.748,51.549,-8.268,28.621,16.774,21.131,3.431,13.712,71.076,5.795,-7.901
2.1601611000000958,30.377,1.257,-49.534,1.013,40.432,56.583,-7.653,28.11,25.986,18.557,32.668,26.362,13.497,-11.378,45.031,14.485,4.097,35.133,17.551,46.887,-17.481,19.883,10.609,13.425,-2.72,12.162,68.956,2.203,-11.479
2.175074200000381,20.612,-11.04,-53.583,-14.357,27.071,44.231,17.457,21.422,11.615,4.706,21.877,17.114,6.824,-11.366,36.277,1.663,-2.568,26.389,9.849,34.545,-24.636,11.154,0.352,3.678,-4.766,4.465,54.542,-8.558,-16.591
2.1751422000002094,24.69,-8.467,-52.505,-10.756,26.532,50.847,21.538,29.085,14.678,7.263,24.929,18.122,13.989,-7.769,34.704,4.223,2.558,26.875,11.376,33.486,-25.636,11.143,5.475,8.285,-0.151,1.899,56.537,-4.963,-14.013
2.1901604000004227,31.838,1.275,-47.329,0.013,38.801,66.677,8.709,32.642,22.348,13.403,32.077,19.64,13.975,-10.323,39.792,8.829,0.506,27.872,15.463,38.575,-22.536,16.255,12.13,16.474,6.509,8.557,68.263,4.263,-8.876
2.1902251000001343,31.294,0.761,-45.233,2.062,40.299,66.611,-0.009,26.462,20.788,11.34,30.508,18.084,10.887,-20.046,40.777,4.722,-6.666,25.795,15.448,38.537,-22.001,19.312,10.581,16.97,8.04,14.696,67.17,3.747,-6.818
2.2052605000003496,30.75,1.273,-41.089,4.109,40.259,63.47,-7.693,34.632,22.304,13.378,32.014,24.726,13.95,-19.002,41.761,9.84,-1.537,31.405,18.506,40.035,-21.467,23.391,17.23,24.637,12.13,15.706,69.665,8.354,-3.737
2.2053281000003153,33.793,8.444,-36.437,6.667,49.44,73.653,-9.223,41.257,26.893,16.439,37.617,32.898,17.01,-10.273,45.817,21.614,4.1,38.546,26.684,44.606,-16.835,31.565,28.484,35.883,21.34,17.74,76.767,15.005,-1.684
2.2206492000000253,34.272,6.899,-39.987,4.099,50.927,79.215,7.18,25.847,21.743,10.787,33.994,30.304,17.505,-13.849,46.796,19.543,1.022,41.069,31.781,47.123,-14.769,34.607,28.967,38.409,25.929,21.82,74.641,12.429,-2.707
2.220714500000213,36.799,4.842,-40.972,2.045,41.655,76.062,22.03,21.723,17.623,9.752,31.91,25.662,15.439,-17.934,48.286,14.4,-0.003,42.052,27.138,48.1,-15.779,30.474,25.865,36.834,22.829,23.335,75.591,8.318,-4.241
2.235196700000415,40.861,7.399,-37.344,1.531,34.953,80.596,11.762,43.218,26.827,17.426,38.538,28.198,15.936,-10.744,50.287,14.898,3.07,43.547,20.963,46.003,-15.251,27.882,24.814,36.285,15.634,20.751,80.127,9.334,-4.237
2.2352499000003263,36.209,3.293,-36.795,2.554,34.406,86.663,-6.693,48.81,34.997,17.409,36.963,29.707,20.018,-6.634,46.651,13.346,3.067,40.43,21.455,41.858,-16.772,25.293,20.178,30.613,10.495,18.681,75.948,8.812,-3.72
2.2502957000001516,25.927,-3.37,-41.881,5.113,31.298,81.454,-0.538,28.269,24.716,7.658,24.118,23.017,15.9,-10.726,40.456,5.648,-4.62,32.705,16.31,37.206,-27.514,16.558,10.937,18.799,4.849,11.49,70.237,2.656,-7.815
2.2503608000001805,19.241,-10.539,-49.524,0.497,20.508,70.614,11.245,15.945,9.834,-1.571,15.897,13.26,5.638,-18.4,34.268,-5.628,-12.3,24.987,3.486,29.996,-38.757,4.759,-0.345,7.51,-6.938,-0.305,64.531,-12.716,-18.566
2.265296600000056,16.148,-18.725,-56.134,-9.237,12.803,69.519,-5.672,24.639,12.386,-1.57,16.906,11.198,7.169,-23.505,28.599,-11.258,-8.19,22.913,-0.103,25.868,-40.255,-1.906,-6.492,2.891,-15.641,-3.379,56.27,-21.412,-23.67
2.2653614000000744,16.131,-13.583,-50.443,-7.691,22.524,78.671,-16.937,29.737,23.644,4.579,20.987,16.31,13.309,-15.797,30.619,-4.074,0.528,27.501,7.069,31.99,-34.067,4.756,-0.85,8.524,-8.453,1.748,60.824,-9.096,-14.937
2.2802763000004234,20.214,-2.299,-36.56,3.075,32.235,81.153,9.72,20.998,21.059,4.575,25.065,20.392,12.784,-4.51,37.761,4.639,2.577,33.109,13.21,38.618,-26.861,16.534,9.397,18.249,2.826,6.357,72.034,3.721,-2.115
2.2803429000000506,27.878,-3.321,-28.327,8.195,29.641,76.974,24.567,22.514,14.89,2.009,28.626,20.372,11.234,-5.018,40.285,6.684,4.623,35.637,16.783,38.579,-22.223,20.616,12.461,25.916,8.971,12.498,72.474,2.693,4.547
2.295277000000169,33.486,-3.318,-28.811,6.138,33.71,80.483,5.587,35.811,19.486,4.056,30.134,21.376,13.272,-9.111,44.855,7.702,6.156,33.04,18.303,39.053,-20.152,20.595,11.424,27.939,10.499,15.56,75.476,5.764,4.543
2.295336700000007,33.452,3.345,-33.905,4.082,40.849,82.452,-0.566,31.677,22.54,4.052,28.055,22.379,13.771,-1.418,49.933,9.743,5.637,30.446,17.26,41.063,-18.083,20.062,14.486,26.886,11.513,14.007,84.622,10.369,3.514
2.310340400000314,32.394,1.293,-36.432,3.054,36.197,77.246,9.68,19.862,20.469,2.511,29.052,24.918,13.245,10.367,47.322,11.783,9.73,35.538,22.366,42.046,-14.991,22.604,18.058,29.933,15.088,17.579,84.025,3.699,-0.076
2.3104098000003432,32.362,-2.807,-35.884,2.026,32.575,78.194,7.109,23.429,21.473,5.07,33.121,28.48,14.769,12.406,45.225,12.795,15.356,42.675,29.516,44.054,-13.951,28.729,21.626,34.514,15.585,22.172,83.429,-1.941,-7.76
2.3254062000000886,29.768,-1.267,-42.508,0.999,31.518,79.652,-0.07,23.918,20.939,4.552,31.551,26.402,18.852,5.733,45.692,11.758,11.754,42.12,27.437,44.522,-15.986,29.213,25.703,31.406,10.959,19.076,89.493,0.111,-12.363
2.3406988000001547,29.738,-2.803,-53.224,0.998,23.802,79.06,-7.243,18.771,19.893,3.523,28.446,24.838,20.883,-0.932,45.647,14.82,8.668,43.615,25.873,45.502,-15.458,27.646,23.628,27.788,8.899,16.496,89.403,-3.476,-13.888
2.3407572000000982,34.831,-6.386,-55.732,-4.126,21.216,85.641,-17.994,26.949,23.972,10.18,34.052,31.986,22.399,-1.444,49.7,20.441,12.758,51.768,31.994,50.58,-11.344,34.279,24.117,31.347,9.914,18.529,85.728,-9.108,-20.534
2.3553697000002103,34.797,-4.843,-57.213,-11.294,25.806,80.945,-9.267,31.02,21.386,9.657,36.068,37.077,25.45,-4.516,52.724,22.982,12.233,54.278,35.548,51.554,-8.259,36.294,29.728,33.364,8.88,19.535,87.179,-7.049,-24.612
2.355429700000059,32.2,-1.252,-57.156,-7.184,25.78,70.105,13.284,23.817,17.267,-0.086,33.47,34.991,25.937,-13.733,49.085,21.934,6.073,51.15,31.414,47.916,-8.251,28.573,28.161,30.77,10.92,19.003,90.166,-2.431,-20.489
2.370359500000177,31.143,-1.763,-54.537,-1.542,23.705,77.208,13.271,24.818,22.885,0.426,33.949,33.419,21.813,-19.867,45.962,17.814,3.506,50.586,23.698,44.282,-11.829,23.934,16.862,26.128,7.323,13.861,87.002,-5.503,-20.981
2.3720423000004303,25.477,-8.421,-59.606,-9.737,19.07,79.18,-4.673,23.768,18.763,0.938,30.329,28.775,19.229,-16.261,42.842,9.599,1.965,44.9,18.552,36.553,-17.964,18.787,8.649,17.905,-5.492,8.211,78.718,-15.231,-26.083
2.3854787000000215,22.378,-10.462,-56.472,-8.703,15.978,67.317,-4.668,17.597,8.498,-5.211,25.175,25.16,20.235,-1.9,41.262,8.053,1.451,42.806,20.07,34.467,-16.922,16.719,11.201,18.912,-3.949,8.203,77.102,-13.167,-20.934
2.385542600000008,31.064,1.844,-34.387,9.749,28.769,73.398,13.267,23.727,18.224,-1.107,30.786,30.258,20.214,9.372,47.369,13.68,5.036,52.497,22.612,42.117,-8.196,24.386,17.338,29.651,8.35,12.806,86.759,2.728,-7.081
2.399441900000056,35.132,12.088,-27.18,19.473,40.524,85.62,22.475,31.9,27.427,8.116,33.829,30.74,19.17,4.24,50.908,15.715,7.592,53.982,21.564,41.563,-8.7,27.948,17.321,31.671,9.366,17.404,88.209,10.41,0.611
2.3994985000003908,36.121,10.027,-33.301,19.966,39.458,83.997,13.231,33.405,24.326,8.62,31.746,28.66,22.224,3.211,53.418,17.237,6.56,47.78,25.641,40.497,-9.203,26.896,19.353,29.078,10.381,21.997,85.559,7.838,3.684
2.414474600000176,41.721,10.017,-27.632,18.921,41.468,86.987,2.972,40.032,29.425,11.685,38.886,37.34,27.837,12.942,62.586,24.392,7.066,53.88,33.3,49.678,2.077,36.603,29.579,37.245,16.006,25.049,96.744,9.367,6.242
2.4145336000001407,35.019,6.933,-27.092,8.144,38.865,86.388,8.092,34.869,29.395,9.624,37.31,37.303,26.785,10.88,55.864,22.83,6.546,57.412,31.73,47.579,2.074,37.591,28.525,38.233,13.429,22.975,100.234,6.796,0.601
2.429556400000365,20.127,-5.882,-41.409,-1.086,23.457,71.957,18.842,16.903,16.558,-3.193,20.367,21.384,19.074,2.159,36.852,7.951,1.417,49.67,22.989,36.773,-13.809,21.671,14.664,24.362,13.415,13.73,81.691,-3.969,-10.158
2.4312688000004528,21.131,-8.438,-42.905,-0.06,21.897,70.348,15.237,17.911,19.615,-5.239,19.322,18.801,17.518,5.231,39.377,1.795,-0.122,48.596,19.38,36.224,-17.894,16.014,12.088,15.629,16.988,6.544,73.412,-9.088,-11.685
2.4445148000004338,27.258,0.792,-32.616,0.965,36.219,82.061,3.439,30.7,33.94,6.037,31.598,29.541,25.185,6.763,48.559,11.527,2.44,51.109,22.434,38.749,-11.216,22.146,18.224,20.224,13.385,11.148,83.585,-1.907,-5.526
2.4445771000000605,24.669,3.353,-30.534,5.575,45.405,82.491,4.973,33.231,35.956,9.617,32.591,34.634,30.795,-5.539,46.974,18.176,3.974,49.521,28.56,38.71,-8.643,25.198,19.23,24.814,14.909,17.797,86.063,6.804,-5.008
2.4596049000001585,21.571,1.301,-33.577,11.717,47.409,69.601,19.825,31.149,33.358,5.509,29.485,34.087,28.203,-14.243,45.39,15.083,4.995,49.471,30.068,39.184,-7.61,27.734,19.723,23.253,21.554,16.243,79.829,6.798,-9.614
2.4596652000000176,18.475,-0.75,-34.568,6.07,40.701,52.625,23.903,27.532,26.152,-0.132,24.844,24.319,22.027,-10.643,41.246,6.871,3.453,46.86,25.427,35.558,-9.139,26.169,17.142,19.131,13.847,14.177,78.724,3.205,-11.141
2.47493650000024,18.457,-1.774,-29.411,3.502,32.976,46.937,13.633,18.795,16.392,-4.23,17.647,14.561,18.931,-2.435,35.057,0.717,-0.136,42.203,24.377,33.474,-12.204,19.483,10.465,17.063,4.612,15.187,81.72,5.251,-7.031
2.4896112000001267,26.635,4.888,-23.746,12.72,39.603,56.624,12.083,12.628,19.962,-2.689,20.703,17.621,20.449,9.35,41.17,3.79,0.888,44.722,27.427,39.076,-6.044,22.025,11.479,15.509,9.731,13.123,85.224,10.368,-2.414
2.489674300000388,29.682,10.006,-28.845,12.707,43.662,58.616,20.267,15.69,24.553,-2.174,25.806,19.652,20.941,20.1,44.715,7.885,0.887,42.628,28.936,38.524,1.647,26.614,14.541,13.444,10.233,11.061,85.139,12.407,-4.973
2.491510400000152,26.067,7.947,-35.476,2.448,33.884,49.849,19.223,15.674,18.893,-7.295,19.12,12.973,18.358,15.469,36.985,2.241,-4.749,34.388,27.37,33.875,-0.404,22.489,7.867,14.455,7.149,10.025,81.98,15.981,-6.505
2.5046542000000045,28.09,9.988,-31.343,-3.702,29.752,54.41,14.08,5.412,18.874,-5.751,16.539,13.472,17.828,-2.478,37.973,-4.421,-8.33,31.792,24.781,36.915,-2.965,18.368,1.711,15.977,10.728,8.99,80.873,19.551,1.699
2.5197095000003173,29.086,11.515,-33.36,-4.723,29.21,62.552,8.943,4.894,25.515,2.964,21.133,17.045,17.81,-13.746,42.546,-1.855,-9.346,30.224,22.195,37.903,-0.913,17.837,4.271,10.838,8.668,8.469,78.231,13.384,1.185
2.5197789000003468,21.885,1.257,-45.622,-2.156,19.959,57.366,0.737,21.283,28.051,6.035,19.063,17.54,18.304,-10.658,40.966,2.758,-10.362,27.12,22.173,36.84,1.649,17.307,5.804,4.168,-1.074,6.411,72.005,0.563,-15.723
2.534687700000177,16.74,-8.99,-52.749,-7.277,9.181,49.624,-0.288,20.75,24.949,0.906,15.458,21.108,20.847,0.111,42.975,3.267,-5.741,31.191,21.126,41.926,1.135,14.728,-0.862,-1.984,-7.221,-0.255,68.859,-10.196,-28.515
2.5347528000002058,10.063,-17.178,-61.918,-26.225,1.999,42.915,-1.313,-2.325,16.215,-6.267,11.856,17.501,19.29,7.795,40.37,-1.859,-3.173,31.672,15.469,39.323,-5.013,7.029,-9.57,-10.692,-15.923,-6.915,63.155,-17.871,-36.171
2.5497026000002734,1.856,-24.845,-71.078,-36.445,-2.101,33.138,-9.508,-7.958,8.514,-10.872,3.647,6.213,12.098,4.714,27.01,-9.542,-8.806,27.03,11.868,29.55,-7.57,1.387,-11.098,-12.73,-20.518,-11.006,52.845,-22.463,-41.77
2.5497613000002275,8.002,-22.771,-62.81,-29.749,-0.562,32.08,-0.789,6.907,10.555,-9.836,4.156,9.793,10.037,-6.562,29.544,-7.995,-8.797,34.687,16.979,33.619,-0.39,7.533,-2.89,-4.008,-7.69,-7.409,56.379,-17.83,-34.044
2.564735500000097,22.339,-13.015,-50.451,-23.059,3.024,43.319,14.581,12.535,18.742,-0.093,16.447,19.517,17.711,-15.777,43.859,1.234,-0.591,43.362,24.134,41.27,7.807,17.772,6.847,3.168,1.027,0.795,68.618,-10.128,-24.788
2.56480160000001,23.853,-9.415,-54.499,-23.548,2.509,50.96,5.345,8.424,26.407,7.592,21.042,16.936,20.767,-14.736,42.791,0.721,-1.615,35.122,21.549,37.13,7.287,16.729,5.815,2.14,-5.634,2.331,66.5,-9.605,-26.812
2.579782300000261,18.194,-13.504,-60.593,-23.525,-0.567,47.323,-5.419,3.805,23.307,2.974,14.873,11.796,15.624,-7.037,36.6,-7.477,-10.323,26.377,13.33,32.482,5.231,6.979,-3.412,1.114,-6.14,-0.745,59.773,-11.133,-25.249
2.595779400000083,19.713,-14.003,-58.995,-22.477,4.556,39.591,-3.877,4.314,15.087,-0.615,12.297,13.833,13.046,-1.395,40.662,-5.42,-12.362,27.375,13.317,34.499,6.25,5.947,-4.433,1.625,1.55,-0.744,64.324,-7.023,-20.613
2.5958391000003758,25.328,-9.891,-57.399,-21.942,14.798,36.99,-6.435,15.068,19.683,6.558,16.895,17.406,16.107,0.656,44.72,2.27,-8.763,30.934,18.939,37.026,10.342,15.163,0.694,1.623,-1.525,2.33,68.358,-3.942,-21.617
2.595875200000137,28.377,-5.27,-58.366,-20.383,16.832,43.101,0.744,22.737,30.934,12.186,23.026,24.561,20.702,4.242,48.261,6.366,-5.168,36.539,22.506,41.087,19.553,22.832,2.743,4.695,-3.573,8.988,69.827,-1.377,-19.033
2.6098119000002953,35.521,2.42,-52.16,-13.703,16.816,50.23,10.477,18.104,33.464,15.76,29.15,31.708,25.292,7.311,58.459,13.532,-0.04,40.088,27.094,48.218,30.805,25.883,7.351,11.863,3.603,15.127,80.516,7.334,-11.33
2.609890600000199,46.244,10.614,-36.739,-4.467,23.459,53.766,0.221,15.012,23.697,17.794,33.22,31.677,25.779,0.132,63.524,21.203,-0.552,35.437,30.653,51.244,35.385,27.394,14.004,16.462,5.649,15.624,88.12,16.036,-5.683
2.6248394000003827,46.198,9.579,-22.87,-4.463,18.312,53.2,0.733,11.411,12.915,10.091,31.137,27.034,21.655,-10.627,58.337,17.083,-3.113,33.865,26.524,48.119,30.738,26.854,10.916,11.835,1.032,15.608,78.81,14.483,2.007
2.624902700000348,38.467,2.397,-26.945,-11.119,8.56,48.024,6.88,7.301,14.951,6.495,26.495,22.909,17.535,-12.153,52.131,7.845,-0.549,34.856,19.326,42.948,23.535,18.118,2.708,3.626,-3.58,10.47,66.436,5.247,-0.556
2.639833600000202,29.207,-5.29,-42.8,-17.767,13.675,39.266,-15.669,9.855,19.547,10.075,19.297,18.787,15.468,-11.117,44.907,0.665,-6.696,26.112,10.597,34.708,15.315,5.293,-6.004,-3.55,-13.822,-1.836,58.685,-6.029,-20.023
2.639900800000305,16.882,-13.482,-48.905,-29.02,10.587,32.055,-26.924,4.722,8.769,3.917,9.031,14.158,11.866,-13.667,36.665,-5.996,-20.521,16.352,5.976,29.038,9.664,-0.348,-12.658,-9.694,-20.981,-9.007,51.454,-15.245,-28.2
2.654856700000437,15.841,-11.931,-42.196,-31.041,2.892,33.047,-9.478,-1.943,5.174,0.839,10.047,15.68,13.391,-12.116,37.653,-4.453,-15.378,24.532,11.093,33.62,17.851,5.8,-6.498,-5.586,-18.398,-4.899,51.402,-10.619,-16.389
2.6549308000003293,23.509,-2.698,-39.08,-16.153,17.234,39.162,-13.055,7.793,16.952,13.134,21.307,22.837,19.526,-6.981,44.275,4.773,-1.018,35.266,15.18,36.147,27.567,9.38,0.169,5.69,-12.232,-1.82,54.425,-1.387,-12.274
2.67015180000044,18.363,-6.793,-46.725,-18.186,24.389,33.487,-15.091,4.712,15.398,9.022,16.163,18.716,14.895,-7.487,38.596,1.694,-5.627,27.546,9.53,30.476,22.417,3.735,-8.028,3.123,-7.609,-2.843,48.735,-6.508,-19.947
2.6849560000000565,14.246,-13.447,-49.24,-33.537,4.897,22.695,6.953,-10.15,9.747,-3.282,4.876,9.988,8.733,-4.405,32.409,-7.017,-13.306,19.834,7.471,29.933,19.833,5.781,-10.069,-3.028,-1.454,0.233,48.686,-9.063,-17.877
2.6868110000000343,31.138,-0.625,-38.945,-19.671,3.355,37.017,2.335,6.254,21.521,11.066,15.117,15.613,16.409,6.358,42.623,-1.374,-8.17,29.036,15.148,38.1,35.182,19.095,5.31,10.808,5.208,8.942,60.933,10.414,-3.003
2.6999155000003157,37.767,11.671,-27.635,2.89,19.745,56.448,-14.573,25.715,23.548,21.813,20.738,19.696,18.954,7.376,47.191,4.262,-6.625,34.13,18.719,37.55,40.782,22.15,9.915,22.068,9.813,13.544,64.971,22.698,7.247
2.69997930000045,21.847,4.487,-25.558,-3.26,20.238,40.51,7.471,6.222,10.205,2.324,5.348,6.869,5.615,-4.415,32.8,-4.963,-12.254,25.899,12.04,28.803,28.959,13.931,0.684,11.799,6.73,8.408,53.635,10.893,4.678
2.7153566000001774,18.752,-3.203,-26.045,-5.819,19.705,23.563,22.32,-3.006,9.682,-3.826,1.244,0.202,0.998,-9.533,27.644,-10.594,-14.803,23.311,7.93,27.237,26.368,11.355,0.683,7.177,-1.986,4.813,46.921,4.734,2.112
2.715419000000111,31.028,3.973,-25.507,9.556,25.321,42.495,3.855,21.588,19.919,14.108,15.587,11.472,11.756,-1.839,39.911,-1.362,-10.69,28.411,13.557,34.382,39.149,16.979,9.392,16.904,-5.058,11.981,52.51,14.463,7.232
2.729923500000041,34.584,9.092,-24.969,8.522,22.734,56.797,1.802,32.325,20.411,19.729,24.793,20.682,17.379,8.921,43.458,7.349,-1.97,30.432,20.716,37.934,46.283,21.573,10.407,19.448,1.607,14.018,57.068,18.035,10.299
2.729985000000397,26.864,0.374,-25.456,-6.855,26.298,39.322,18.706,19.485,14.755,14.074,21.695,22.711,16.85,19.671,35.73,6.829,1.618,32.451,18.646,32.773,42.138,19.502,4.249,13.793,8.778,6.832,48.814,9.82,5.678
2.744955700000446,20.177,-7.824,-31.578,-10.947,38.567,25.963,15.101,14.342,16.79,13.548,16.55,22.176,18.37,21.188,34.669,3.236,-1.457,30.369,10.943,27.105,37.997,14.36,3.22,10.706,7.744,4.775,37.494,3.15,0.037
2.7466504000003624,22.207,-2.18,-39.232,-7.35,36.991,36.695,-2.333,19.451,24.97,15.584,18.07,23.691,20.913,10.408,38.733,4.258,0.081,25.216,8.883,28.615,43.595,13.321,5.266,12.232,-0.46,7.332,38.481,4.172,-3.549
2.7600451000002977,28.844,2.945,-37.143,-10.416,25.171,47.929,-0.793,19.432,26.482,21.203,24.2,28.79,22.941,2.713,39.719,8.864,3.667,27.752,13.997,34.734,49.699,16.381,3.724,13.244,1.077,5.788,45.615,7.241,-6.107
2.760110000000168,32.402,-1.669,-32.495,-13.992,20.535,44.808,18.163,10.703,22.357,22.207,25.713,30.811,23.943,5.785,43.265,13.466,5.713,33.872,19.106,38.285,50.161,19.439,6.282,15.28,12.859,7.319,47.107,7.234,-4.052
2.7750511000003826,36.468,0.382,-32.463,-6.806,29.224,38.615,26.854,13.254,22.847,18.599,28.761,30.78,24.944,11.926,47.321,19.088,9.806,36.912,23.697,41.833,54.722,27.616,16.522,22.95,15.92,14.484,48.084,8.764,1.075
2.7751113000003897,40.53,8.066,-34.479,4.472,47.125,42.675,19.655,30.659,19.75,24.728,34.367,37.409,23.894,12.427,49.322,24.704,11.845,38.924,27.772,45.89,61.839,35.786,22.14,29.587,12.83,18.568,48.036,12.341,-0.975
2.7900267000004533,36.391,6.009,-36.494,0.369,56.812,46.218,14.512,30.628,15.632,29.826,32.284,38.396,19.772,10.365,49.785,25.704,5.173,37.861,27.744,43.282,61.265,34.213,19.044,26.483,15.891,19.062,45.426,12.329,-5.073
2.7900876000003336,33.28,2.929,-32.872,-11.415,51.632,42.074,12.448,18.302,23.301,25.698,28.665,32.21,19.752,11.379,47.686,23.629,2.094,34.237,26.18,38.116,61.204,32.129,15.951,23.895,11.777,20.58,41.283,10.78,0.056
2.8050390000003063,36.321,7.025,-20.031,-3.719,49.531,45.106,8.85,25.456,27.888,28.234,31.71,33.715,24.855,12.905,45.589,23.093,5.166,33.69,25.129,39.615,64.217,35.171,14.399,23.871,1.519,20.047,38.68,11.793,9.277
2.820097500000429,36.285,6.505,-17.449,7.556,48.457,54.794,5.255,32.091,22.737,32.304,33.216,35.73,24.318,13.404,47.593,22.558,6.185,33.144,21.005,41.112,61.079,31.55,11.823,19.749,-0.02,17.978,39.666,8.195,7.731
2.8201622000001407,32.662,-2.723,-31.777,-5.772,33.552,48.592,3.713,16.177,20.153,23.562,29.596,27.498,19.683,13.903,46.009,18.949,3.105,27.988,14.837,35.948,55.894,22.809,5.151,11.532,-3.606,12.324,38.089,-2.059,-1.498
2.820205700000315,25.457,-11.429,-40.966,-21.135,14.563,34.199,6.27,-0.233,12.961,14.317,19.321,19.273,16.077,7.229,35.204,9.196,-0.996,23.349,10.211,29.764,49.179,15.614,-6.125,3.324,-12.311,3.603,25.243,-10.254,-6.62
2.835171800000353,19.284,-13.467,-37.339,-13.942,11.474,30.578,7.289,-1.77,5.775,10.204,9.055,15.155,12.475,-1.487,27.997,0.478,-0.995,21.789,7.639,29.734,41.957,10.988,-8.68,0.759,-13.324,-0.499,13.435,-9.219,-7.126
2.850538200000301,23.876,-5.769,-31.666,-0.608,25.808,33.109,-3.477,9.503,16.528,11.219,14.169,20.263,16.561,4.15,32.579,7.65,8.227,24.329,12.755,34.828,47.038,17.637,5.673,8.955,-10.749,5.136,17.008,-0.5,-5.069
2.8505989000000227,28.975,3.458,-25.487,2.467,40.126,30.002,-9.109,19.74,23.684,15.306,24.401,28.952,23.204,10.806,36.645,18.401,13.342,28.403,22.476,36.842,52.627,31.451,16.938,16.631,-4.59,11.279,23.138,5.135,0.059
2.850640200000271,26.897,6.016,-15.728,2.976,45.722,28.948,2.171,16.646,11.365,14.266,20.278,25.337,18.57,-1.501,36.096,15.821,6.669,24.788,23.478,35.781,48.475,33.981,18.97,19.688,8.222,14.342,22.091,9.741,9.28
2.86513930000001,37.116,14.207,-2.392,13.22,60.021,41.214,10.878,26.363,15.964,21.936,24.356,24.287,18.04,-10.721,43.233,21.953,8.711,24.251,24.991,42.405,54.575,35.997,23.05,31.451,16.923,23.549,27.192,25.613,24.64
2.866848800000298,49.374,23.415,6.32,30.113,76.354,53.981,8.306,48.366,36.441,39.333,42.775,39.632,28.268,-5.075,53.435,37.812,15.875,29.862,29.577,49.023,65.279,45.694,26.613,38.592,12.295,30.185,36.386,35.833,33.325
2.880173300000024,33.956,12.121,0.166,26.496,65.52,42.143,11.883,32.949,26.67,30.072,35.048,38.056,23.629,-3.02,43.136,29.065,5.613,20.611,21.351,38.727,55.479,38.476,16.852,23.697,0.5,20.933,26.616,19.916,19.972
2.8952360000002955,17.015,-2.236,-8.544,4.953,44.449,23.146,23.655,3.714,2.565,7.5,12.471,17.013,10.797,-0.456,27.724,9.568,-3.614,6.758,9.034,27.418,44.666,22.044,5.052,9.841,-7.697,11.691,7.634,5.039,7.144
2.8952954000001228,30.318,8.524,-1.363,10.071,47.991,35.93,23.631,19.592,11.784,20.301,22.705,24.681,18.983,11.328,39.479,17.243,8.172,13.924,14.148,35.075,50.769,26.121,7.097,14.954,-3.591,16.29,9.675,16.817,20.457
2.9102404000000206,45.145,22.348,4.786,30.041,54.603,64.071,7.214,40.577,34.314,41.797,43.687,44.124,32.284,15.415,55.321,31.058,16.874,20.057,20.282,43.749,54.304,33.267,12.213,21.087,2.048,19.348,22.986,28.071,33.756
2.910300500000176,37.415,14.641,-3.928,22.326,40.204,67.081,4.132,26.192,28.644,32.022,36.983,37.42,26.105,12.838,46.556,25.392,16.857,13.377,16.163,39.607,51.176,27.086,9.127,17.48,-5.127,16.254,17.84,21.383,23.989
2.9251728000003823,33.279,8.479,-7.51,12.058,31.455,55.231,16.936,18.481,17.345,22.768,28.237,29.185,22.492,21.022,42.924,22.805,22.988,18.999,21.782,42.641,53.686,31.669,14.24,20.536,-6.146,20.849,8.088,16.239,17.817
2.9252269000003253,39.906,12.569,-2.38,19.73,37.058,53.127,13.333,25.122,25.524,32.479,33.844,36.841,28.617,26.124,54.151,31.492,28.088,26.665,30.982,49.771,54.657,42.909,25.497,27.688,6.668,23.902,12.691,18.784,26.508
2.940321700000368,37.817,7.433,-6.988,9.977,33.948,53.586,7.172,22.023,26.523,31.934,32.273,36.804,25.003,13.29,49.999,28.899,25.498,16.904,23.779,45.11,48.455,37.23,18.811,25.098,13.321,16.193,12.678,17.228,26.482
2.9403830000001108,34.705,1.79,-12.104,-3.353,29.303,48.921,17.923,26.612,16.763,25.755,29.679,32.669,20.879,4.056,44.314,23.234,27.009,13.301,21.193,43.016,46.869,34.632,14.694,24.561,14.332,15.665,5.493,16.186,20.82
2.955426400000306,43.38,12.035,-2.87,10.995,41.569,48.873,11.245,34.27,25.968,33.414,39.384,39.808,29.568,10.199,56.565,32.945,29.544,24.046,32.955,51.682,53.995,48.941,33.635,38.881,22.515,28.457,11.635,26.416,30.533
2.9554901000001337,47.947,18.171,-0.306,18.156,48.187,47.287,-2.598,23.99,34.139,37.479,43.443,43.867,29.538,10.701,60.606,41.621,26.441,20.436,33.434,53.68,57.015,52.479,38.724,43.453,24.029,34.064,16.747,34.075,38.187
2.9708448000001226,36.629,6.369,-15.675,-2.354,34.819,35.456,14.31,12.695,12.075,25.146,32.128,34.601,18.238,0.444,48.763,31.333,19.242,5.559,22.13,44.917,48.761,40.131,19.73,28.553,11.71,24.808,3.41,22.77,25.854
2.9709098000002996,28.907,-1.834,-24.881,-10.549,31.71,27.224,20.444,12.682,2.33,17.948,25.436,26.882,15.658,-4.167,43.591,22.593,14.099,2.992,20.059,38.212,40.515,31.894,15.1,22.889,1.964,18.123,-7.864,10.964,13.532
2.9853727000004255,30.415,-0.295,-22.294,-2.854,48.585,29.758,-7.241,9.084,19.233,21.517,30.022,28.392,18.204,-0.576,43.547,24.619,13.573,6.063,20.039,36.637,37.401,31.862,21.232,26.964,3.499,18.618,-8.881,10.953,14.543
2.985435900000084,27.823,-0.807,-22.784,-5.412,55.196,27.679,-10.82,6.001,15.116,20.47,27.942,27.339,14.599,3.01,40.942,20.496,15.609,-0.091,14.383,34.039,32.752,29.781,16.088,22.326,7.082,17.574,-10.921,7.868,14.017
3.000413700000081,26.771,-0.806,-23.786,-7.969,48.481,23.041,6.097,12.655,-0.781,16.864,22.279,24.238,12.536,7.106,41.926,15.353,17.642,-2.653,14.881,33.492,27.597,27.702,18.121,22.816,9.636,16.532,-12.96,6.323,12.978
3.0004838000004384,32.892,3.805,-16.078,0.236,54.58,27.629,3.017,20.839,11.003,20.433,31.991,31.898,19.183,13.759,45.47,24.559,25.309,4.01,20.502,38.582,30.131,32.285,28.349,33.552,14.75,23.176,-12.435,16.563,20.137
3.0154726000000664,32.347,5.338,-11.963,3.31,69.895,33.236,1.989,25.941,25.849,26.56,41.693,41.6,26.336,16.306,46.962,34.781,32.969,8.617,24.58,42.642,34.711,37.376,26.784,34.031,20.37,26.739,-14.471,20.133,22.679
3.015540500000043,28.216,0.722,-17.587,-0.28,67.776,33.203,12.746,24.378,21.724,28.071,37.04,40.022,27.847,9.63,47.427,37.82,32.936,7.071,29.678,44.648,34.164,38.875,26.245,31.435,20.862,25.175,-17.018,14.99,16.508
3.0304315000003044,35.36,2.771,-14.495,2.795,57.462,35.219,7.098,23.329,21.19,30.092,38.54,41.519,26.794,3.985,49.429,42.905,34.952,9.626,37.333,50.239,36.179,46.009,34.416,38.064,18.792,29.761,-17.001,19.585,20.078
3.0304888000000574,41.472,9.428,-4.235,7.403,60.478,38.77,1.455,28.429,24.755,33.136,45.674,46.088,28.304,7.055,50.404,44.911,41.065,12.69,38.833,51.726,40.754,51.086,34.893,38.538,17.749,34.342,-14.935,21.615,26.206
3.0444072000000233,33.746,7.369,-8.841,3.297,63.492,41.293,12.724,26.864,23.706,32.59,37.943,38.87,25.715,9.097,47.28,35.132,37.95,6.017,31.109,46.039,33.029,40.788,27.686,29.278,12.608,27.135,-17.482,13.909,21.056
3.044464000000062,30.639,5.825,-10.369,6.367,57.281,45.35,17.835,21.714,29.318,33.582,33.807,33.195,22.103,11.137,45.696,28.95,30.227,-3.21,23.394,44.456,26.335,34.088,26.122,28.736,10.034,23.009,-23.1,16.969,23.084
3.0594583000001876,40.854,17.602,11.67,22.755,60.297,47.354,22.94,33.475,33.387,39.184,45.044,40.847,28.741,20.86,51.798,35.068,33.271,0.379,25.419,47.485,35.531,42.25,30.706,38.442,22.319,27.597,-20.515,29.759,41.504
3.0595250000001215,44.399,23.732,20.368,26.83,64.848,47.307,37.774,44.712,24.644,40.682,49.097,44.392,33.835,28.011,56.869,40.156,40.41,3.965,28.98,47.438,39.594,40.159,34.262,41.989,33.055,29.106,-16.908,33.828,47.098
3.074503900000309,36.67,12.95,1.392,11.947,50.95,50.845,35.687,35.958,23.083,38.079,44.95,41.274,27.653,25.934,54.763,38.579,39.857,-4.748,23.828,47.902,28.796,28.336,29.104,33.75,24.313,22.93,-26.113,25.085,34.244
3.0895213000003423,34.072,6.277,-7.831,8.861,40.141,54.381,14.647,28.75,31.257,38.554,43.368,39.696,26.601,23.859,52.659,34.955,33.67,-12.428,19.194,48.367,25.693,27.795,21.391,25.52,16.604,16.759,-35.821,13.277,25.5
3.0895925000004354,34.55,6.271,-5.774,16.537,41.638,51.765,6.435,28.721,27.639,35.954,38.202,34.021,26.575,16.151,48.508,32.358,28.513,-11.903,20.199,45.245,26.692,29.817,19.832,26.006,15.563,18.792,-35.273,7.116,22.401
3.105545300000358,30.417,1.654,-13.453,8.323,33.399,47.102,4.892,22.033,16.853,26.184,29.966,25.277,16.302,3.839,40.774,26.178,27.972,-11.892,20.179,42.638,18.981,26.713,22.374,25.468,10.424,25.433,-36.774,7.621,14.694
3.105608100000154,29.362,0.115,-16.001,-4.493,24.144,50.129,-0.748,20.474,15.299,23.596,27.887,22.69,13.724,6.909,40.221,20.516,36.141,-9.318,21.183,44.644,19.474,29.76,25.426,25.955,13.488,25.407,-38.274,8.638,14.167
3.1194744000003993,34.456,6.775,-8.3,-3.464,33.342,61.862,5.4,25.064,17.845,30.745,29.909,25.229,20.37,16.636,45.304,23.57,44.814,-3.673,25.26,46.137,26.627,33.316,29.499,33.614,25.77,23.845,-34.65,13.753,22.862
3.121132800000396,36.983,10.867,-6.755,3.2,46.628,67.435,14.104,24.527,17.315,34.3,32.44,30.839,19.325,11.496,44.234,28.157,44.769,-7.768,23.186,44.041,23.014,28.672,26.395,33.068,22.67,25.87,-35.128,20.399,28.987
3.134646100000282,35.409,9.319,-11.359,4.733,48.119,60.708,6.917,22.965,13.712,30.68,33.432,32.346,17.769,4.825,41.116,27.104,39.601,-20.056,15.478,40.411,17.356,23.521,13.561,22.789,11.889,22.258,-41.24,17.305,24.859
3.134711100000004,36.398,7.773,-12.884,1.655,44.997,59.11,-0.262,24.479,11.649,31.161,34.424,30.264,22.362,9.943,44.661,29.639,41.099,-22.597,16.487,43.445,20.412,23.497,14.06,23.278,12.389,19.162,-41.711,11.14,19.199
3.1495842000003904,44.559,12.376,-7.748,6.264,52.124,71.347,2.812,30.602,21.371,39.839,44.123,39.968,25.926,18.642,54.863,41.904,50.279,-15.402,29.279,51.598,28.076,31.158,27.366,31.452,16.988,27.34,-36.034,16.251,23.79
3.164542800000163,49.125,18.511,0.456,21.627,65.392,77.935,3.834,40.306,27.497,42.873,51.251,49.149,28.461,27.333,59.419,48.522,55.352,-13.338,32.835,52.571,33.171,35.226,28.363,29.371,17.995,30.387,-32.412,20.846,29.914
3.1646097000002555,37.805,9.271,-6.204,15.97,54.568,66.074,11.515,29.507,10.564,31.56,39.417,33.218,23.822,31.404,47.576,35.154,49.149,-20.497,16.921,42.272,23.916,21.87,15.527,20.632,11.317,19.598,-39.552,7.505,18.101
3.179536200000257,26.497,-5.083,-19.006,-5.563,28.898,55.25,18.163,13.083,1.332,24.868,28.107,18.328,15.601,28.811,34.209,19.237,45.001,-26.624,8.195,34.545,10.06,11.602,12.438,17.538,5.671,13.943,-50.271,-3.261,6.813
3.1795946000002004,34.155,4.656,-8.741,8.275,38.603,66.978,5.337,30.489,24.384,41.237,38.837,32.655,23.27,35.442,42.371,27.415,55.202,-19.937,21.507,40.146,16.71,22.349,22.159,26.742,19.497,21.101,-47.147,10.575,22.175
3.1945920000002843,42.83,21.045,6.125,29.271,63.155,82.28,-2.865,48.389,35.631,51.954,49.044,43.38,33.493,42.579,55.137,43.781,62.32,-11.72,32.244,47.791,27.964,32.061,28.797,35.937,34.847,27.74,-38.39,24.909,37.01
3.1946562000002814,32.029,7.704,-5.664,1.065,46.698,72.464,10.97,26.312,12.541,33.972,36.7,32.066,22.701,30.753,47.397,36.565,54.06,-20.93,23.502,45.181,20.252,23.319,23.645,27.192,21.492,22.589,-48.086,9.002,22.628
3.209555100000216,21.75,-9.21,-18.466,-18.916,27.184,61.12,15.57,13.478,0.745,22.667,25.905,26.399,14.994,22.526,40.177,25.77,47.859,-35.254,15.282,43.087,15.621,16.124,13.887,15.381,3.54,11.808,-60.333,-9.45,6.212
3.209615600000234,26.852,0.533,-6.152,6.718,47.137,71.306,8.382,32.419,16.114,35.452,34.588,35.082,24.713,26.602,47.822,37.528,54.471,-34.194,20.902,46.63,22.777,21.743,13.874,21.001,6.61,12.821,-53.613,-1.243,13.89
3.2249290000004294,27.85,6.681,2.563,14.909,63.996,71.747,6.325,35.461,24.295,39.003,39.677,38.12,27.762,20.427,43.675,45.175,55.441,-30.574,21.393,45.047,19.681,23.258,15.397,21.493,9.165,15.882,-49.973,6.955,22.073
3.239519900000232,17.063,-7.158,-8.198,-4.574,59.321,55.281,0.683,23.13,15.561,27.181,29.391,31.422,20.05,12.21,31.849,33.346,50.262,-36.178,11.126,36.292,8.39,11.452,7.184,7.126,1.471,7.669,-61.706,-3.811,14.366
3.2395785000003343,17.558,-8.688,-12.8,-1.496,63.872,54.201,-1.367,27.718,11.96,28.69,27.824,29.854,21.567,15.784,35.915,31.264,49.7,-38.192,10.602,32.158,9.407,6.83,6.665,5.582,3.519,5.612,-61.644,-7.393,10.766
3.254624500000318,30.861,10.276,1.557,12.85,75.079,65.418,5.294,30.251,19.632,39.42,39.58,37.509,29.23,19.867,43.564,44.553,55.285,-30.469,23.399,40.322,19.131,20.655,21.003,21.458,17.348,17.902,-45.189,10.033,23.563
3.2563186000002133,37.49,16.926,10.265,17.448,80.127,66.889,2.728,23.561,27.297,40.918,44.663,44.644,32.274,26.507,45.057,51.68,64.452,-19.68,32.598,50.016,25.772,32.93,32.253,33.22,27.064,26.081,-37.459,21.294,34.298
3.2696461000000454,32.842,7.175,1.545,15.894,80.047,64.261,7.336,28.148,25.733,37.803,40.52,43.574,29.68,35.19,48.086,49.579,66.949,-17.099,32.565,48.941,27.283,32.385,33.245,35.236,25.5,28.616,-43.057,14.1,29.653
3.2697094000000106,30.76,2.045,-8.19,5.12,73.819,61.635,24.747,31.194,21.609,36.741,38.43,40.969,25.552,31.568,47.013,47.993,60.222,-24.766,33.045,46.331,24.182,30.815,31.162,29.565,17.79,29.1,-45.575,6.401,20.401
3.284628100000191,33.803,4.092,-8.182,1.016,73.745,62.598,14.988,23.478,24.149,39.265,43.515,45.539,27.576,24.364,45.942,51.019,59.649,-29.352,35.061,47.821,24.158,32.321,27.033,22.364,11.625,27.022,-38.87,6.907,18.332
3.2846974000003684,32.232,4.088,-5.1,11.261,81.356,67.146,-4.495,25.504,28.223,42.3,46.545,48.567,33.696,23.315,48.97,52.505,66.25,-24.2,31.952,47.261,28.744,30.752,23.932,21.829,9.052,27.507,-33.196,4.339,15.752
3.2997309000002133,26.052,1.01,-8.681,8.688,76.664,62.468,4.219,28.552,24.096,38.671,39.839,39.297,30.076,21.243,43.798,45.792,63.622,-25.2,27.822,44.652,30.252,27.135,21.859,22.319,8.53,27.992,-37.261,-0.789,11.638
3.2997950000003584,22.952,-2.065,-12.259,-4.64,68.903,55.233,5.752,17.253,16.388,31.973,31.602,31.061,22.362,18.66,35.045,37.549,55.874,-29.786,27.281,42.559,24.075,22.497,17.738,17.174,9.034,22.329,-43.884,-1.3,14.188
3.314610000000357,20.88,-4.625,-11.734,-5.66,71.396,54.153,-8.598,12.625,11.248,26.818,28.496,31.03,20.802,19.666,32.448,35.463,56.33,-29.244,22.643,37.905,16.878,15.302,13.622,11.009,7.488,18.208,-44.352,-1.811,14.173
3.3163127000002532,14.711,-8.206,-12.747,-6.167,67.226,47.952,-3.979,16.199,7.138,20.131,23.345,23.827,17.708,18.622,26.268,26.718,57.811,-33.825,10.325,29.158,12.763,5.041,5.924,3.826,3.894,12.042,-47.894,-7.957,3.401
3.3297154000001683,13.16,-10.247,-15.808,-9.235,56.912,48.416,-3.463,12.084,8.668,18.574,18.711,15.606,12.567,18.603,22.143,15.933,52.63,-44.037,4.167,24.006,12.75,-3.161,-3.303,-0.789,6.964,3.833,-52.969,-10.511,2.373
3.3297794000000067,17.757,-10.749,-15.792,-6.664,54.294,59.126,-13.193,6.949,11.221,20.092,22.278,17.639,14.603,20.121,27.244,17.454,50.528,-39.895,8.774,27.568,16.323,0.428,0.286,2.798,13.105,8.44,-46.256,-5.889,9.543
3.3446962000002713,15.178,-13.3,-14.752,-8.194,49.629,53.432,6.288,4.38,5.574,12.9,20.719,17.622,15.101,17.027,27.729,22.559,55.6,-29.097,13.376,31.639,17.844,7.6,10.532,7.406,15.141,14.579,-40.062,-4.859,9.533
3.3447595000002366,7.991,-14.311,-13.2,-10.235,44.968,45.181,21.138,3.351,4.544,10.838,15.063,15.043,11.5,16.498,23.603,19.463,58.106,-27.531,16.436,30.07,19.363,8.105,10.009,7.911,15.126,9.954,-43.096,-5.879,9.524
3.3600864,9.52,-9.174,-8.576,-6.126,46.973,56.407,1.65,11.545,15.811,19.536,17.097,20.663,15.075,18.531,26.653,17.907,52.925,-32.114,19.494,26.966,23.955,8.609,5.388,5.854,14.086,9.944,-41.004,-3.824,13.1
3.3601470000003246,12.072,-11.214,-8.568,-10.731,41.803,52.764,-3.475,13.583,17.332,16.443,19.129,22.179,17.621,14.414,25.602,20.45,49.286,-34.643,19.987,27.964,23.931,11.162,6.92,2.774,9.974,13.008,-36.864,-3.82,6.427
3.374699100000271,6.936,-18.375,-13.17,-15.843,36.638,34.781,11.898,1.786,13.728,9.766,20.135,22.669,17.091,14.912,20.965,25.041,52.823,-32.047,23.04,30.498,24.419,13.2,9.474,5.845,11.501,7.872,-41.95,-6.89,-2.289
3.3765400000002046,7.442,-13.234,-15.206,-10.192,46.335,38.844,8.812,4.346,23.448,21.027,26.775,33.405,24.759,23.094,26.58,30.139,59.43,-28.429,30.19,35.078,33.104,18.31,12.539,9.938,12.514,7.864,-41.908,-5.858,-0.749
3.3898902000000817,14.094,-6.048,-15.703,-10.182,50.387,50.076,2.655,17.149,32.134,26.642,28.285,33.372,27.808,23.583,34.238,29.084,58.346,-32.499,30.672,39.654,36.657,20.853,12.526,5.829,2.768,12.979,-34.182,-5.852,-1.773
3.3899531000001843,14.593,-8.604,-15.687,-13.758,41.627,45.415,11.362,9.96,24.93,18.93,25.183,25.141,22.145,25.096,32.667,25.981,53.677,-35.54,28.592,38.589,33.034,17.246,5.854,2.75,-1.334,10.917,-29.025,-5.334,-6.382
3.4048330000000533,14.066,-7.57,-14.135,-9.646,37.487,41.784,16.986,-2.346,17.22,15.325,25.67,27.678,23.659,36.342,32.122,25.443,55.673,-31.919,29.588,37.014,37.099,15.18,0.212,1.21,9.426,7.832,-29.508,-1.23,-5.863
3.404901500000051,18.662,-3.464,-11.559,-9.124,33.351,42.767,13.895,4.317,13.104,16.335,22.57,27.138,24.66,37.843,35.676,21.319,54.592,-34.448,30.583,39.538,43.21,17.726,4.311,-3.914,11.978,9.873,-29.991,-0.205,1.827
3.419801500000176,30.427,-0.899,1.26,-3.479,28.195,51.945,13.369,17.632,15.141,24.515,27.671,26.598,21.049,33.706,42.812,24.884,50.439,-36.975,36.188,47.183,48.802,27.442,17.626,5.824,10.942,17.036,-17.153,4.406,17.707
3.434804300000451,45.766,10.885,20.727,11.893,29.704,65.214,18.991,19.664,27.421,38.323,41.475,38.355,29.738,37.771,51.991,38.179,57.049,-31.303,45.373,55.845,62.073,39.71,27.855,21.187,25.788,27.265,2.332,18.747,28.96
3.434858500000246,42.646,13.435,19.681,8.808,21.989,60.025,23.07,12.984,28.418,31.625,35.798,35.755,34.831,33.635,51.427,33.53,58.016,-31.784,41.229,54.765,63.548,35.572,24.241,15.018,27.811,25.701,-4.843,15.654,20.734
3.4499296000003596,26.722,-3.484,3.78,-8.107,6.086,45.621,16.9,8.36,14.557,17.761,18.857,21.887,23.013,24.38,41.129,19.152,46.175,-40.461,31.454,44.464,48.115,23.241,16.02,3.732,6.266,15.429,-25.33,-4.342,10.467
3.4499934000000394,29.257,-7.579,3.776,-5.025,6.08,46.6,8.173,8.352,15.055,23.891,22.424,27.5,20.429,28.966,39.039,24.256,46.641,-38.884,32.447,42.37,46.53,24.242,16.516,5.265,0.112,16.95,-19.669,-2.288,15.067
3.4649591000002147,42.547,7.285,18.63,7.275,18.881,51.676,8.678,10.393,26.311,31.551,35.209,37.207,30.142,24.839,47.197,31.404,56.841,-32.697,37.538,50.013,54.681,29.341,16.5,1.162,14.457,21.544,-5.818,13.083,23.249
3.4650220000003173,46.091,13.938,33.468,12.391,29.621,55.211,15.329,18.067,29.871,33.057,40.297,39.219,32.673,5.346,53.81,32.909,57.809,-30.615,40.574,54.573,55.138,28.287,14.946,-1.401,18.541,18.961,-4.275,14.095,33.472
3.4803258000001733,46.557,12.899,52.39,15.452,34.714,56.692,18.9,23.684,31.378,36.61,41.794,42.253,32.128,-5.418,55.293,38.512,57.239,-28.536,41.558,53.494,54.059,27.747,16.98,7.822,11.35,19.454,-0.172,15.106,47.783
3.4803908000003503,39.851,10.325,68.219,7.752,25.971,45.365,11.708,14.439,26.223,25.302,33.043,31.965,27.485,-12.072,47.041,30.276,50.009,-34.655,33.32,47.293,47.857,22.084,12.865,4.228,1.093,17.898,-1.196,20.726,54.395
3.4949650000003203,31.614,7.241,79.421,-0.452,15.186,35.073,-0.086,5.716,12.877,9.396,19.69,15.539,18.236,-18.208,37.26,11.29,37.664,-45.379,22.528,37.512,38.075,12.84,5.167,-5.51,-2.495,11.22,-13.491,19.68,55.878
3.4950267000003805,37.73,12.869,99.322,11.843,20.294,38.112,6.574,6.222,8.253,12.46,21.719,20.647,17.706,-4.357,38.759,13.328,40.188,-44.309,26.092,38.499,41.623,16.413,7.724,0.643,15.951,15.307,-11.94,25.296,64.019
3.5099929000002703,42.303,21.565,116.129,17.467,26.934,38.586,18.863,3.654,9.782,17.571,25.283,25.749,18.713,9.992,44.356,21.0,45.783,-41.703,30.676,44.096,47.217,25.106,15.913,7.815,33.353,22.977,-0.658,35.517,75.738
3.510055900000225,40.211,23.081,113.964,12.326,26.394,39.572,9.11,8.261,12.846,19.09,23.209,19.576,18.182,7.42,43.287,15.856,41.126,-44.735,28.084,39.441,42.559,25.593,18.459,6.27,24.611,21.417,3.442,34.457,84.372
3.5249941000001854,49.905,28.181,110.263,25.122,36.614,47.73,5.515,27.209,24.616,27.268,30.358,25.704,24.311,8.437,44.781,17.889,43.134,-44.69,30.618,37.865,46.103,27.105,18.44,12.924,17.414,23.957,11.123,38.521,86.849
3.525056900000436,56.515,33.276,107.592,41.491,47.336,47.682,20.366,30.255,30.227,30.314,35.963,30.801,26.849,11.503,47.297,21.97,42.579,-45.158,29.562,44.487,51.692,31.176,17.909,19.571,25.081,32.13,17.259,46.167,77.54
3.5400104000000283,47.749,29.656,96.213,36.326,47.289,45.585,20.858,22.028,22.512,26.698,28.755,21.549,19.649,5.856,42.127,14.775,33.315,-49.211,19.799,40.344,43.956,26.022,14.305,12.379,27.105,29.536,11.607,38.436,67.217
3.540066300000035,41.554,22.966,84.846,23.482,46.217,46.564,16.226,27.129,16.342,24.11,22.578,14.355,17.58,6.874,33.888,8.613,33.281,-51.723,14.144,30.057,35.202,14.725,7.119,1.096,21.443,19.773,3.91,23.541,62.026
3.5550844000003963,30.242,9.111,65.294,2.454,38.998,34.222,21.333,18.905,5.567,11.278,13.847,7.168,13.977,7.38,23.608,-1.13,32.736,-58.332,10.031,25.416,26.97,6.001,-3.647,-8.639,7.589,13.093,-8.901,11.222,43.521
3.5551538000004257,15.355,-9.341,35.002,-20.602,23.59,19.843,11.578,-7.754,-7.758,-2.053,2.05,-1.036,3.717,-0.824,14.363,-12.912,23.994,-63.396,4.386,22.317,16.185,0.36,-11.328,-16.315,-5.739,6.932,-21.188,-3.134,19.399
3.57006390000015,20.975,-11.893,20.11,-16.996,25.616,22.385,-1.241,-11.845,-0.578,2.047,5.634,6.65,6.274,5.836,19.984,-3.677,31.142,-56.161,9.504,23.319,18.218,-1.178,-9.267,-13.225,3.489,3.339,-13.482,-2.618,16.818
3.5701293000001897,30.175,-4.709,20.603,-6.22,34.299,25.949,5.42,3.024,10.181,8.705,16.387,17.914,18.564,21.2,31.235,9.647,42.382,-50.469,16.155,29.956,29.47,3.947,-3.623,-6.039,14.756,6.922,-1.685,9.167,21.412
3.585106000000451,23.485,-4.704,12.385,-13.899,24.531,22.849,4.39,5.583,6.072,8.184,14.833,16.359,19.057,23.74,29.666,4.514,38.753,-51.443,13.577,29.926,27.392,7.016,-1.57,-6.033,5.007,9.477,-4.757,4.547,12.169
3.585171800000353,21.412,-8.798,0.077,-20.032,18.359,22.314,-2.787,1.991,4.529,7.151,8.671,14.294,14.427,20.13,24.001,1.435,39.227,-49.343,13.564,25.798,21.729,4.96,-1.568,-8.077,-1.658,5.881,-5.265,-6.728,7.546
3.601157300000068,27.539,-7.765,-8.12,-16.939,31.148,21.779,10.024,4.038,9.135,8.681,11.736,18.89,17.487,20.622,29.1,9.119,46.872,-45.707,21.747,31.92,27.343,12.128,7.143,1.153,7.566,11.51,2.425,-0.061,11.125
3.601219800000308,33.146,1.977,-8.112,-12.823,40.851,23.807,21.284,11.719,12.712,15.845,21.458,22.97,23.105,23.676,36.244,14.233,50.924,-37.464,31.971,42.134,34.488,28.509,25.066,16.521,18.829,27.381,10.619,17.87,10.089
3.615112400000271,37.724,10.684,1.63,-2.564,41.835,31.467,14.091,22.466,19.36,23.001,26.56,25.508,25.131,25.189,37.744,18.829,54.971,-28.718,37.063,43.629,33.429,34.628,30.677,22.14,22.396,31.964,15.732,22.975,10.591
3.6151764000001094,34.1,4.526,-1.957,0.0,45.379,30.411,2.806,24.492,18.828,20.929,23.459,23.433,23.057,17.479,34.633,18.81,54.404,-34.837,31.902,38.974,29.297,26.909,21.937,16.995,10.591,23.735,14.692,16.804,9.556
3.630191300000206,26.381,-4.188,-18.349,-12.808,45.846,21.159,-8.98,15.246,11.637,16.81,19.85,19.824,20.472,14.9,32.037,13.668,49.227,-44.023,26.235,35.349,27.218,23.808,19.353,15.953,5.457,19.613,12.115,14.738,1.862
3.6451179000000593,24.306,-6.233,-23.454,-22.017,40.677,19.089,-6.922,7.034,9.064,16.793,18.293,20.316,19.939,26.156,31.492,13.142,49.177,-43.467,26.721,34.802,23.092,23.272,17.797,11.326,26.456,19.593,11.591,12.162,0.323
3.6451813000003312,18.646,-12.374,-30.091,-27.118,32.952,17.021,6.918,-6.293,2.395,10.116,9.053,14.148,13.772,23.568,23.776,4.42,43.493,-52.645,18.498,29.644,10.262,8.392,2.41,-5.591,29.503,11.377,4.407,-5.269,-2.239
3.660160900000392,9.918,-21.584,-43.381,-35.287,27.283,8.294,-2.311,-20.119,-7.342,0.884,-1.714,2.863,6.585,7.663,12.994,-12.491,33.203,-64.888,5.159,20.393,0.005,-3.912,-7.326,-13.782,1.809,5.218,-0.721,-17.047,-13.507
3.6602195000000393,11.958,-20.025,-37.702,-32.691,32.892,5.725,-17.165,-10.365,-0.674,1.396,0.849,4.397,9.14,5.094,14.518,-10.429,43.416,-55.089,8.228,19.347,4.616,4.802,1.39,-4.035,-1.779,10.335,6.452,-5.759,-15.031
3.6752250000004096,18.606,-12.32,-27.418,-24.461,46.179,10.33,-8.951,6.552,8.036,6.517,6.996,13.102,14.254,8.675,22.188,-0.172,56.693,-46.325,18.466,25.476,12.296,10.944,9.073,2.117,14.617,15.448,12.594,7.055,-7.331
3.6752908000003117,19.099,-9.234,-29.44,-23.924,50.231,10.832,-7.918,2.447,3.929,7.023,4.939,10.528,12.191,6.617,22.678,-5.295,47.927,-56.012,16.398,25.963,10.234,7.86,8.552,3.14,11.529,17.482,14.118,8.584,-4.762
3.690163300000222,18.056,-7.688,-26.849,-21.339,51.205,10.821,-14.57,-6.265,-0.173,3.43,2.885,1.808,8.08,2.512,21.118,-9.901,40.194,-59.543,13.308,23.375,5.613,12.975,13.154,9.284,8.443,20.538,21.276,9.6,-2.708
3.6920312000002014,19.574,-4.094,-22.211,-16.194,58.839,12.347,-2.26,3.475,-0.173,2.914,8.518,2.318,8.072,-0.052,21.097,-6.305,45.277,-56.409,18.93,23.864,6.632,17.06,20.313,12.349,16.632,20.518,25.866,8.566,-3.218
3.705210000000079,20.579,-3.578,-27.824,-18.74,60.829,11.31,7.476,13.718,1.364,7.522,13.12,8.464,11.65,4.559,19.027,-7.835,44.207,-64.037,21.472,24.353,8.163,11.92,14.658,7.726,12.004,16.911,23.278,2.41,-8.337
3.7052722000003087,16.46,-10.234,-32.92,-22.819,56.67,8.225,1.321,7.044,3.924,7.515,11.058,7.431,12.151,8.653,17.471,-12.438,40.065,-72.683,13.766,22.279,5.081,9.347,6.958,3.619,1.746,14.333,21.206,-2.203,-10.378
3.7202902000003633,7.222,-18.933,-37.497,-24.333,55.589,6.68,-2.779,-3.209,1.871,2.384,5.923,4.349,7.528,5.058,14.892,-12.938,44.635,-72.61,8.117,19.183,-0.56,4.727,5.415,-2.02,2.257,9.708,18.111,-7.324,-13.442
3.720352300000286,3.117,-26.087,-45.657,-32.506,50.41,2.574,-6.874,-2.181,-2.229,0.332,1.819,7.419,8.033,7.614,12.316,-12.925,49.201,-71.513,8.621,17.114,-2.608,-3.987,0.286,-9.702,0.205,5.087,13.482,-16.026,-21.113
3.7356649000003017,6.187,-30.159,-49.71,-41.695,41.65,1.035,-13.528,1.407,1.359,-0.18,3.867,10.998,12.635,19.39,14.352,-10.863,50.177,-71.953,5.539,17.61,-1.581,-4.496,-9.448,-13.279,-14.14,5.082,15.518,-19.084,-24.166
3.735729900000024,8.743,-26.03,-46.074,-38.067,44.682,8.206,-11.465,1.918,5.456,3.918,9.498,12.011,13.135,22.444,17.412,-8.29,53.2,-74.955,2.972,18.104,-2.092,-2.954,-9.951,-8.655,-20.273,6.614,24.211,-13.429,-18.506
3.7502697000004446,13.857,-16.271,-38.855,-27.783,52.835,13.833,-7.867,2.941,5.451,10.062,10.513,12.512,14.147,17.811,18.931,-8.282,51.61,-77.954,7.58,18.086,-2.09,-4.488,-6.355,-5.06,-4.371,7.12,30.335,-9.317,-13.365
3.751995000000079,19.479,-11.131,-34.206,-22.632,52.782,10.746,-10.421,4.987,4.933,9.54,9.99,11.987,17.206,10.621,21.986,-6.737,50.022,-77.876,10.134,23.191,0.474,0.639,-4.299,-4.543,8.441,9.162,33.891,-8.796,-10.79
3.765332500000113,19.459,-7.534,-37.245,-20.048,55.291,8.173,-14.509,6.006,5.44,10.043,14.079,12.487,14.628,2.413,22.989,-5.706,53.046,-79.848,10.636,27.266,3.547,8.323,2.877,4.684,4.334,14.788,40.517,0.435,-5.144
3.765399300000354,19.952,-0.354,-36.184,-13.88,64.457,8.678,-11.421,10.611,6.972,14.131,16.114,11.45,11.027,1.386,21.941,-7.749,49.919,-83.354,14.211,24.678,4.056,11.901,10.047,15.437,8.428,20.409,46.624,13.242,6.132
3.780383800000436,24.031,3.232,-31.024,-11.305,69.515,10.206,-2.7,12.65,6.965,11.043,11.999,6.315,10.503,3.434,22.944,-11.328,44.746,-81.221,12.148,21.067,2.515,12.402,6.963,11.323,20.203,19.876,47.602,11.692,9.2
3.7804502000003595,22.47,3.229,-33.555,-13.343,69.446,14.294,-4.234,10.076,3.372,8.47,11.987,5.285,8.956,2.406,21.384,-14.902,48.799,-81.652,7.525,19.509,-0.049,8.291,3.37,5.164,13.01,16.782,47.042,5.02,4.58
3.7953472000003785,17.324,-0.872,-33.009,-16.916,65.79,11.718,-7.816,11.09,-3.804,9.999,11.463,5.792,6.898,7.527,18.801,-16.937,50.8,-87.718,9.054,20.002,-3.123,3.159,2.854,9.258,3.263,18.302,50.581,6.552,5.6
3.795408100000259,16.282,-7.532,-28.877,-20.485,57.015,2.485,8.073,9.542,-6.874,4.866,8.378,6.298,8.94,14.692,20.832,-11.797,51.774,-83.532,11.607,23.568,-1.071,4.693,2.851,9.248,11.457,18.284,57.191,6.545,7.131
3.810315800000353,22.414,-5.475,-31.922,-15.854,53.372,9.142,16.262,5.946,1.842,11.521,17.079,18.075,17.64,17.238,26.446,1.023,65.042,-70.641,16.718,28.155,5.078,11.861,8.484,10.264,18.618,17.753,64.818,3.465,4.051
3.8254116000002796,29.563,3.24,-31.891,-6.616,62.028,26.552,0.877,15.674,16.697,32.514,31.918,32.401,29.918,25.418,31.543,11.268,75.223,-66.472,25.411,32.738,8.659,18.509,16.672,20.5,19.624,22.859,70.901,7.56,6.096
3.8254727000003186,25.948,-0.862,-31.346,-10.708,62.478,26.525,-1.173,26.929,18.217,30.945,31.374,31.857,30.913,33.59,33.048,12.281,67.975,-71.016,23.848,34.242,7.114,17.466,16.143,20.992,19.604,25.397,71.855,7.552,4.553
3.840417400000206,14.139,-10.595,-41.049,-19.919,43.46,14.203,8.562,16.656,9.49,15.544,22.121,27.214,23.71,29.458,28.404,7.658,64.321,-76.068,17.677,30.109,4.545,11.813,13.053,10.724,12.924,21.273,67.172,0.885,-7.747
3.840481500000351,12.588,-10.072,-43.057,-17.85,35.732,12.14,-1.693,5.881,7.943,16.041,18.001,25.65,22.149,20.719,23.765,0.991,66.306,-77.529,18.684,27.005,2.491,11.801,13.04,10.201,8.813,20.228,67.617,-0.653,-9.276
3.854938200000106,16.673,-9.55,-32.768,-16.807,49.017,15.202,-8.864,11.511,11.009,16.537,15.934,18.964,21.615,14.551,23.229,-4.133,61.629,-76.939,19.177,26.978,3.001,14.863,15.589,14.802,18.026,23.794,73.185,2.934,3.541
3.8550050000003466,14.608,-11.077,-28.124,-18.327,54.091,15.699,3.953,14.573,8.949,10.885,14.893,14.335,15.445,9.925,22.694,-4.642,59.006,-77.887,16.597,24.902,3.51,14.336,18.647,17.861,21.082,25.819,75.673,7.029,9.172
3.8693600000001425,13.056,-7.992,-23.998,-14.723,47.377,15.171,5.998,10.972,8.428,12.924,13.341,15.345,13.893,9.915,20.109,-6.686,58.947,-79.858,16.58,23.34,1.97,12.272,15.555,20.405,9.277,23.232,76.11,7.535,8.139
3.8694163000000117,12.018,-13.619,-21.924,-13.684,44.255,12.594,-0.156,11.474,7.395,9.837,7.18,11.743,13.879,7.856,18.04,-11.803,53.253,-79.266,12.465,23.317,1.968,7.137,5.293,11.675,4.145,17.573,77.058,-1.694,6.081
3.884490800000094,7.908,-18.729,-31.124,-14.694,43.187,11.044,0.869,12.999,1.752,3.167,7.685,7.633,9.767,4.774,16.997,-11.791,50.638,-79.699,7.842,20.732,1.966,-0.042,0.164,-3.194,9.776,13.457,74.42,-9.89,-1.097
3.884555700000419,9.949,-11.538,-38.265,-13.655,48.266,18.206,-5.279,16.06,4.824,9.824,15.362,10.187,13.855,7.331,18.005,-8.705,52.636,-82.181,9.371,20.199,0.427,-1.579,0.677,-9.85,3.619,12.931,71.784,-6.806,-6.219
3.899550300000101,14.55,-12.551,-41.301,-20.301,56.927,23.311,-13.983,15.019,13.016,12.888,16.884,11.714,17.428,10.91,17.987,-10.233,50.535,-82.099,7.312,21.203,-0.598,-3.115,-2.91,-9.841,-12.266,10.357,72.737,-6.287,-5.701
3.899614500000098,13.511,-19.711,-45.358,-28.478,54.821,16.627,-1.162,5.27,6.343,5.191,15.33,13.239,13.312,13.973,18.481,-6.637,52.021,-77.918,6.28,21.694,0.427,-4.136,-4.957,-7.269,-8.156,9.322,76.25,-9.867,-8.769
3.914519900000414,18.108,-12.006,-39.677,-21.277,56.303,13.537,13.696,5.265,-0.835,8.259,21.975,21.935,16.885,23.693,27.172,4.64,60.166,-70.156,17.545,25.259,7.087,6.626,7.344,1.96,11.833,18.534,86.42,-2.685,-8.248
3.91457870000022,27.312,-3.797,-34.002,-12.034,69.055,20.696,5.998,18.068,12.485,17.985,28.1,30.11,24.552,27.255,34.317,11.808,59.593,-63.938,23.163,29.844,14.764,17.891,20.656,11.692,14.382,27.225,95.555,5.515,-0.555
3.92959350000001,20.624,-10.454,-39.604,-14.584,65.399,19.65,-1.18,18.05,19.645,16.43,22.437,25.469,21.454,20.056,28.135,5.649,50.825,-67.46,14.43,24.179,11.164,9.163,16.537,6.557,1.56,19.513,87.775,-5.761,-3.628
3.929661400000441,7.796,-15.566,-40.076,-15.082,54.063,12.458,10.092,13.421,11.429,12.315,15.754,16.734,20.92,16.962,21.447,-3.066,44.114,-71.491,11.854,19.032,2.955,-2.629,6.275,-3.696,-2.027,8.735,75.904,-19.588,-12.334
3.9446333000000777,10.862,-10.94,-31.327,-2.771,65.28,21.155,19.303,30.313,19.614,21.524,24.96,23.89,32.17,22.068,25.012,6.158,44.07,-61.686,20.552,27.722,9.1,5.571,12.416,-0.106,8.733,14.361,81.464,-11.371,-6.686
3.9447118000002774,21.097,-3.244,-22.586,12.601,80.584,33.429,10.575,45.14,37.013,32.261,35.694,38.723,36.749,22.046,31.135,19.984,47.612,-51.89,24.117,33.842,17.288,13.762,20.088,9.116,22.044,22.032,91.116,0.936,5.616
3.9596134000003076,14.416,-7.34,-21.027,12.588,70.77,23.662,-4.293,33.312,28.267,24.032,25.924,29.463,27.49,12.29,25.468,9.718,42.953,-59.011,15.384,22.025,8.561,0.428,6.748,-0.627,12.288,13.813,86.414,-7.262,1.512
3.959679700000379,-0.967,-22.701,-35.863,-5.355,53.28,7.245,-6.85,14.835,3.648,1.979,5.918,5.867,14.143,3.056,10.073,-12.833,28.054,-70.222,1.024,9.195,-5.279,-14.429,-12.214,-14.971,-17.95,0.991,77.106,-19.038,-14.883
3.97503130000041,-1.479,-21.142,-45.561,-15.596,50.153,4.676,6.989,7.136,-6.09,-7.757,0.789,-0.799,6.444,3.053,3.916,-18.968,23.927,-71.177,-6.149,7.649,-5.786,-14.415,-12.714,-12.395,-18.957,2.015,77.029,-12.871,-14.868
3.9896444000000884,8.257,-4.214,-27.072,-8.92,55.738,8.77,10.056,3.03,-2.497,-1.602,6.424,3.3,6.438,5.099,10.059,-16.9,31.588,-65.983,-1.532,7.129,1.392,-11.839,-6.554,-11.87,8.215,11.234,82.587,-2.612,4.102
3.989714200000435,5.687,-6.26,-18.848,-8.399,54.146,8.761,-7.885,1.49,-1.983,1.474,5.393,-1.826,6.944,-0.029,7.488,-19.444,28.482,-65.917,0.006,7.635,1.903,-11.827,-10.133,-20.055,7.182,12.76,83.529,-7.221,9.221
4.004659100000026,-3.028,-17.524,-36.76,-19.149,43.333,5.166,-11.976,3.026,-7.616,-5.7,-1.273,-4.898,2.838,-2.59,1.333,-19.937,19.745,-66.875,-1.019,11.213,-2.198,-10.278,-11.148,-13.375,-10.244,8.137,76.786,-13.873,-1.547
4.006307000000106,-2.513,-12.896,-37.236,-19.642,37.654,3.111,0.844,4.047,-10.682,-9.28,-2.808,-1.819,1.298,0.998,6.454,-15.819,23.823,-58.612,5.642,12.739,2.415,-4.632,0.134,-2.091,3.599,12.739,76.709,-7.199,-0.521
4.019737600000099,3.637,-7.247,-24.391,-10.401,44.277,7.719,-1.718,6.093,-4.524,-4.66,1.293,0.744,4.371,3.047,11.571,-5.557,34.046,-45.745,13.321,17.849,12.659,5.106,13.454,2.01,23.063,22.973,87.391,3.566,11.263
4.0197996000001694,9.269,-5.703,-23.342,-4.755,57.553,14.371,-1.717,12.747,2.653,2.517,8.976,9.453,7.953,10.728,15.146,7.769,41.696,-37.503,19.968,27.565,17.769,13.81,22.662,13.278,23.04,28.585,96.013,10.223,15.35
4.034757300000365,16.432,4.549,-21.781,1.909,69.79,25.116,11.093,21.955,8.286,13.785,21.775,24.3,13.58,28.136,25.377,15.958,48.314,-28.756,30.707,30.611,24.412,17.895,30.836,25.048,28.14,31.63,97.966,15.335,15.335
4.034825000000183,15.391,3.007,-25.346,6.518,66.647,34.312,4.422,23.983,11.351,21.456,24.827,26.325,19.714,36.305,27.4,14.917,48.266,-23.092,30.676,27.507,27.973,15.828,28.244,16.826,33.235,30.062,93.769,10.197,10.196
4.0497229000002335,2.568,-13.39,-38.128,-0.661,51.723,26.593,-8.903,14.225,5.192,13.75,13.019,18.614,19.182,29.608,16.615,7.218,41.558,-25.63,16.813,23.381,18.212,4.541,15.408,5.539,20.906,19.273,82.917,-8.256,-1.597
4.049785200000315,0.516,-10.815,-31.43,-3.222,53.721,18.882,-4.283,11.137,4.162,12.199,13.006,20.645,17.114,27.529,16.086,4.649,41.004,-23.043,13.722,20.284,13.583,-2.636,13.343,6.045,16.274,13.619,77.199,-11.834,-1.083
4.064893400000074,8.713,-0.558,-21.152,6.516,67.499,32.695,-5.816,22.396,16.454,25.507,23.239,26.259,23.757,30.576,22.217,10.28,42.5,-18.409,17.807,20.776,20.229,3.002,19.99,9.625,22.406,16.679,81.732,0.473,6.603
4.066825200000039,1.532,-12.34,-35.476,0.874,59.235,37.273,-8.884,20.325,14.9,21.895,16.044,20.086,25.782,23.885,15.535,7.708,34.773,-30.174,12.154,20.243,18.159,-0.587,13.31,3.98,10.6,14.101,80.626,-6.7,-3.65
4.079766600000312,-11.278,-28.21,-45.687,-22.181,43.806,20.842,3.421,6.984,1.053,3.942,6.294,11.869,16.535,12.591,6.298,-2.034,23.98,-40.902,6.506,16.636,11.994,-12.369,1.514,-7.807,-7.341,7.939,71.324,-28.722,-20.553
4.0798328000000765,-7.168,-26.644,-42.055,-27.794,49.398,21.846,2.393,11.076,3.613,4.451,10.386,12.881,11.395,7.455,9.878,0.018,16.783,-34.714,7.524,15.595,15.568,-6.722,1.512,-11.385,-15.018,9.468,72.277,-31.767,-23.606
4.094921900000372,-3.062,-19.958,-47.648,-16.496,60.107,38.218,-2.733,18.749,4.122,7.52,6.79,12.868,11.896,3.349,12.942,6.165,16.254,-31.605,8.029,14.555,16.065,-0.567,2.023,-4.714,-23.2,13.044,77.328,-22.002,-22.045
4.094987800000126,-6.133,-13.79,-48.625,-11.356,60.047,40.229,11.615,8.485,-9.714,-1.709,0.635,7.732,10.86,2.321,8.83,4.622,19.824,-31.573,6.484,11.979,12.975,-9.276,-0.028,-2.66,-17.029,14.568,76.738,-15.832,-19.462
4.110877200000232,2.582,-7.116,-33.719,-7.759,65.11,37.627,7.504,8.988,-4.069,1.879,10.881,11.823,11.361,11.028,10.871,6.155,20.317,-22.32,6.99,14.528,20.134,-5.168,5.095,-2.145,9.628,17.628,80.248,-8.132,-4.073
4.110941500000081,14.875,-1.986,-21.39,-1.603,76.316,43.737,-9.922,26.398,11.304,14.685,19.067,24.107,15.961,17.677,21.618,14.858,22.345,-16.663,14.668,20.149,28.311,7.645,12.262,8.104,14.741,23.245,87.852,2.123,13.349
4.124877400000059,19.471,6.725,-12.147,7.62,86.485,51.89,4.945,28.933,10.78,19.281,21.609,31.255,23.117,18.684,29.794,25.089,32.569,-12.547,25.411,26.277,33.406,10.711,18.397,18.342,1.406,30.394,93.912,7.244,17.947
4.12665190000007,23.038,12.354,-3.938,21.445,94.596,57.474,13.137,23.781,18.454,25.409,30.809,35.322,32.315,22.764,31.301,31.724,37.66,-3.313,26.923,31.886,39.007,12.237,24.014,17.299,12.163,33.438,100.478,8.261,16.904
4.139860300000237,17.892,4.144,-5.984,19.374,89.378,53.318,-11.467,27.856,27.657,25.384,28.729,34.775,32.283,24.79,25.634,24.52,27.888,-4.847,19.211,25.706,33.333,10.688,19.38,10.621,25.984,28.794,98.841,3.642,11.764
4.139922900000329,7.115,-6.618,-10.588,-1.138,76.481,40.457,-11.967,26.803,11.748,13.063,15.38,25.518,22.517,16.056,15.875,12.2,19.663,-11.502,14.069,15.434,23.566,0.944,13.213,8.049,14.687,24.154,84.397,-4.046,-1.568
4.1549087000003055,10.182,-5.587,-6.992,-5.747,83.577,41.953,9.561,22.166,5.076,14.075,19.463,24.98,23.007,12.454,18.933,17.311,21.181,-2.781,20.203,22.591,31.739,7.603,22.421,16.75,13.647,28.228,82.776,-1.481,-2.078
4.154967600000418,20.93,2.616,-1.349,9.628,101.424,55.232,4.429,30.34,23.514,28.405,33.276,38.788,32.205,18.589,33.771,31.638,24.746,7.468,30.429,34.864,45.028,22.452,32.645,26.98,31.565,35.373,95.501,8.767,12.268
4.169915000000401,23.471,7.736,-0.836,14.741,100.298,53.127,-7.359,33.384,20.929,27.864,34.78,43.36,30.124,20.107,37.323,35.705,25.746,7.972,31.935,34.317,44.47,20.38,29.538,25.416,24.361,33.8,96.942,10.807,13.793
4.184896000000208,18.837,5.167,-3.909,9.091,89.439,45.389,0.846,19.518,4.002,19.127,29.622,36.656,24.458,18.55,31.65,32.595,22.134,8.477,25.243,29.159,40.84,14.212,23.873,21.804,4.869,27.619,90.698,5.674,8.656
4.1849527000003945,15.232,4.137,-7.491,11.643,85.251,49.442,6.992,12.839,3.998,19.621,26.518,34.058,24.946,23.143,32.643,27.952,17.501,10.005,22.657,28.106,38.237,11.636,20.263,17.172,15.11,26.054,91.119,4.131,13.771
4.199951500000225,13.167,6.694,-9.02,17.267,77.482,52.467,0.838,19.486,5.019,20.113,24.955,28.901,21.847,19.021,33.123,22.289,14.922,9.995,20.072,26.541,33.076,3.428,14.095,2.81,27.39,22.442,87.442,1.053,10.683
4.20001400000001,11.617,2.077,-10.548,15.201,67.67,47.291,-1.212,23.565,5.014,18.556,22.881,24.774,16.19,4.657,25.917,19.705,11.833,11.01,14.417,24.465,32.531,0.351,8.958,-0.779,8.407,15.76,79.158,-3.559,-0.086
4.214983900000334,11.605,-0.487,-10.025,12.112,73.75,46.732,0.838,26.615,20.89,23.661,22.346,29.36,20.272,2.091,26.404,21.734,11.821,12.536,15.939,24.44,35.572,4.961,12.023,15.103,-0.822,20.355,81.64,0.031,5.549
