Timestamp,Cz,Fz,Fp1,F3,C1,C3,T7,C5,CP5,CP3,CP1,P1,P3,O1,CPz,Pz,Oz,O2,P4,P2,CP2,CP4,CP6,C6,T8,C4,C2,F4,Fp2
0.0,4.429,0.776,52.998,-3.257,-71.746,11.269,-15.903,-19.53,-8.392,-0.172,0.689,-2.664,-4.084,-7.103,7.545,-3.188,-24.365,23.842,-5.855,5.969,23.759,-1.061,-20.589,-1.005,-4.097,-7.008,-106.648,-15.401,17.139
8.109999998850981e-05,-2.747,-5.885,42.186,-17.086,-82.432,4.085,-14.862,-33.342,-12.995,-10.93,-7.509,-10.858,-10.227,-11.195,7.537,-10.869,-28.951,18.695,-11.996,-1.209,11.952,-10.794,-24.155,0.533,-9.729,-9.563,-117.3,-16.922,10.461
0.015020199999980832,-12.991,-13.563,35.996,-22.704,-95.67,-8.214,-27.143,-36.895,-23.74,-21.165,-17.235,-19.557,-17.902,-14.257,5.993,-21.617,-33.02,6.893,-18.132,-7.868,4.768,-16.419,-26.18,-6.64,-16.379,-12.115,-118.208,-29.713,5.328
0.01508479999984047,-16.052,-16.624,29.813,-23.194,-97.111,-7.182,-32.751,-33.784,-22.692,-19.607,-21.316,-23.123,-17.371,-14.755,0.352,-24.157,-33.5,7.911,-19.139,-7.348,5.788,-14.353,-24.105,-11.757,-12.264,-13.639,-112.966,-41.979,-3.899
0.030050800000026356,-4.765,-14.558,24.147,-17.023,-81.645,1.023,-27.083,-30.677,-16.521,-15.489,-12.073,-20.026,-10.694,-14.228,1.888,-17.472,-30.905,15.588,-14.509,-1.705,10.393,-10.752,-16.396,6.186,5.167,-7.99,-116.952,-29.641,-6.969
0.03011659999992844,5.486,-5.322,26.685,-6.248,-67.731,3.071,-26.544,-24.498,-15.48,-12.912,-3.352,-13.859,-8.634,-11.14,10.083,-12.332,-25.238,13.523,-8.346,0.858,11.92,-5.106,-11.769,21.037,16.432,0.727,-117.859,-12.193,4.821
0.045020300000032876,-0.155,-0.706,24.609,-7.778,-68.175,1.531,-29.079,-22.425,-13.415,-13.412,-8.984,-17.431,-12.212,-11.641,6.487,-15.906,-28.799,3.775,-14.998,-4.778,6.272,-9.2,-20.466,2.573,3.608,-4.397,-115.18,-19.866,1.742
0.06018799999992552,-9.889,-7.877,11.777,-17.504,-76.304,-4.619,-28.025,-30.087,-19.55,-24.157,-19.733,-29.197,-19.372,-19.827,-5.303,-25.624,-41.578,-3.401,-27.791,-13.483,-4.492,-23.535,-31.717,-15.873,-15.351,-14.126,-121.725,-31.117,-18.752
0.06026250000013533,-8.854,-7.869,6.642,-15.438,-80.326,-10.762,-27.997,-37.229,-31.313,-31.305,-23.3,-31.729,-25.5,-22.368,-4.273,-29.696,-44.61,-0.323,-25.714,-15.006,-7.049,-23.511,-30.148,-5.099,-15.848,-8.989,-126.214,-25.45,-22.319
0.0750530999998773,-3.21,1.36,5.098,-12.348,-73.074,-8.702,-29.506,-37.192,-29.745,-30.761,-20.203,-27.599,-24.962,-20.297,2.392,-23.519,-36.369,6.337,-16.979,-8.844,0.642,-13.242,-17.822,6.689,-3.024,-1.808,-124.551,-19.277,-14.612
0.07699370000000272,-0.645,-0.178,-7.715,-21.557,-61.217,-10.23,-30.501,-39.716,-27.154,-33.292,-17.621,-27.571,-21.863,-19.252,-2.734,-16.323,-31.722,9.917,-13.376,-4.736,2.178,-11.179,-10.12,1.56,11.323,-3.343,-124.426,-17.208,-16.647
0.0901042000000416,5.503,2.896,-11.805,-17.95,-53.472,-11.244,-30.983,-39.676,-26.102,-27.111,-12.993,-20.371,-18.768,-11.548,-1.707,-7.598,-25.542,18.104,-5.678,-1.658,4.738,-3.484,-6.011,5.657,21.558,2.808,-115.593,-5.408,-9.458
0.0901678999998694,17.793,21.336,2.039,5.122,-39.074,2.599,-28.39,-21.706,-9.682,-9.665,0.34,-4.982,-8.503,-1.29,15.714,8.291,-13.221,28.844,5.599,8.078,18.053,11.377,4.753,26.143,24.611,17.15,-102.157,11.503,7.458
0.10552929999994376,20.849,24.388,1.524,9.728,-24.69,10.281,-24.776,-5.29,0.061,-5.557,8.537,-1.903,-1.834,-1.289,18.259,13.406,-13.208,25.229,2.007,9.607,14.961,8.804,7.822,29.703,22.024,17.645,-109.227,8.93,-0.234
0.10559890000013183,8.533,5.921,-21.019,-11.799,-31.325,1.05,-27.312,-13.994,-11.209,-10.675,0.844,-9.073,-7.468,-6.411,1.335,0.585,-25.49,11.884,-11.827,-3.723,-2.985,-8.623,-11.141,7.132,18.416,1.233,-125.512,-15.669,-26.362
0.12012929999991684,4.426,1.817,-32.268,-15.373,-40.003,2.073,-24.724,-17.567,-8.124,-4.004,0.843,-3.429,-5.923,-1.794,5.944,3.146,-26.49,11.36,-11.303,-2.182,-0.932,-13.225,-19.327,0.977,17.373,-3.891,-118.214,-21.801,-31.971
0.12019099999997707,13.131,10.012,-24.552,0.011,-27.155,8.219,-16.502,-6.278,1.105,1.123,14.162,8.87,3.816,3.844,22.332,22.098,-14.68,20.058,3.053,13.701,9.827,-1.941,-1.889,15.833,16.331,6.872,-107.337,-6.923,-20.156
0.13517430000001696,3.896,-2.806,-24.527,-10.235,-24.054,-8.183,-18.535,-20.104,-15.802,-15.784,3.389,0.664,-7.458,-5.382,8.478,15.929,-19.788,13.377,-0.024,7.028,-3.503,-5.013,-3.424,6.083,9.143,2.766,-124.136,-16.65,-24.746
0.13687639999989187,-19.674,-25.857,-36.798,-37.377,-47.084,-29.692,-27.738,-49.286,-34.741,-35.749,-24.279,-19.829,-28.968,-22.283,-14.072,-9.19,-40.261,-3.03,-18.98,-12.447,-21.942,-23.451,-26.987,-10.829,-3.162,-15.68,-142.455,-40.711,-41.628
0.15017660000012256,-18.63,-24.807,-42.396,-36.315,-51.648,-27.613,-29.759,-49.236,-31.633,-35.2,-21.693,-25.444,-28.426,-23.797,-7.911,-10.718,-39.196,-2.002,-17.936,-9.873,-18.334,-23.428,-24.398,0.965,-5.72,-11.053,-131.554,-34.011,-39.024
0.1502387999998973,0.857,-7.363,-33.133,-17.836,-30.079,-13.753,-29.729,-35.355,-28.527,-24.919,-4.253,-17.734,-22.25,-14.04,5.417,2.1,-21.738,11.32,-4.086,1.408,-6.021,-8.035,-7.98,9.673,7.093,6.376,-113.492,-12.972,-20.542
0.1642802000001211,5.467,1.866,-23.366,-10.645,-23.902,-7.079,-33.286,-36.344,-31.573,-23.87,-7.322,-15.155,-27.351,-10.952,4.9,2.61,-18.13,13.87,-5.619,-0.131,-6.015,-5.978,-10.534,6.59,20.918,8.419,-115.428,-7.836,-13.862
0.16434429999981148,-1.199,-0.698,-23.342,-10.122,-33.611,-7.585,-34.79,-38.869,-29.492,-26.92,-11.926,-16.677,-26.811,-10.941,7.456,1.583,-17.088,13.856,-7.15,0.382,-11.644,-9.558,-11.548,18.366,21.922,4.312,-121.46,-10.902,-21.533
0.17932380000002013,-2.735,-6.845,-30.491,-15.748,-38.701,-11.676,-37.316,-35.244,-26.389,-25.356,-6.791,-16.148,-21.149,-5.807,11.547,3.631,-7.849,17.941,-2.532,1.918,-14.706,-9.549,-7.95,14.762,15.752,-1.327,-119.289,-19.6,-26.634
0.1793892999999116,-5.806,-11.449,-37.633,-25.978,-43.273,-16.275,-39.84,-33.16,-26.874,-27.38,-12.419,-16.644,-23.69,-6.826,3.339,1.578,-12.964,13.824,-10.726,-6.281,-20.839,-19.785,-19.725,-8.307,12.15,-14.134,-135.051,-27.265,-30.194
0.19432789999973465,-7.849,-8.876,-44.255,-23.391,-48.865,-17.795,-38.776,-35.688,-28.385,-31.963,-19.579,-17.652,-24.691,-12.454,-1.275,0.552,-27.808,4.589,-19.425,-10.373,-25.941,-26.938,-25.341,-6.762,8.552,-15.657,-167.192,-21.09,-37.336
0.19611529999974664,-7.329,-8.355,-47.797,-17.22,-50.353,-16.753,-37.713,-39.239,-30.918,-33.468,-15.973,-17.122,-21.592,-10.905,4.361,1.064,-26.244,4.072,-13.258,-5.752,-25.915,-18.714,-16.606,1.954,1.371,-7.444,-189.054,-19.532,-41.909
0.20934129999977813,-10.395,-15.519,-49.799,-24.375,-49.791,-16.736,-35.626,-36.638,-31.399,-31.898,-15.957,-16.08,-22.595,-7.82,3.332,-0.987,-19.045,4.068,-12.732,-7.795,-27.426,-19.208,-18.639,-6.244,-1.192,-11.023,-180.668,-29.247,-43.404
0.20940590000009252,-9.36,-12.429,-45.65,-21.276,-37.445,-16.207,-29.442,-30.454,-27.782,-26.743,-16.454,-12.478,-18.986,-7.812,-0.257,3.113,-21.588,3.039,-15.793,-9.324,-26.374,-24.824,-21.694,-3.164,3.42,-13.061,-169.729,-25.631,-41.824
0.22437369999988732,-0.13,1.416,-32.797,-3.837,-21.014,-9.531,-26.851,-26.837,-23.655,-18.519,-6.191,-6.83,-12.82,-6.78,4.866,13.356,-22.591,10.209,-7.068,-1.118,-18.663,-15.065,-9.377,9.134,8.028,-1.777,-170.071,-12.798,-31.024
0.22444009999981063,3.969,7.562,-26.104,2.315,-20.993,-4.398,-30.923,-24.761,-23.632,-17.988,-1.062,-4.774,-12.295,-3.699,11.521,16.416,-18.469,16.346,2.673,4.006,-17.108,-4.292,0.366,13.224,9.557,4.885,-169.389,-10.224,-18.185
0.24044030000004568,1.916,8.579,-33.25,3.337,-20.972,-7.98,-32.941,-27.298,-26.17,-22.069,-4.135,-7.331,-11.258,-4.208,10.485,16.4,-13.84,16.33,3.695,1.953,-21.189,-3.775,-1.171,20.383,8.01,4.368,-165.633,-6.627,-18.679
0.2405045999998947,3.451,8.57,-37.828,3.334,-10.193,-10.021,-32.908,-30.344,-23.07,-18.46,-2.081,-5.787,-7.66,-3.691,7.401,18.433,-9.728,18.363,4.716,3.488,-20.143,-3.771,-2.194,20.875,9.027,4.363,-164.955,-5.596,-25.32
0.25437209999972765,3.447,1.389,-38.302,-9.989,-13.769,-6.425,-39.535,-24.166,-17.411,-14.856,-1.055,-1.682,-7.653,-1.126,6.881,19.439,-11.767,18.344,2.149,4.509,-21.148,-5.304,-3.217,5.997,13.628,1.285,-166.84,-17.886,-29.393
0.26949070000000575,-1.679,-5.272,-45.949,-20.226,-25.538,-6.419,-43.594,-22.093,-19.443,-21.501,-5.664,-4.755,-11.231,-5.736,7.387,16.858,-21.49,9.104,-5.537,-0.106,-25.737,-9.91,-7.312,3.429,10.541,-2.303,-163.599,-24.528,-35.512
0.26958579999973153,-3.727,-4.242,-51.026,-14.57,-26.537,-10.511,-35.354,-29.755,-23.522,-27.115,-8.732,-11.922,-16.855,-12.902,6.867,10.181,-25.054,1.923,-9.63,-2.155,-31.347,-11.437,-7.817,13.672,-0.228,-0.251,-159.337,-20.405,-38.038
0.2844308999997338,-5.26,-6.799,-47.389,-15.58,-30.097,-12.549,-30.195,-29.726,-26.572,-29.649,-13.847,-18.058,-22.986,-13.402,3.786,-0.075,-23.492,-0.128,-14.744,-6.764,-42.074,-17.061,-9.346,8.023,-3.814,-3.837,-164.301,-23.458,-36.463
0.28449959999989005,-11.915,-16.014,-49.391,-24.786,-43.386,-15.611,-35.801,-29.696,-34.743,-36.28,-23.567,-26.237,-27.574,-17.487,-2.878,-9.809,-31.153,-8.325,-26.512,-18.54,-49.204,-31.388,-21.12,-10.428,-5.347,-17.153,-172.846,-33.169,-43.086
0.2993667999999161,-16.001,-18.56,-53.952,-25.786,-48.978,-17.132,-34.74,-35.814,-37.269,-35.731,-23.543,-29.284,-28.059,-24.641,-4.412,-10.312,-36.758,-13.44,-28.535,-20.571,-45.569,-35.455,-27.246,-12.467,-10.465,-19.697,-168.062,-35.697,-47.142
0.2994341999997232,-5.739,-11.881,-48.775,-19.612,-44.319,-7.381,-25.484,-27.069,-25.449,-23.4,-10.2,-16.96,-20.858,-16.42,7.376,3.531,-25.45,-2.668,-10.576,-5.181,-38.863,-19.026,-12.875,5.989,-6.356,-3.796,-154.574,-25.415,-34.799
0.3143172999998569,7.074,-4.697,-44.628,-13.957,-34.541,3.385,-28.532,-14.746,-16.714,-16.716,1.081,-4.135,-11.103,-3.596,19.152,20.946,-12.105,11.167,3.78,5.583,-31.652,-2.613,-0.566,17.766,1.335,7.991,-140.587,-14.631,-28.104
0.3143796999997903,7.58,-0.081,-46.12,-10.87,-28.358,2.357,-36.188,-18.318,-20.796,-18.237,3.642,-2.082,-8.531,-3.08,16.571,23.487,-11.068,11.668,2.751,7.114,-25.985,-1.586,-0.566,12.625,3.383,5.933,-133.274,-15.641,-33.199
0.3293892000001506,3.986,1.968,-44.025,-8.297,-31.916,0.305,-30.005,-17.787,-21.8,-16.681,5.687,3.044,-7.498,-2.564,19.116,26.537,-7.471,13.706,8.384,13.767,-23.398,0.977,8.656,18.248,10.552,9.514,-136.215,-18.187,-31.629
0.32945070000005217,10.642,3.503,-40.907,-4.703,-35.47,5.94,-20.753,-9.06,-13.581,-11.542,10.805,12.262,-1.855,3.586,29.855,40.343,4.32,25.475,18.622,20.413,-21.837,11.735,21.455,33.598,22.324,17.701,-139.665,-12.534,-27.499
0.34442489999992176,11.656,1.962,-44.964,-8.796,-33.898,5.422,-24.831,-15.711,-11.006,-10.506,11.306,9.176,0.196,4.095,24.19,38.253,7.389,23.913,10.918,14.757,-31.037,6.6,15.286,26.905,18.716,11.536,-136.451,-13.033,-31.57
0.34448729999985517,-2.7,-8.286,-56.19,-21.083,-41.549,-4.317,-34.54,-28.503,-18.167,-18.18,-1.513,-3.129,-7.489,-2.057,10.846,18.235,-0.303,0.835,-7.023,2.447,-48.937,-15.436,-2.66,4.336,3.84,-4.357,-137.852,-25.828,-42.297
0.3597599999998238,-11.407,-20.06,-67.917,-27.722,-67.123,-5.85,-37.579,-28.475,-20.711,-24.309,-13.807,-12.859,-14.141,-8.715,11.86,11.044,-7.475,-15.56,-14.701,-4.728,-52.474,-28.741,-17.002,-5.402,-7.434,-12.55,-142.837,-38.61,-56.087
0.3598168999997142,-4.735,-15.942,-67.849,-22.571,-90.622,3.89,-29.344,-20.249,-10.956,-18.649,-10.207,-14.383,-11.053,-9.731,17.995,11.546,-8.492,-14.519,-14.686,-2.161,-43.2,-27.175,-19.546,-2.835,-7.939,-11.513,-140.132,-36.522,-53.982
0.37446120000004157,3.466,-2.094,-55.998,-9.229,-81.309,10.034,-11.897,-7.933,-2.748,-10.946,-3.024,-6.684,-4.894,-2.549,16.44,8.972,-6.434,-16.042,-11.598,3.476,-44.694,-19.975,-11.33,3.316,3.852,-4.329,-134.869,-21.116,-34.972
0.3745233999998163,3.463,-0.042,-52.356,-5.633,-49.465,4.388,-1.639,-2.29,-6.844,-12.984,-5.583,-4.628,-5.402,-3.571,10.789,8.451,-10.014,-24.223,-11.586,-2.675,-52.334,-17.394,-7.22,8.435,13.582,0.798,-138.32,-15.972,-32.376
0.3895155000000159,-1.152,-8.752,-59.476,-17.923,-37.12,-1.252,-5.223,-12.022,-13.497,-18.095,-10.7,-12.308,-10.007,-13.301,5.655,5.369,-14.614,-24.711,-16.698,-9.332,-55.355,-19.426,-6.701,8.427,8.445,-1.252,-146.891,-26.715,-45.151
0.389584499999728,1.411,-4.132,-56.855,-16.368,-38.62,5.41,-6.755,-10.473,-10.41,-13.466,-4.029,-4.612,-7.436,-7.653,9.235,9.462,-7.428,-12.903,-6.435,2.972,-50.177,-9.672,4.065,14.054,7.412,4.385,-149.306,-18.491,-36.397
0.40454730000010386,18.316,14.827,-39.38,9.776,-16.552,21.286,1.961,7.981,3.945,-1.669,13.905,14.348,6.916,4.65,22.546,31.482,3.851,1.455,17.65,20.388,-37.319,10.317,20.454,30.946,23.286,20.775,-138.911,8.167,-16.38
0.4046138999997311,30.081,25.059,-31.656,22.574,8.055,30.486,4.521,15.145,14.187,9.091,25.674,20.994,17.156,3.621,31.233,43.233,7.433,9.138,24.293,25.491,-31.646,15.43,25.557,39.112,29.923,25.877,-131.087,13.282,-18.413
0.41955460000008316,26.977,21.448,-40.846,13.33,8.559,31.48,-0.607,11.544,10.587,11.131,23.087,20.973,15.602,4.642,30.689,39.604,8.45,11.69,20.682,25.465,-34.176,8.755,21.433,32.925,21.696,19.703,-131.981,3.023,-26.592
0.43449329999975816,26.95,19.889,-46.952,9.218,5.989,27.863,2.468,15.631,8.527,8.558,21.527,25.051,16.098,13.347,29.634,44.687,11.003,15.777,27.321,24.927,-32.093,10.795,16.289,24.695,19.113,17.122,-128.262,4.045,-26.565
0.43455169999970167,30.509,20.894,-44.344,12.283,3.422,24.249,12.199,17.152,11.08,9.574,24.067,24.513,19.668,12.821,30.629,46.692,9.968,19.86,30.88,24.902,-32.061,10.272,15.76,18.011,15.508,13.519,-124.036,2.504,-30.125
0.4495505999998386,23.818,17.799,-48.398,8.172,-12.463,24.737,14.236,10.987,8.508,7.516,17.896,17.316,15.038,6.148,30.598,33.325,3.298,14.717,21.116,22.316,-42.787,-3.571,10.109,14.407,2.684,3.259,-131.596,-6.72,-34.193
0.4512611999998626,14.061,14.195,-56.034,0.991,-24.746,24.2,6.025,7.902,2.351,-4.275,5.07,8.078,7.851,3.068,23.908,22.021,-5.927,1.894,9.311,9.998,-55.04,-18.424,-7.832,7.732,-2.441,-5.966,-136.588,-8.251,-36.72
0.46463719999974273,11.998,11.107,-56.49,-6.182,-29.332,19.052,0.896,4.308,-1.237,-12.98,1.479,-3.201,4.769,-3.595,12.613,11.241,-12.069,-5.792,-0.432,-0.258,-65.231,-27.627,-18.583,-5.596,-2.439,-12.62,-134.402,-10.804,-42.319
0.46470300000009956,9.936,9.047,-56.434,-9.25,-37.5,15.959,3.456,2.767,-1.236,-7.844,2.502,-6.272,3.227,-5.641,12.088,3.545,-12.057,-4.762,-2.481,1.792,-66.702,-29.649,-12.929,-6.615,-7.559,-14.656,-138.366,-13.867,-40.74
0.4800775999997313,13.513,16.21,-52.279,-0.531,-29.265,17.48,6.527,9.937,2.864,-2.201,1.987,0.394,6.81,1.537,19.248,11.226,-8.459,-2.196,5.206,7.937,-58.951,-21.422,-6.256,7.737,-5.503,-6.957,-142.326,-2.582,-30.453
0.48013910000008764,23.745,27.977,-40.956,12.277,-7.207,19.512,7.033,15.05,5.423,0.363,6.596,8.079,12.951,5.122,20.766,21.973,-5.889,1.393,10.837,14.59,-54.281,-11.155,-3.688,12.852,4.749,-0.802,-135.524,9.716,-22.738
0.49465169999984937,28.844,33.072,-35.28,16.876,-0.54,23.591,5.489,14.01,2.343,5.486,13.762,10.632,12.938,2.043,21.257,24.0,-4.346,3.953,11.85,19.698,-54.227,-6.02,0.926,9.253,9.355,0.735,-128.216,8.681,-19.641
0.49471249999987776,25.742,32.014,-38.318,13.785,-5.15,24.592,-3.226,12.459,3.366,4.456,13.235,8.572,11.901,1.016,26.359,26.538,-4.342,1.387,15.425,19.166,-51.099,-4.99,0.925,13.855,8.833,3.808,-128.6,7.136,-21.671
0.5096319999997831,22.642,27.884,-44.428,5.574,-8.731,17.907,-10.395,7.324,3.874,-1.184,9.124,6.002,11.889,-0.009,26.845,28.561,-2.288,3.435,14.897,19.147,-53.097,-5.497,-1.637,14.865,5.751,4.317,-130.521,7.641,-26.772
0.5113269999997101,19.033,19.659,-53.092,-6.215,-21.53,11.742,-5.262,-1.393,-6.376,-2.72,4.504,4.459,6.754,-0.009,20.158,23.921,0.788,5.993,11.296,18.615,-60.216,-4.979,-2.66,5.117,-0.403,0.214,-132.439,1.485,-28.282
0.5247064000000137,14.404,11.443,-62.261,-15.43,-36.365,10.706,-3.72,-4.978,-16.103,-8.865,-4.21,-1.693,1.112,2.04,13.478,15.7,-1.774,-2.209,8.723,11.424,-63.23,-8.56,-7.78,-2.573,-5.013,-2.348,-133.332,-8.762,-33.89
0.5247752000000219,12.852,5.796,-66.809,-16.951,-40.427,9.158,-12.937,-2.924,-12.501,-15.004,-8.304,-5.278,1.11,3.575,15.002,10.562,-5.359,-8.355,4.104,9.876,-63.679,-14.7,-12.383,-5.132,-7.057,-4.395,-130.637,-13.876,-44.102
0.5397899999998117,15.913,2.716,-70.329,-15.91,-41.924,10.686,-13.949,2.202,-4.804,-8.841,-2.148,-0.661,3.671,2.547,21.134,13.625,-3.816,-3.224,4.1,16.526,-64.64,-11.611,-6.736,-4.102,-5.513,-2.853,-126.92,-12.326,-45.595
0.5398552999999993,17.434,5.787,-68.722,-14.357,-41.369,17.847,-3.177,4.762,-4.287,-2.684,1.952,-0.148,3.667,0.495,20.089,16.173,-6.374,-2.196,8.194,17.022,-64.575,-4.939,-1.606,0.0,-0.897,1.248,-126.281,-8.727,-41.963
0.5547474999998485,17.417,11.929,-58.407,-7.683,-36.205,22.44,1.95,4.245,-4.795,-1.657,1.438,-2.71,2.639,-3.092,21.093,14.107,-13.028,-6.804,7.161,15.468,-66.048,-6.984,-1.604,3.586,3.715,5.858,-124.617,-5.132,-40.384
0.5548067999998239,23.547,16.016,-48.614,1.547,-26.947,23.442,2.972,11.925,2.895,3.98,8.097,4.977,5.71,-1.039,30.294,22.29,-8.916,2.424,10.228,21.088,-60.346,-2.366,5.057,10.755,10.883,13.536,-128.079,3.07,-33.171
0.5697402999999213,28.647,17.024,-44.98,2.057,-14.625,24.956,6.043,20.622,8.015,6.025,15.261,13.169,9.291,8.183,29.751,34.051,3.388,17.279,19.951,26.19,-49.527,10.956,13.762,17.404,19.069,18.134,-152.029,8.702,-25.966
0.5715468999997029,23.495,12.909,-43.398,-5.629,-10.0,22.882,6.037,17.016,3.396,2.945,12.172,12.644,10.306,12.273,23.061,31.968,6.459,17.774,19.931,25.651,-51.527,8.384,10.674,14.825,15.464,11.968,-182.616,5.107,-27.989
0.5848307999999633,19.885,9.822,-41.817,-9.21,-17.162,20.81,7.568,13.925,5.442,4.992,11.135,14.168,12.857,12.261,28.674,28.35,3.891,11.608,15.813,25.626,-60.697,-1.358,2.466,10.2,6.227,7.857,-184.995,-1.046,-30.01
0.5848971000000347,26.525,13.398,-44.849,-7.151,-12.534,23.863,12.171,21.083,12.609,10.11,18.809,21.326,16.943,16.347,36.329,34.981,9.01,19.793,20.408,27.649,-56.026,4.278,2.464,7.116,5.196,9.386,-168.928,-1.557,-28.956
0.5998841000000539,32.647,16.459,-48.391,-0.997,0.286,29.986,10.622,26.697,13.109,14.71,23.401,25.403,18.463,21.454,34.756,41.606,16.685,29.507,24.998,29.671,-47.26,11.959,9.121,2.498,7.24,7.328,-171.321,-2.58,-32.513
0.5999452999999448,32.614,14.905,-48.855,5.664,2.848,33.03,6.513,28.208,16.169,21.356,24.914,26.915,19.469,21.433,33.185,45.151,17.693,23.843,23.436,29.641,-48.238,9.385,12.186,5.057,6.208,5.784,-184.982,-5.139,-38.116
0.6152360999999473,28.995,14.378,-51.88,6.171,12.579,29.411,9.58,27.155,19.739,17.748,24.377,25.351,18.425,19.362,28.541,43.057,13.577,19.72,19.315,26.538,-55.874,6.814,5.514,6.076,5.177,4.241,-182.748,-5.134,-39.615
0.6153002999999444,22.818,12.315,-52.852,4.116,32.034,20.672,16.231,24.566,13.572,9.533,19.229,20.203,16.357,16.269,19.291,38.403,10.49,21.75,16.221,22.413,-63.503,4.246,2.947,-1.614,6.709,-1.911,-175.393,-3.079,-38.038
0.6298464000001331,26.894,14.351,-45.115,9.235,37.637,18.603,23.387,28.128,14.071,15.159,20.747,21.719,19.927,15.228,19.784,44.0,9.967,19.679,20.816,25.464,-60.366,6.291,14.727,3.51,17.461,0.14,-164.971,3.071,-31.34
0.6449580999997124,38.138,25.096,-36.361,15.885,34.526,27.805,28.487,34.76,24.303,24.366,32.509,30.407,24.518,18.287,31.035,54.202,13.031,22.733,29.504,31.074,-49.547,16.019,22.909,18.876,29.739,10.898,-139.191,10.241,-21.575
0.6450219999996989,37.075,27.632,-35.3,17.406,37.053,30.852,22.823,35.75,23.254,24.854,34.526,31.401,22.956,15.707,34.077,51.074,16.092,28.858,30.499,32.068,-47.96,18.052,16.739,19.882,29.197,13.449,-123.17,12.792,-17.967
0.6599584000000505,30.89,21.457,-34.24,16.364,38.552,25.698,20.238,36.738,19.644,23.292,26.807,25.734,20.372,9.543,25.846,44.363,10.953,20.12,26.883,28.962,-52.523,13.935,14.673,15.764,19.946,9.337,-131.756,11.755,-20.511
0.6600196999997934,29.835,20.411,-36.767,11.737,34.415,24.135,26.366,37.214,22.186,18.658,25.756,25.709,20.351,9.534,21.21,42.269,4.794,12.415,24.294,25.347,-54.007,14.946,16.707,13.186,15.315,4.717,-134.698,8.669,-25.101
0.6749896000001172,23.657,17.316,-45.439,6.09,21.061,22.574,22.241,29.492,13.967,9.418,23.168,23.634,15.208,14.135,22.725,39.153,6.326,19.063,21.709,24.809,-55.49,16.468,12.08,7.025,13.763,1.638,-128.416,5.074,-28.15
0.675053299999945,18.511,12.176,-44.882,5.572,6.695,18.453,16.071,23.827,7.293,6.847,15.46,16.95,11.094,15.658,21.678,38.602,8.369,20.068,22.199,26.321,-53.898,16.451,10.018,9.58,17.336,2.661,-136.996,8.655,-23.511
0.6899647000000186,22.078,17.287,-36.128,7.615,-0.996,18.947,23.227,25.853,12.409,8.889,14.933,16.933,14.669,15.642,21.144,38.563,6.824,14.925,24.226,25.783,-50.258,15.923,12.57,13.156,23.978,0.61,-143.007,12.745,-16.827
0.6900234999998247,21.032,18.294,-36.091,7.096,-15.34,20.977,21.667,23.265,8.298,6.831,13.893,15.892,14.655,13.577,23.684,33.401,1.181,12.861,19.079,22.171,-53.794,9.247,7.434,0.848,19.343,-4.002,-131.593,9.146,-19.884
0.7050399999998263,17.937,13.665,-39.129,7.601,-32.743,22.493,9.35,16.582,1.63,2.213,9.269,8.703,7.468,10.49,22.124,28.757,-4.967,8.237,13.424,20.099,-55.277,6.164,3.841,-3.251,12.152,-0.924,-124.802,5.038,-23.451
0.7051078999998026,21.505,18.262,-32.942,9.642,-30.148,26.569,12.927,17.59,6.239,2.211,12.845,9.719,5.411,6.893,23.126,29.241,-4.45,7.204,13.923,22.128,-52.148,10.768,8.448,7.51,15.213,3.688,-129.8,8.107,-16.767
0.7200032000000647,21.483,21.318,-29.836,11.682,-21.921,27.567,22.135,22.696,8.282,6.307,16.419,13.296,8.48,1.251,28.226,26.65,-3.933,8.734,13.909,24.668,-55.682,7.684,8.952,5.966,20.321,3.684,-131.207,9.124,-14.189
0.7200689000001148,19.413,16.686,-32.88,11.158,-22.412,26.515,18.015,22.673,7.249,7.326,13.328,11.233,7.959,1.762,26.661,25.086,-5.466,4.115,14.92,24.131,-55.114,4.602,6.893,2.374,24.912,7.779,-126.978,7.065,-19.81
0.7361127999997734,21.443,17.181,-33.359,8.585,-18.291,28.025,10.312,22.138,10.828,5.781,14.34,10.197,6.926,10.469,23.048,26.598,1.711,6.16,16.954,22.57,-49.936,9.721,10.473,9.544,25.912,7.771,-127.875,7.571,-18.766
0.736175799999728,18.86,17.164,-34.35,10.114,-13.15,25.948,5.179,25.19,9.793,6.288,16.887,11.724,7.944,14.557,24.562,26.572,9.907,17.424,18.474,23.572,-52.447,12.785,11.999,6.973,22.299,5.202,-135.944,7.051,-16.698
0.750095699999747,19.353,17.659,-30.73,17.276,-3.915,24.385,11.321,29.263,11.32,9.868,17.895,14.274,10.497,16.592,25.562,32.693,11.946,22.018,25.116,28.671,-47.272,18.407,16.598,7.478,32.011,11.856,-139.394,7.044,-15.144
0.750160699999924,31.629,28.912,-17.891,22.382,21.704,30.508,25.142,33.332,20.53,13.956,22.488,23.481,16.635,24.772,27.586,43.418,20.643,27.119,34.825,35.815,-31.855,30.172,29.901,24.889,48.373,21.578,-130.546,18.307,-4.883
0.7650829999997768,35.696,33.494,-14.8,21.847,32.441,29.966,23.068,31.249,14.362,14.455,24.002,24.995,16.106,25.26,30.632,46.449,23.696,32.727,34.277,37.316,-33.36,32.191,30.896,25.889,43.201,23.606,-129.903,23.925,-3.341
0.765143099999932,26.439,19.628,-31.691,13.628,13.966,18.665,11.262,20.972,1.54,7.268,16.806,14.211,7.38,14.989,25.479,38.206,9.84,20.911,23.997,29.594,-45.622,22.425,13.447,5.883,27.277,17.435,-145.142,9.556,-21.781
0.7801638999999341,21.289,8.338,-45.492,3.368,-0.393,16.597,15.861,15.316,3.075,1.113,11.666,10.098,3.787,11.387,19.818,27.921,4.195,8.083,15.776,23.417,-46.601,15.743,5.236,-2.32,22.639,7.171,-151.657,-3.261,-30.468
0.7802298999999948,21.78,11.404,-43.397,6.439,-4.491,22.728,19.944,19.911,5.633,4.186,11.654,10.601,6.857,12.401,22.359,25.844,6.752,10.636,16.273,25.955,-45.018,14.702,9.842,1.781,24.153,6.139,-143.309,0.84,-21.728
0.7951815999999781,23.808,18.052,-38.23,15.142,-10.122,25.779,13.776,21.428,4.091,7.255,15.741,8.029,5.313,9.314,27.972,29.404,0.598,10.113,20.355,27.978,-43.948,17.249,12.393,3.316,24.641,15.867,-141.116,6.475,-20.682
0.7952431999997316,27.37,24.182,-35.118,14.102,-9.087,28.827,12.226,20.382,10.235,7.76,20.848,11.094,6.845,7.768,33.067,30.912,-0.427,4.98,21.871,24.364,-37.244,20.818,12.381,4.337,25.641,16.364,-144.049,10.055,-22.198
0.8101019999999153,34.003,27.744,-31.497,14.088,-3.443,32.897,12.726,24.972,14.323,16.462,28.512,22.354,15.035,10.322,34.571,38.053,7.258,10.098,25.436,29.463,-30.547,23.871,19.029,8.431,28.177,13.786,-140.319,20.291,-12.442
0.8101573999997527,42.166,30.278,-28.392,23.295,-1.902,34.913,8.614,31.608,15.845,26.179,38.217,32.066,21.68,16.459,37.611,51.335,8.788,17.26,31.046,38.655,-22.32,32.556,28.231,17.132,35.833,22.481,-134.543,31.029,-2.696
0.8251430000000255,44.173,33.833,-26.826,24.809,-0.363,34.878,5.532,35.162,22.49,24.616,41.253,35.107,22.17,20.541,43.721,54.87,10.828,16.218,30.502,38.104,-15.637,37.135,27.178,22.238,41.433,22.971,-133.896,30.998,-3.718
0.8401625999999851,39.518,32.263,-30.898,20.173,-0.363,32.282,7.063,37.688,22.979,23.055,37.626,34.56,19.074,20.008,41.628,54.303,15.94,16.202,29.447,36.017,-16.134,32.487,21.516,16.58,37.805,13.726,-136.836,23.795,-9.862
0.8402313999999933,40.503,31.206,-34.966,22.202,-0.363,34.299,18.839,39.188,21.932,29.179,39.637,40.673,21.105,24.599,37.488,62.958,20.023,25.408,39.152,44.177,-11.507,39.114,29.691,17.588,36.743,18.836,-136.699,21.722,-12.926
0.8556315000000723,46.098,37.835,-27.758,28.328,3.736,40.925,31.628,38.124,27.545,31.199,45.233,48.317,26.719,30.21,46.159,68.53,24.614,33.579,44.748,49.769,-4.323,49.321,38.883,25.255,43.878,26.502,-133.489,29.897,-7.79
0.8556923000001007,45.539,42.408,-15.435,35.984,0.659,41.908,24.937,40.135,26.493,29.119,44.163,42.633,23.618,21.471,52.261,64.363,23.564,27.398,35.482,44.596,-10.979,38.001,30.135,23.181,43.322,19.303,-130.794,38.576,1.44
0.8702140000000327,43.957,41.341,-8.247,41.584,-8.564,40.842,15.178,46.755,24.93,31.139,43.607,35.931,16.935,14.789,45.549,60.713,18.93,17.124,29.811,40.453,-13.017,28.742,22.42,18.035,40.205,14.673,-132.2,38.025,9.635
0.8702767999998287,42.888,40.787,-4.653,36.931,-11.117,42.85,19.773,47.22,29.003,29.571,42.538,35.895,18.967,21.947,40.38,56.553,17.374,17.619,30.293,38.363,-4.807,35.885,26.496,17.504,44.263,18.756,-136.678,30.815,11.675
0.8841763999998875,34.648,34.086,-8.747,27.673,-17.253,37.684,21.291,35.902,22.826,21.857,33.274,25.613,14.849,17.314,41.364,46.763,10.697,15.553,21.554,34.226,-9.925,30.214,21.859,12.876,41.658,16.689,-141.152,23.612,2.954
0.8858617999999296,26.417,23.806,-19.497,23.034,-31.068,30.474,15.634,29.207,14.607,13.638,24.532,14.316,4.588,3.464,39.274,37.495,1.977,3.242,15.897,29.581,-18.625,16.351,11.591,5.691,28.808,11.549,-138.962,18.465,-7.808
0.8993056999997862,24.341,23.27,-29.211,18.4,-40.259,29.419,14.594,27.64,12.543,7.989,19.897,12.765,-0.027,1.924,32.574,30.285,1.462,-3.422,17.418,22.892,-18.094,17.36,11.067,0.562,24.169,10.0,-139.848,13.324,-13.435
0.8993706999999631,20.218,19.66,-38.916,11.722,-41.755,24.267,7.919,20.44,3.821,3.883,14.241,7.629,-4.125,3.459,25.37,26.156,-0.076,-0.857,11.253,17.746,-23.199,17.855,13.618,-3.025,28.243,7.429,-153.54,5.626,-23.156
0.9143027999998594,16.612,10.419,-39.389,8.636,-36.078,20.144,1.251,20.932,2.793,4.391,15.252,4.548,-5.658,2.431,23.295,30.229,0.949,2.73,10.729,21.314,-26.762,15.788,16.165,1.077,34.362,8.446,-164.657,4.595,-26.719
0.9143672999998671,17.62,15.532,-23.98,10.677,-23.235,24.222,13.545,31.158,15.598,10.534,21.384,17.351,3.569,10.113,26.858,36.858,14.78,11.949,22.501,26.928,-16.489,24.993,23.322,8.76,45.086,13.561,-159.882,11.763,-11.835
0.9292793999998139,17.602,23.201,-16.272,12.716,-24.748,24.71,20.704,28.053,14.557,14.11,20.338,22.969,8.176,16.763,25.806,39.895,19.376,18.085,20.942,26.901,-14.935,27.018,22.274,8.752,44.017,12.01,-154.599,14.313,-4.139
0.9293414999997367,16.56,13.444,-28.551,11.678,-40.093,24.173,6.339,20.34,6.346,9.997,18.781,18.335,3.557,12.648,27.317,41.905,8.598,12.431,13.236,26.362,-20.044,19.306,14.054,5.669,30.653,7.9,-157.006,8.663,-14.893
0.9442925999996987,18.081,7.795,-38.768,9.105,-42.614,26.711,-0.328,23.906,10.438,8.963,20.811,20.366,4.066,10.586,32.926,40.326,8.59,9.857,18.346,27.873,-13.876,19.287,11.991,3.102,30.622,10.453,-161.46,4.044,-20.001
0.9461198999997578,12.939,11.373,-40.779,3.973,-37.448,19.512,3.259,19.783,7.354,7.929,15.155,15.223,5.599,14.674,27.77,33.113,14.729,14.458,15.254,25.283,-15.911,16.706,5.831,-4.073,35.715,6.857,-167.446,0.454,-17.932
0.9593756999997822,2.168,3.165,-41.763,-2.691,-43.559,8.734,-2.892,6.444,-6.998,-2.325,3.869,-1.186,-2.604,10.048,16.471,23.859,7.029,8.296,-0.13,15.524,-29.728,4.906,-8.007,-11.754,23.896,-1.347,-173.426,-4.158,-22.525
0.9594375000001492,-1.42,-2.986,-36.598,-5.25,-50.687,8.725,-9.037,2.851,-11.09,-10.52,-4.844,-7.333,-10.798,1.841,14.405,15.125,0.875,0.091,-1.155,8.336,-31.747,2.852,-7.486,-12.255,12.601,0.191,-170.179,-2.617,-22.502
0.974422599999798,0.118,4.19,-30.414,-0.122,-49.612,6.155,-10.565,4.897,-6.98,-8.46,-5.864,-6.301,-14.373,1.839,15.928,13.061,4.972,5.726,5.506,9.865,-27.105,6.947,1.23,-10.705,18.224,2.24,-168.472,1.485,-16.332
0.9744815999997627,1.655,6.235,-30.895,8.588,-47.001,6.148,-15.165,7.966,-4.412,-6.914,-0.735,-7.832,-13.847,2.862,13.863,18.171,7.017,9.307,3.964,12.929,-26.565,3.867,-2.869,-13.769,22.304,-4.422,-175.988,-4.152,-17.34
0.9898055999997268,7.801,6.741,-30.865,14.727,-38.757,16.901,-11.051,15.131,-0.821,-2.809,3.877,-2.701,-7.685,1.835,15.898,22.764,5.985,3.15,2.935,12.916,-21.415,3.863,-5.428,-14.779,18.696,-4.93,-178.886,-10.808,-21.934
1.0044451999997364,13.941,12.369,-30.834,14.712,-28.472,19.958,-2.331,17.677,5.327,7.952,8.484,3.962,-3.067,6.956,22.03,24.278,8.541,2.634,2.932,13.928,-15.246,8.47,1.75,-14.765,18.677,1.223,-180.756,-10.285,-24.986
1.0045239000000947,10.341,7.746,-39.512,8.55,-29.981,13.79,-6.427,16.635,8.908,9.994,13.598,4.47,-2.551,10.535,25.082,26.303,7.507,4.681,0.88,14.426,-17.28,4.875,1.236,-17.824,15.584,0.197,-188.772,-13.349,-29.059
1.0194180999997116,2.646,-5.069,-48.182,-1.193,-40.197,13.264,-10.007,16.106,8.899,4.348,11.535,7.027,1.037,7.451,21.47,27.813,3.401,2.627,3.441,12.362,-20.337,0.259,-6.962,-19.855,6.347,-3.902,-185.51,-21.532,-35.178
1.0194864000000052,-1.968,-9.675,-52.232,-8.876,-44.767,10.689,-6.923,10.967,5.304,4.856,6.913,8.557,3.086,8.98,12.227,24.199,1.349,3.137,2.413,9.276,-20.317,-1.278,-13.615,-20.348,-0.319,-6.972,-174.566,-27.146,-42.315
1.0344679999998334,-6.577,-11.715,-55.766,-12.966,-45.235,0.945,-13.064,4.808,-0.336,1.265,3.832,0.352,-2.553,9.484,5.043,17.515,-0.702,1.597,-5.274,5.681,-23.37,-7.936,-20.262,-28.524,-2.88,-13.625,-181.563,-30.193,-45.346
1.0345300999997562,-9.132,-11.703,-54.173,-12.44,-51.337,-2.13,-20.223,2.754,-5.971,-8.47,-2.832,-4.772,-6.649,0.765,5.55,15.449,-3.775,-7.627,-7.318,4.65,-27.445,-12.539,-21.266,-34.643,-4.927,-15.66,-189.066,-29.138,-42.227
1.0494613000000754,-5.536,-6.056,-44.385,-6.793,-55.897,2.995,-19.691,1.214,-6.99,-6.412,-5.39,-2.718,-7.154,-2.31,10.668,19.019,-2.234,-9.668,-4.237,8.232,-25.881,-7.404,-16.634,-28.461,-4.409,-10.522,-176.582,-21.424,-36.037
1.0495246000000407,-1.945,-1.951,-38.193,-2.175,-56.865,9.14,-18.134,3.775,-3.909,-0.771,-0.774,-4.252,-8.684,1.791,16.292,20.537,0.842,-6.072,-3.208,10.785,-17.658,-1.249,-13.031,-21.26,1.743,-6.413,-170.77,-17.304,-30.366
1.0644260999997641,-3.48,-1.437,-34.057,0.901,-59.882,10.668,-12.48,5.82,-3.905,-2.819,2.301,-4.76,-7.139,3.326,17.301,19.492,0.329,-5.554,0.381,9.75,-11.493,3.363,-7.895,-18.165,10.45,-2.82,-178.796,-15.75,-25.212
1.0644855000000462,0.11,-1.436,-25.826,7.048,-60.847,11.681,-6.833,5.302,-1.34,4.356,6.397,3.954,-0.471,7.934,19.333,27.157,3.914,1.112,8.578,15.375,-8.407,9.508,1.334,-8.925,18.124,3.33,-174.007,-8.05,-19.552
1.0796163999998498,8.307,2.664,-23.751,10.115,-52.077,18.842,-8.875,12.981,8.908,17.672,15.612,13.172,4.652,14.586,25.461,41.987,9.546,8.283,15.229,24.069,1.847,15.646,6.456,-1.232,24.254,8.962,-161.537,0.155,-11.848
1.0796849999996994,13.422,9.834,-29.875,8.568,-44.34,23.946,-9.378,20.14,10.436,15.605,18.158,15.208,5.16,12.522,25.948,46.043,9.024,4.688,18.8,23.533,6.968,21.266,6.962,-1.743,24.742,13.052,-162.913,3.741,-9.274
1.0945882000000893,14.945,12.898,-28.308,13.682,-40.71,20.849,-9.881,17.047,2.741,10.466,17.627,14.68,3.618,7.386,25.41,41.899,5.941,1.61,16.22,19.923,1.326,23.806,9.516,-0.204,19.594,16.113,-168.897,5.274,-14.388
1.0946622000001298,16.467,11.86,-26.742,17.767,-35.034,17.242,-16.531,13.956,0.176,10.968,16.073,13.129,-0.484,5.842,27.946,41.345,1.325,1.608,11.593,19.903,1.325,19.684,10.531,1.845,18.55,13.023,-169.241,1.683,-16.423
1.1099703999998383,12.865,9.287,-38.499,10.064,-37.048,15.175,-17.027,11.38,-0.849,7.883,9.397,6.455,-3.045,2.762,21.77,37.717,-3.8,-2.492,9.02,15.785,-1.238,14.029,3.349,-4.817,18.019,7.374,-165.485,-7.028,-22.554
1.1100339999998141,8.241,4.667,-40.51,6.981,-46.745,10.549,-9.838,5.733,-2.897,5.314,7.338,3.887,-0.481,1.735,15.601,29.995,-2.771,-4.539,5.937,10.646,-11.995,9.916,-4.852,-10.447,10.829,5.83,-159.685,-11.632,-32.265
1.124610599999869,7.72,4.662,-18.952,14.146,-50.284,10.026,-7.266,7.265,0.18,6.845,8.868,5.933,0.032,6.344,19.171,26.891,2.354,-3.509,2.857,9.611,-13.008,5.295,-7.408,-12.998,5.183,3.263,-163.623,-10.083,-21.987
1.1246793000000253,5.151,10.293,3.096,14.132,-45.623,11.553,-6.747,12.893,3.253,7.351,3.223,1.828,-2.53,6.85,13.517,26.864,1.84,-5.043,1.317,6.527,-8.896,2.216,-6.889,-15.035,10.813,-2.376,-176.78,-2.388,2.113
1.139656400000149,4.121,14.894,14.364,16.167,-27.135,13.079,-1.617,15.441,6.324,14.516,6.294,1.314,3.108,5.306,4.282,30.423,2.35,0.598,5.414,7.545,-9.912,9.386,-0.734,-6.31,20.536,4.799,-176.603,10.934,12.87
1.139723100000083,13.851,24.613,24.083,28.446,1.582,17.164,0.434,22.598,12.978,22.186,18.071,11.047,8.741,7.35,14.011,36.028,5.934,8.794,11.557,13.173,-6.828,19.623,10.537,5.991,22.052,18.626,-167.717,19.12,18.492
1.154670299999907,18.96,29.199,20.985,30.979,4.142,14.585,-5.202,24.113,9.379,13.967,10.88,7.45,-0.49,3.244,19.12,29.845,3.879,0.076,6.422,10.599,-9.895,16.017,10.527,0.35,14.346,13.997,-171.135,14.49,23.085
1.1547373999997035,9.72,17.899,7.132,22.751,-17.379,5.349,-8.271,13.33,-1.389,3.707,-2.963,-5.366,-10.223,-4.956,7.318,17.519,-1.76,-12.732,-0.757,5.977,-21.156,8.317,-2.804,-9.384,12.794,1.175,-173.526,4.742,12.303
1.169618299999911,7.149,12.758,1.489,20.679,-17.362,6.881,-5.189,7.681,-1.9,6.265,2.163,-1.774,-7.139,-5.976,5.774,19.551,-2.271,-8.621,3.855,8.533,-20.111,13.944,-2.801,-6.813,18.417,4.248,-166.18,3.2,3.582
1.184613200000058,11.24,18.38,0.463,21.683,-8.123,8.923,-8.257,7.161,0.151,8.308,8.821,4.888,-5.083,-4.945,11.916,24.142,-1.756,-8.1,1.289,8.012,-15.48,17.004,3.862,-5.782,13.788,10.391,-165.502,5.758,8.701
1.1846715000001495,6.106,13.751,-3.636,20.125,-20.41,4.816,-20.544,0.494,-5.997,5.738,3.177,0.784,-8.151,-8.014,8.83,20.02,-2.779,-18.338,-4.86,5.442,-18.026,11.351,-2.29,-10.899,6.089,6.795,-168.922,5.24,7.668
1.199712499999805,7.124,14.762,0.467,23.691,-22.439,11.471,-22.061,1.006,-3.942,8.806,5.735,7.444,-3.532,-3.395,11.383,28.197,2.347,-13.709,7.441,15.171,-13.909,19.025,-0.238,-6.79,15.817,11.911,-159.019,11.383,8.172
1.201421499999924,21.974,29.092,7.126,31.864,-0.387,22.73,-7.694,11.251,5.796,19.043,22.636,23.83,10.303,9.928,23.154,48.148,15.152,3.723,20.753,24.377,-4.674,34.375,15.644,8.586,29.121,26.244,-147.077,24.691,15.336
1.2147117999998045,28.1,30.087,4.557,37.98,6.273,26.806,3.584,14.826,11.426,27.221,32.859,28.417,17.465,18.115,32.353,54.76,25.383,13.454,22.269,25.89,-3.645,38.951,22.288,19.336,32.166,29.804,-146.93,28.253,14.297
1.2147761999999602,22.948,24.934,1.991,35.38,-5.004,33.951,4.093,15.836,15.513,27.706,28.728,27.364,14.886,20.146,32.833,49.582,26.382,19.076,27.882,27.401,-7.739,39.425,20.217,14.194,34.695,24.651,-154.468,24.638,14.795
1.230824499999926,18.315,30.032,3.014,28.172,-15.757,37.504,5.114,19.918,17.034,25.629,20.502,22.726,12.822,16.54,24.603,43.897,23.794,19.056,29.391,26.349,-15.929,37.848,18.147,3.421,33.124,18.478,-174.294,26.151,17.854
1.2308889000000818,13.173,26.416,2.499,24.558,-24.963,31.318,10.744,19.898,14.968,22.017,15.359,11.945,10.248,7.814,20.992,34.632,17.11,12.89,19.116,21.712,-25.646,29.101,11.469,1.881,26.431,11.288,-203.833,21.002,7.59
1.2447503999997025,7.525,14.094,-1.602,20.435,-33.648,30.262,14.319,14.755,13.416,13.798,7.146,2.199,1.016,3.196,24.045,23.327,7.36,12.877,15.511,19.128,-29.719,23.437,6.334,0.342,24.355,6.153,-220.023,9.197,-2.152
1.2448151999997208,2.394,11.519,-10.31,12.218,-45.909,30.232,13.793,7.568,8.28,6.612,-3.107,-5.488,-5.133,3.192,15.824,15.106,-3.919,11.839,14.983,15.011,-35.837,19.315,0.693,-9.905,19.207,2.561,-218.266,4.577,-1.637
1.25969780000014,1.367,13.044,-16.447,10.156,-55.085,25.591,11.73,3.975,3.661,7.118,-5.153,-10.093,-3.078,-1.934,6.587,12.017,-11.087,2.094,9.332,11.41,-39.9,11.611,-8.53,-14.505,9.967,-2.565,-215.486,4.573,-5.734
1.2615606999997908,11.1,16.617,-12.845,13.22,-45.296,29.152,14.279,9.606,10.317,11.722,3.561,-3.935,-0.514,-3.981,15.802,16.104,-8.514,1.067,12.909,16.009,-32.175,15.185,-4.423,-10.905,11.494,-0.513,-211.685,5.081,-5.216
1.274744400000145,19.798,21.211,-10.783,12.695,-31.418,32.196,16.827,12.67,14.405,14.784,10.218,3.753,-0.513,2.171,22.446,20.186,-3.383,9.775,18.019,20.091,-28.045,23.367,3.779,-10.894,15.068,3.586,-204.813,10.199,1.449
1.2748054999997294,14.143,19.141,-17.432,8.071,-32.924,26.017,9.125,2.924,5.681,14.769,5.084,1.7,1.024,-0.905,13.202,16.58,-7.478,8.741,11.854,15.461,-35.189,15.659,-4.934,-13.445,9.93,-0.004,-202.559,10.701,-0.602
1.2897911000000022,14.641,19.634,-20.488,4.989,-30.329,25.478,-4.204,-1.69,6.188,16.803,4.055,3.748,4.609,-3.978,13.701,18.613,-8.495,11.806,13.891,16.982,-32.592,12.57,-6.979,-8.82,15.043,1.533,-184.938,12.739,-1.113
1.2898538999997982,33.069,33.959,-9.709,14.206,-10.319,34.162,-3.687,10.095,19.502,29.082,21.469,19.113,14.851,9.858,29.056,37.037,7.395,28.7,31.296,30.797,-16.678,36.123,14.033,6.558,32.959,17.926,-151.965,30.657,13.745
1.3047990000000027,48.405,43.659,6.182,30.073,6.085,41.3,7.587,23.917,29.216,43.91,38.866,33.439,26.619,22.143,38.761,52.881,20.195,39.942,43.56,42.037,-7.44,57.092,30.925,22.433,44.709,31.228,-133.883,46.508,25.514
1.304860700000063,45.283,36.955,7.713,33.117,10.177,43.308,13.727,26.967,28.162,44.378,37.803,32.893,23.006,15.974,35.136,52.316,14.54,37.341,41.979,39.946,-8.457,51.912,26.283,18.312,43.64,28.635,-149.118,39.802,20.878
1.3197971999998117,32.43,27.185,-1.004,25.911,8.63,34.555,11.152,19.255,17.376,31.526,25.469,19.028,10.688,9.298,24.343,38.432,4.791,29.619,32.203,28.635,-19.719,37.515,9.351,0.875,26.69,19.385,-154.604,23.368,9.074
1.3215291999999863,22.664,23.059,-3.053,21.275,-0.088,22.738,6.53,9.502,11.211,22.273,13.149,6.713,6.579,9.801,17.658,23.024,1.713,21.392,19.876,18.873,-33.02,29.281,-3.978,-6.298,9.245,10.656,-149.327,13.098,0.355
1.3348880999997164,19.567,20.474,-4.586,13.056,-9.821,20.666,10.11,9.493,16.322,20.714,6.475,4.657,5.548,5.18,17.128,17.366,-0.338,16.76,13.708,18.342,-36.573,23.104,-7.048,-9.366,7.699,3.985,-158.399,9.499,-4.768
1.3349560999999994,14.425,15.331,-14.316,5.871,-13.398,20.133,15.223,8.971,14.257,18.644,3.907,2.091,1.444,-4.047,12.5,14.787,-4.949,14.182,11.133,15.762,-38.073,16.42,-12.677,-20.627,5.642,-1.142,-166.95,6.416,-11.936
1.3499435999997331,9.287,13.779,-19.424,10.988,-15.946,19.088,9.06,0.253,5.533,17.088,1.342,-3.034,1.955,-5.067,8.39,11.186,-7.505,8.532,5.999,9.086,-43.158,13.33,-18.299,-24.705,-6.147,-4.727,-160.635,1.799,-15.51
1.350007000000005,14.913,17.863,-16.843,14.051,-12.344,24.704,2.903,3.839,12.188,21.17,4.927,3.117,7.588,1.086,12.992,15.785,-1.862,4.938,7.017,12.151,-41.578,14.854,-14.695,-19.557,-6.141,-5.234,-154.839,5.895,-9.859
1.3652987000000394,24.12,21.432,-14.265,14.037,-0.036,25.704,8.023,16.643,16.274,24.735,14.143,12.335,8.093,5.695,16.053,23.454,5.824,11.593,12.646,16.237,-36.413,18.425,-11.094,-20.562,1.55,-2.155,-157.246,15.623,-3.701
1.3653595000000678,25.633,22.435,-9.128,19.146,7.136,22.093,9.04,14.064,6.012,24.198,17.715,10.274,7.06,4.665,15.524,25.992,4.281,17.729,15.195,12.635,-32.791,24.554,-7.497,-16.955,3.085,1.945,-155.551,18.169,-3.185
1.3799023999999918,27.656,25.998,-6.557,22.713,5.592,24.12,0.834,7.903,4.469,23.661,17.185,8.214,8.078,5.173,19.607,29.04,0.179,19.76,18.253,16.208,-24.561,31.19,6.343,-3.106,11.279,8.091,-146.687,19.688,-3.694
1.3949548000000505,30.702,30.071,-10.137,20.641,10.71,24.608,-5.315,10.969,9.075,24.15,17.681,13.841,6.02,8.241,19.588,32.085,7.863,24.864,20.797,22.852,-20.438,35.257,13.509,3.557,24.076,13.719,-141.417,26.328,0.92
1.3950191999997514,27.598,33.115,-9.614,21.645,21.97,18.436,-7.871,11.47,8.041,27.2,17.663,15.877,8.576,9.258,15.982,33.59,16.052,26.376,20.264,19.243,-28.615,37.271,10.422,4.066,25.076,15.242,-145.886,32.45,9.628
1.410014499999761,29.107,39.229,-3.969,22.648,30.145,17.905,1.358,14.02,14.181,35.369,22.768,19.447,19.326,10.273,20.577,39.704,11.425,24.3,24.854,19.736,-26.537,41.845,20.145,13.283,26.076,19.837,-147.79,37.54,14.742
1.4100737999997364,35.738,39.19,-7.039,20.576,31.652,20.448,18.263,20.666,22.364,38.92,29.918,29.161,21.868,14.361,27.216,44.787,9.877,31.448,33.026,26.889,-13.703,48.975,29.347,19.418,32.71,26.99,-144.056,41.601,12.678
1.4250200999999834,32.116,29.417,-17.791,15.433,30.083,15.817,16.196,17.059,17.218,31.197,24.253,27.083,15.186,15.371,22.066,41.156,16.015,33.978,30.432,24.812,-12.152,49.951,20.096,14.787,28.066,22.352,-143.912,35.924,5.493
1.4250828999997793,22.863,24.777,-18.285,12.343,33.127,12.728,4.909,16.017,13.615,26.555,15.007,14.248,11.585,9.208,12.31,36.504,13.95,20.624,22.717,19.152,-18.287,43.241,14.44,8.113,18.817,13.62,-141.718,27.691,0.364
1.4399757000001046,23.864,30.387,-8.021,22.065,41.291,16.813,17.199,31.371,20.774,31.139,20.115,16.795,14.647,8.687,12.298,36.468,10.862,18.554,24.231,22.207,-19.294,40.636,20.573,6.055,19.31,17.705,-132.355,28.688,3.438
1.440032799999699,28.964,33.943,-4.939,33.826,42.786,21.92,34.088,42.098,25.364,34.182,25.73,26.512,18.731,17.9,17.921,42.067,19.56,29.806,26.768,23.722,-21.324,42.645,18.504,7.074,21.34,18.2,-133.76,30.709,8.045
1.4550507999997535,24.324,28.274,-9.545,27.132,34.547,23.435,30.98,36.933,24.314,30.049,21.094,20.851,18.712,16.857,16.878,39.463,18.004,25.678,18.032,16.526,-22.839,34.917,9.776,1.431,17.732,4.349,-144.897,26.067,5.476
1.455114500000036,16.615,18.512,-8.51,16.859,26.827,19.313,28.388,30.748,22.24,27.97,15.949,13.145,14.083,4.033,10.201,27.128,6.715,14.894,10.842,11.386,-20.767,24.636,5.155,-9.841,11.055,-0.266,-144.24,16.82,-2.727
1.4700376999999207,17.111,13.882,-5.94,20.428,28.337,15.707,32.97,32.766,21.706,32.552,16.446,15.181,13.556,3.004,10.191,26.589,10.807,18.465,15.442,13.424,-21.259,29.735,3.101,-13.417,5.921,7.931,-135.898,7.581,-9.384
1.4701000999998541,17.093,14.893,-11.57,22.457,34.457,22.351,29.351,35.808,20.659,32.008,15.917,14.654,12.518,9.149,14.792,35.272,13.87,23.058,17.475,15.972,-20.725,36.365,6.172,-9.305,7.964,6.899,-135.762,5.012,-15.522
1.4853988999998364,11.441,14.878,-10.534,17.311,37.496,54.092,22.662,32.186,15.516,25.316,12.827,13.102,6.87,4.016,12.728,30.113,3.097,17.399,14.896,14.419,-17.118,34.792,12.313,-7.759,14.104,3.306,-142.287,8.081,-10.896
1.4854554999997163,10.917,14.863,4.846,22.417,39.508,86.826,21.614,29.08,13.451,25.29,12.814,18.212,11.986,4.012,8.104,25.472,4.631,16.357,20.517,13.892,-18.126,37.831,14.862,-2.116,18.188,12.012,-147.268,12.172,6.533
1.500078399999893,17.566,20.484,10.477,30.079,46.128,94.936,22.105,33.661,19.585,30.9,17.925,22.292,21.708,13.23,11.17,36.205,14.873,24.025,28.181,19.002,-16.058,44.453,15.36,5.058,20.731,16.61,-147.633,18.307,10.625
1.5001404999998158,19.086,21.488,0.22,23.389,47.619,62.566,24.645,33.628,20.078,29.332,20.981,20.733,18.613,11.68,14.745,38.218,12.296,25.026,25.591,22.569,-10.407,43.384,15.857,1.467,20.198,11.983,-146.46,18.801,-0.656
1.5151350000001003,17.53,14.807,-7.977,15.169,43.985,46.109,27.181,28.983,14.422,26.742,18.398,20.712,13.983,5.52,8.582,32.545,12.796,19.878,20.443,22.034,-8.86,41.291,15.329,-3.145,15.567,13.508,-146.826,16.221,0.369
1.515211200000067,19.049,15.304,-12.58,19.764,45.478,69.629,22.543,33.053,17.482,29.789,17.867,23.253,18.068,11.15,3.963,37.123,16.882,22.42,22.471,20.987,-5.777,40.738,13.776,-0.068,14.015,17.593,-145.655,18.766,2.418
1.5301510999997845,20.055,21.949,-15.129,23.331,48.507,69.047,16.886,35.069,17.977,28.222,17.849,23.742,18.562,16.262,12.156,39.647,9.693,24.959,22.449,20.454,-2.697,37.623,10.177,-1.605,11.952,13.989,-144.484,20.796,-4.757
1.530217999999877,18.498,21.415,-11.528,17.672,46.409,50.535,16.356,25.3,7.712,19.997,13.733,16.546,10.859,10.611,11.119,30.898,4.56,18.786,15.254,18.384,-9.867,31.95,4.019,-7.751,6.817,8.34,-152.025,19.751,-2.191
1.545148899999731,14.381,17.807,-11.516,12.019,41.752,57.145,10.705,20.152,4.631,14.854,7.572,7.308,5.725,4.452,-3.749,21.646,9.166,13.644,9.604,14.78,-15.492,25.77,1.965,-8.768,7.322,5.77,-157.508,18.707,3.447
1.5452062999997906,10.268,17.789,-18.165,9.446,37.099,64.26,3.522,22.693,9.237,15.351,5.515,8.325,6.231,4.448,-3.233,19.575,8.132,14.143,11.643,11.691,-12.403,25.745,6.062,-7.734,10.389,5.764,-151.203,14.59,-2.704
1.56013589999975,9.233,17.771,-18.146,9.948,34.501,57.536,9.153,27.281,12.814,17.897,7.046,13.952,6.738,4.443,8.554,22.117,5.05,13.104,12.656,10.655,-11.878,30.33,9.642,-7.727,11.915,5.758,-147.465,14.575,-1.677
1.5601929999997992,10.248,18.266,-11.981,16.086,36.003,61.576,20.927,33.401,16.387,16.855,6.527,9.328,4.682,1.877,3.422,19.021,3.508,10.529,8.033,9.619,-10.33,28.762,8.095,-7.719,13.44,4.216,-156.027,18.147,0.886
1.575295399999959,8.701,18.248,-9.407,18.119,39.553,64.076,22.956,29.782,14.322,12.74,2.934,1.122,4.677,1.363,-5.291,11.318,-3.667,10.007,5.463,7.048,-6.221,23.61,2.964,-7.711,8.816,4.212,-161.506,12.493,-5.774
1.589253799999824,5.619,17.205,-6.836,16.052,44.125,55.815,22.933,21.043,7.647,11.19,0.37,0.608,5.697,4.948,-1.699,10.794,-5.201,11.533,8.019,4.992,-10.825,23.075,-0.113,-6.167,0.61,7.281,-159.808,9.407,-4.232
1.5893175999999585,4.076,15.651,-5.805,16.548,45.617,54.735,18.811,25.12,5.59,9.13,-1.68,0.095,2.105,4.943,-1.697,11.295,4.026,16.133,8.524,2.938,-16.45,23.564,-0.112,-8.722,0.61,3.688,-161.185,12.983,0.383
1.6046191999998882,4.072,11.537,-9.385,19.093,41.986,55.705,9.571,29.706,3.536,6.559,-2.19,-0.93,0.054,2.377,-6.307,7.698,10.17,16.629,6.978,3.96,-11.823,22.516,-1.649,-15.886,2.658,-2.464,-166.147,6.31,-8.839
1.6046768999999586,5.093,12.037,-10.4,24.197,49.116,53.6,16.734,24.041,1.995,10.138,2.423,3.17,3.127,5.96,-7.325,13.838,8.623,14.563,6.459,8.566,-8.737,21.468,-4.721,-17.407,-0.931,-0.924,-168.03,2.206,-10.879
1.6192525000001297,4.575,17.148,-7.828,24.173,58.288,55.083,30.549,21.968,5.067,11.153,4.469,4.191,4.149,6.467,-6.293,15.873,3.491,13.524,3.891,4.459,-9.753,16.324,-7.278,-17.901,-5.028,0.101,-164.788,9.888,-2.671
1.6193112999999357,-0.553,12.008,-10.894,8.78,45.935,50.93,18.223,22.458,1.476,5.506,-4.244,-4.01,-1.491,-1.224,-7.311,2.025,-4.197,6.85,-5.847,-4.254,-8.719,9.648,-13.419,-26.081,-9.634,-7.071,-164.623,6.804,-9.841
1.6343409999999494,-5.675,6.873,-11.396,5.697,34.106,44.219,3.348,22.948,-2.112,3.964,-8.851,-7.592,-3.026,-2.248,-10.89,-2.075,-7.267,2.233,-8.915,-3.738,-10.247,8.613,-15.454,-29.641,-13.21,-8.089,-168.557,1.674,-14.954
1.642997099999775,2.015,19.674,0.399,26.696,47.391,50.322,18.202,32.146,6.6,10.62,1.404,0.613,4.149,5.439,-8.83,10.222,0.937,9.403,1.34,2.414,-5.113,18.851,-4.168,-16.803,-6.025,1.653,-163.266,12.944,0.43
1.6551564999999755,13.796,27.851,12.181,31.792,61.689,56.932,28.43,37.237,11.716,14.708,9.087,7.784,7.731,5.946,0.913,14.823,7.084,12.98,7.999,5.485,6.162,29.59,3.521,-6.54,2.178,7.799,-152.856,22.152,8.627
1.6552286000001004,11.221,19.626,8.071,17.928,57.016,50.727,15.594,30.54,6.069,11.619,3.443,3.678,3.625,-0.72,-0.625,11.734,0.417,8.356,2.868,3.43,3.595,26.487,-4.168,-11.145,-4.484,5.23,-155.265,17.007,-0.091
1.6644301999999698,4.037,18.582,-1.159,20.984,50.299,46.066,12.504,26.923,4.526,8.022,-0.147,-0.424,1.572,-1.744,-11.383,12.747,-4.706,10.397,2.353,-0.672,2.054,20.313,-6.213,-15.232,-11.652,4.2,-161.257,11.867,-2.14
1.664494999999988,8.644,22.662,1.404,26.598,50.249,52.167,19.664,29.458,6.058,10.063,5.489,5.212,4.132,0.819,-4.712,16.833,-0.091,14.485,10.547,3.428,15.884,29.002,3.527,-8.557,-1.906,7.782,-155.973,14.416,2.985
1.679381800000101,9.66,19.565,7.038,19.912,51.736,56.214,14.521,30.965,5.028,12.614,8.557,10.33,4.64,4.917,5.539,19.377,4.008,12.933,13.61,11.109,17.918,35.12,2.499,-5.474,5.268,7.774,-154.792,17.988,1.445
1.6794426000001295,1.454,18.521,1.908,21.429,50.659,50.01,3.236,30.422,2.973,6.966,2.401,4.684,3.099,6.961,-3.175,15.259,1.442,10.871,8.986,5.975,9.191,25.864,-6.213,-9.567,-7.545,2.131,-161.81,12.847,-4.704
1.694412899999861,0.428,21.064,-1.168,29.092,50.096,46.374,4.77,27.83,3.483,4.91,-0.675,1.093,2.071,1.319,-9.832,10.121,-1.121,6.762,4.879,-1.204,14.305,23.789,-2.62,-6.996,-13.685,0.592,-159.599,11.297,-3.675
1.6960739999999532,4.013,20.531,4.469,25.477,55.169,49.913,15.011,27.802,9.115,11.053,3.936,5.19,0.532,-2.781,-5.212,14.209,-0.607,3.681,4.874,1.359,16.339,29.913,2.506,-0.841,0.161,0.591,-156.878,22.045,2.476
1.7094311000000744,-3.675,15.387,-5.27,14.693,53.577,41.667,14.484,25.213,6.032,6.943,1.371,1.087,-2.542,-1.753,-13.403,12.658,-1.631,2.653,-0.254,-4.79,6.077,23.735,-5.182,-6.476,-0.352,-7.606,-167.992,17.924,-7.26
1.7094936999997117,-11.356,6.15,-31.904,1.871,40.204,29.33,2.174,11.355,-8.319,-6.384,-11.438,-10.185,-7.663,-3.289,-23.124,-2.724,-5.728,-2.985,-11.012,-15.544,1.972,11.928,-12.861,-18.765,-18.795,-11.185,-175.508,0.488,-29.282
1.7245004999999765,-8.783,6.144,-36.483,-1.718,36.065,36.985,2.684,6.733,-7.286,-6.89,-15.525,-11.712,-8.68,-3.285,-17.465,-7.332,-6.235,-2.982,-12.026,-13.479,3.507,11.404,-10.799,-18.234,-16.214,-0.927,-166.624,4.586,-25.154
1.7405702000000929,-8.775,13.823,-12.368,9.043,41.152,44.12,16.001,22.096,3.992,-1.247,-11.411,-11.188,-8.159,-0.208,-12.325,-2.201,-0.593,2.656,-6.379,-9.879,4.016,14.979,-6.69,-9.506,-2.878,1.123,-162.358,12.778,-2.075
1.7406345999997939,-14.914,7.149,-15.43,12.62,36.5,31.781,12.911,24.123,-5.234,-7.394,-13.449,-18.861,-11.737,-4.306,-17.436,-7.322,-1.617,-2.982,-8.934,-14.992,5.549,13.939,-7.195,-13.595,-10.56,-10.661,-171.418,-3.116,-12.319
1.7545669000000998,-17.46,-7.715,-47.69,-1.225,32.365,21.503,3.165,9.242,-16.499,-14.559,-17.022,-19.867,-14.799,-8.913,-18.955,-11.413,-8.788,-10.151,-10.974,-13.953,6.056,12.388,-7.188,-22.291,-16.697,-12.7,-171.759,-14.384,-44.582
1.7546333000000232,-15.394,-4.121,-64.036,-10.445,41.042,26.604,8.797,9.745,-5.724,-10.446,-15.468,-13.187,-11.198,-4.805,-17.399,-3.717,-5.193,-3.993,-6.865,-9.84,9.636,14.937,-5.132,-16.633,-6.946,-2.953,-159.804,-8.222,-47.099
1.7700239000000693,-13.841,5.617,-48.09,-6.337,46.636,31.188,11.35,18.445,0.429,-4.288,-13.916,-11.637,-8.113,-2.239,-14.308,-2.689,3.009,3.183,-6.346,-12.904,14.237,17.996,-4.102,-9.444,-7.964,-1.926,-156.57,-7.701,-35.269
1.7701207999998587,-11.266,2.537,-47.018,-3.769,43.003,30.133,0.58,16.889,-3.67,-3.771,-10.316,-9.064,-7.08,0.837,-8.658,-4.735,3.518,5.229,-5.827,-11.355,12.174,17.466,-4.098,-15.583,-16.153,-5.51,-163.586,-10.768,-42.918
1.7846338999997897,-10.742,-1.052,-55.168,-4.277,42.96,28.566,-3.007,14.311,-1.104,-6.329,-8.256,-3.419,-5.024,6.984,-7.625,0.392,2.49,5.736,-4.796,-7.757,12.161,17.961,-5.631,-17.104,-11.526,-3.968,-163.422,-7.171,-49.023
1.7846951999999874,-14.318,-3.1,-49.477,-5.81,39.844,28.025,3.656,10.71,-2.64,-9.396,-14.908,-8.539,-6.043,2.366,-12.228,-2.682,3.0,-1.954,-10.427,-13.385,16.76,17.431,-10.236,-12.988,-8.953,-3.964,-156.086,-6.651,-41.802
1.7996032000000923,-13.279,-9.244,-49.428,-10.415,35.193,29.021,6.726,4.552,-8.785,-9.899,-16.43,-14.166,-8.087,-4.296,-12.216,-9.851,-0.077,-8.1,-14.003,-16.445,14.694,12.29,-12.275,-20.148,-17.141,-7.546,-152.344,-10.743,-43.297
1.799664699999994,-7.63,-7.186,-55.014,-9.892,39.769,29.505,8.256,7.109,-4.166,-5.278,-8.216,-7.492,-4.492,-0.194,-7.593,-2.157,0.436,-3.481,-8.353,-9.256,16.729,12.278,-9.189,-23.201,-16.099,-7.026,-153.217,-8.171,-46.84
1.814538199999788,-8.135,0.506,-43.688,-0.661,47.413,30.5,9.785,15.811,0.449,-1.175,-6.159,-1.849,-3.463,0.831,-9.122,6.042,1.46,0.109,-5.271,-8.223,25.933,19.438,-4.056,-12.42,-10.448,-1.896,-152.551,1.059,-37.571
1.8145936000000802,-11.713,1.018,-34.935,4.975,49.415,30.982,5.677,17.844,-1.6,-3.735,-10.764,-5.946,-7.558,-3.78,-12.187,-1.136,-1.616,-0.916,-7.315,-13.337,26.42,19.418,-4.052,-9.846,-16.585,2.205,-149.837,4.132,-32.923
1.829643600000054,-11.189,-0.008,-37.461,2.921,51.927,25.827,2.085,13.216,-3.648,-10.391,-12.802,-12.087,-7.551,-2.24,-9.613,-8.82,-0.589,-1.428,-10.894,-14.861,20.246,12.227,-11.221,-16.496,-22.716,-0.359,-152.249,-2.532,-40.063
1.8297070999997231,-15.788,-0.008,-35.887,-1.18,50.339,18.117,3.108,3.981,-10.304,-16.016,-18.937,-18.735,-10.617,-1.725,-12.165,-11.885,0.948,-4.5,-14.982,-18.432,19.201,8.628,-17.357,-20.578,-24.743,-10.093,-158.244,-11.239,-43.096
1.8446711000001415,-26.019,-9.229,-37.9,-5.79,42.604,14.0,0.543,-2.171,-16.442,-19.586,-25.578,-23.327,-17.266,-4.285,-22.399,-17.508,-3.151,-6.545,-18.553,-24.562,16.62,1.447,-21.438,-29.779,-34.452,-18.792,-160.135,-21.986,-46.127
1.8447351999998318,-30.603,-18.954,-48.109,-12.956,40.512,14.499,-6.118,-4.218,-11.815,-19.055,-22.479,-19.718,-13.151,2.379,-23.401,-17.491,2.487,1.659,-19.559,-25.049,16.603,-2.653,-25.003,-36.921,-42.102,-20.822,-156.901,-29.137,-54.278
1.8600476999999955,-27.499,-17.398,-49.597,-16.53,44.57,14.997,-7.648,-7.287,-8.729,-14.425,-18.358,-12.526,-6.99,9.037,-18.767,-11.326,14.268,6.268,-13.904,-22.463,23.247,5.547,-21.904,-29.2,-38.474,-17.215,-159.818,-22.447,-55.76
1.8601088999998865,-22.348,-13.795,-44.425,-13.439,47.087,15.494,-6.616,-7.792,-10.257,-12.361,-18.339,-8.415,-9.544,4.929,-21.822,-8.753,14.254,4.212,-6.205,-18.854,28.347,11.177,-13.685,-22.511,-31.263,-10.538,-177.589,-13.716,-50.069
1.874711599999955,-17.715,-8.658,-36.183,-5.229,54.212,20.601,-7.122,1.949,-6.661,-11.836,-11.661,-3.796,-7.486,4.925,-20.264,-3.621,12.19,6.77,-2.613,-11.151,35.491,13.215,-10.598,-20.951,-24.059,-4.38,-196.879,-10.116,-43.872
1.8747788000000583,-13.087,2.622,-26.413,6.047,63.379,26.216,-5.578,12.193,-1.531,-5.677,-4.989,0.307,-1.33,10.043,-7.948,4.067,16.789,10.349,-4.147,-7.553,48.775,20.374,-10.587,-16.319,-19.424,-2.326,-200.268,-3.446,-35.118
1.889708100000007,-12.049,6.205,-30.998,11.164,63.828,22.604,-1.986,9.107,-2.042,-3.622,-10.107,-2.767,-3.378,4.397,-6.403,-0.035,8.575,3.166,-7.729,-13.694,49.751,17.28,-13.138,-15.791,-27.09,-4.373,-198.019,-2.418,-35.083
1.889770100000078,-16.136,-1.486,-38.651,5.005,57.104,16.434,2.627,0.901,-6.138,-11.303,-16.757,-9.937,-9.01,-2.779,-17.667,-10.281,-3.217,-3.497,-13.357,-18.803,41.504,5.992,-21.322,-22.947,-36.796,-9.492,-205.505,-10.1,-42.221
1.9047373999997035,-15.607,-2.509,-31.953,1.414,54.486,17.954,10.309,5.511,-4.083,-12.829,-14.179,-9.415,-8.489,0.81,-19.699,-7.709,4.471,-0.419,-12.319,-17.247,49.147,9.06,-21.813,-21.9,-32.661,-9.995,-210.423,-7.016,-37.055
1.9048001999999542,-13.03,1.08,-30.896,3.462,55.456,19.985,11.323,13.19,-0.493,-7.693,-11.091,-5.819,-4.894,0.296,-12.507,-3.603,8.053,-0.419,-6.671,-16.205,59.857,15.198,-12.569,-18.804,-30.067,-5.374,-201.503,-3.935,-31.383
1.9197469999999157,-17.115,-3.02,-40.599,-0.128,51.302,16.891,0.041,6.005,-4.591,-7.173,-13.641,-8.887,-5.402,-8.413,-14.031,-9.235,-3.738,-7.591,-9.738,-19.263,57.235,8.011,-14.606,-24.933,-39.258,-8.442,-193.617,-13.153,-43.135
1.9347443000001476,-17.098,-6.603,-36.46,0.385,47.664,20.461,-2.008,1.9,-4.586,-5.116,-10.554,-7.341,-5.396,-5.843,-17.091,-6.664,0.876,-6.046,-11.778,-16.17,61.789,8.003,-19.202,-24.396,-38.194,-11.508,-183.69,-14.676,-46.165
1.934802799999943,-9.397,0.576,-28.227,9.606,51.203,28.637,7.215,14.194,3.103,3.086,-0.809,3.424,0.757,4.409,-6.828,3.589,11.634,4.718,-1.52,-7.957,78.633,18.753,-8.937,-12.588,-25.349,-3.299,-154.305,-7.489,-33.311
1.9497920999997405,-9.387,0.063,-36.908,4.473,48.078,25.535,1.06,12.13,-0.486,1.033,-1.321,1.884,0.244,2.355,0.351,1.023,0.864,3.177,-2.031,-11.023,81.116,20.271,-3.805,-9.502,-25.836,-0.734,-132.633,-10.044,-35.84
1.9516312999999172,-15.525,-13.257,-46.092,-12.437,36.759,15.263,-8.162,-2.226,-9.707,-8.189,-9.517,-6.827,-7.441,-2.258,-12.457,-5.638,-5.285,-6.048,-12.787,-18.184,76.424,14.616,-10.973,-14.103,-29.908,-5.857,-146.845,-14.644,-48.099
1.9648329999999987,-15.51,-13.243,-40.411,-8.839,42.87,12.686,2.604,2.899,-6.111,-8.181,-9.507,-1.185,-3.335,3.892,-20.641,-1.021,5.991,-1.431,-8.676,-12.53,81.983,14.089,-7.889,-9.478,-21.681,-2.265,-160.018,-11.043,-41.903
1.9648990000000595,-14.982,-4.009,-33.198,2.441,55.635,14.723,9.774,10.581,-4.056,-5.611,-8.473,3.427,1.791,6.45,-12.424,0.004,3.936,2.156,-3.544,-10.469,88.049,13.562,-5.319,-5.883,-19.61,-0.213,-151.662,-8.471,-32.64
1.9802537999999004,-17.016,-5.542,-31.628,-0.123,50.456,13.683,-1.507,2.886,-9.687,-8.679,-12.051,-4.773,-7.945,1.32,-11.387,-2.557,-2.216,-5.531,-9.176,-19.167,91.035,12.012,-11.974,-9.463,-25.226,-5.848,-149.973,-7.95,-36.706
1.9803201999998237,-13.925,-3.999,-28.01,3.976,48.869,16.744,-7.653,2.883,-8.141,-9.695,-9.989,-3.744,-8.449,2.856,-17.523,2.056,6.496,-0.402,-7.63,-16.074,100.165,15.586,-7.351,-6.892,-20.078,-1.744,-152.897,-5.893,-36.669
1.9948915999998462,-12.887,0.616,-23.371,10.632,57.017,18.776,-1.497,6.978,-7.108,-10.71,-8.955,-1.179,-1.268,2.853,-14.432,1.03,8.539,6.771,-5.061,-11.96,103.139,15.058,-0.171,-2.786,-15.959,0.819,-149.67,-9.473,-33.559
1.9949640999998337,-21.583,-10.143,-27.959,-2.699,50.3,9.536,3.627,-0.201,-14.273,-17.36,-17.143,-10.399,-9.464,-3.298,-16.466,-10.242,2.895,-3.482,-12.228,-22.706,95.863,5.822,-9.393,-7.394,-21.579,-6.866,-160.279,-18.173,-40.185
2.009837999999945,-24.636,-14.744,-28.443,-9.869,44.614,7.989,4.648,1.336,-9.648,-14.268,-16.613,-8.852,-10.991,3.366,-22.085,-9.207,12.626,-4.503,-9.142,-22.684,98.329,5.303,-9.383,-6.362,-15.41,-6.347,-165.242,-16.618,-39.12
2.011549500000001,-15.389,-3.459,-15.607,8.072,52.254,19.764,4.644,17.216,3.682,0.09,-4.814,3.965,3.877,15.145,-13.354,4.122,24.908,8.821,1.626,-10.366,115.137,15.032,5.483,2.353,-4.123,-2.242,-148.683,-4.818,-24.736
2.024928700000146,-10.763,-0.894,-12.518,13.699,49.64,23.843,10.274,20.785,6.752,3.677,-0.71,9.084,6.947,13.593,-7.705,7.704,24.371,5.739,0.599,-12.404,126.293,16.042,7.527,1.326,-9.242,-2.24,-142.386,-1.739,-21.126
2.0249949999997625,-12.289,-2.942,-24.288,2.927,44.468,22.282,22.559,15.129,6.233,1.624,-1.734,9.075,4.89,13.58,-11.796,4.622,27.421,-1.952,-0.938,-15.466,128.216,14.489,2.396,0.813,-13.332,5.959,-146.855,-4.299,-27.764
2.040051200000107,-9.203,3.209,-28.875,4.461,50.571,29.945,25.611,16.651,11.862,9.307,1.854,10.603,8.984,19.714,-6.661,6.155,31.492,2.661,3.674,-8.278,131.673,19.597,5.98,10.033,-2.047,9.539,-137.998,-0.709,-27.224
2.040121900000031,-5.608,5.767,-26.284,9.58,48.983,32.989,17.388,19.196,10.825,9.297,2.364,10.592,7.95,17.645,-2.044,8.198,26.849,5.22,5.719,-7.245,135.128,19.578,8.023,11.048,3.59,4.407,-136.324,3.39,-26.173
2.054900699999962,-4.578,8.323,-29.844,7.009,47.91,30.394,18.908,17.64,8.253,2.116,2.362,12.119,9.992,15.578,-7.677,10.239,27.847,5.727,7.25,-9.287,133.968,16.484,6.478,4.889,-3.586,7.988,-147.458,7.998,-27.171
2.054958899999747,-2.012,11.901,-32.888,7.514,52.985,39.073,25.036,15.06,11.831,5.187,5.946,11.594,13.568,17.099,-5.62,9.204,30.381,8.283,9.292,-5.692,135.371,19.029,6.984,5.397,-8.193,9.005,-146.798,12.601,-26.631
2.069942600000104,-2.01,9.84,-33.367,9.043,43.198,46.206,20.913,14.533,11.819,6.719,2.353,4.923,5.357,11.959,-0.491,2.535,19.592,3.151,7.746,-5.686,137.797,15.936,6.465,5.391,-9.209,1.311,-144.09,10.026,-28.654
2.0716997999998057,-1.495,14.44,-26.674,9.547,35.983,42.574,19.355,18.105,8.733,0.052,-1.235,2.356,3.303,9.898,-3.565,0.483,10.351,2.124,8.251,-5.68,138.684,11.822,6.971,2.312,-7.151,5.921,-145.995,13.09,-27.089
2.0850099999997838,3.117,24.16,-13.84,17.222,47.73,43.043,25.996,21.673,10.774,2.614,5.426,6.964,11.496,15.011,-2.537,5.093,11.877,9.806,12.853,-0.552,143.156,17.958,9.013,8.97,0.028,13.087,-141.238,25.885,-17.328
2.0850726999997278,5.675,24.136,-12.289,21.815,44.608,48.636,24.945,18.577,12.812,7.734,8.495,10.031,8.411,15.508,4.126,5.088,9.304,10.309,16.427,2.523,147.624,19.989,10.028,14.084,1.053,9.488,-139.048,27.396,-16.286
2.1000654999998005,5.157,23.599,-23.547,16.158,28.682,47.05,19.285,14.46,11.263,5.165,5.412,8.997,2.767,13.956,3.609,4.058,8.27,7.737,17.947,3.545,143.89,16.383,11.555,7.922,0.027,9.991,-142.495,20.196,-24.979
2.1001296999997976,4.128,21.014,-26.598,10.506,29.166,43.417,21.315,15.47,12.276,4.135,6.431,6.939,5.838,11.893,0.532,5.591,11.336,10.29,16.904,4.054,143.746,17.903,8.47,5.865,5.663,9.981,-138.766,20.176,-26.491
2.1154060999997455,0.537,10.747,-25.034,4.348,29.649,41.324,15.658,14.943,13.288,4.131,2.327,3.345,3.783,4.196,0.531,2.512,3.64,1.059,13.301,-0.561,145.652,15.324,1.801,5.859,4.12,3.823,-140.164,17.594,-26.976
2.1154710999999224,-2.537,9.712,-28.083,1.782,22.959,38.209,4.884,12.878,10.714,0.541,-3.823,2.83,1.73,3.167,-1.518,-1.077,-3.024,-7.652,13.288,-2.61,139.871,8.136,0.775,-0.295,-6.642,3.307,-148.733,10.917,-28.999
2.1300028999999085,2.076,17.386,-22.42,12.539,26.522,42.27,14.613,17.476,14.289,4.127,3.353,11.536,8.901,15.46,0.532,6.097,11.836,7.213,19.423,5.59,141.268,11.714,6.41,0.73,-4.587,7.402,-145.511,15.004,-23.334
2.1451922999999624,9.247,17.881,-8.565,20.723,29.57,50.424,33.554,24.631,22.984,13.856,14.62,21.258,17.089,24.666,7.704,17.361,25.144,22.575,24.526,15.83,150.348,20.412,12.039,12.0,5.152,9.444,-135.119,22.674,-15.114
2.145257899999706,12.823,20.937,-4.97,17.629,22.368,50.374,35.057,23.582,22.961,17.429,15.118,22.774,18.609,23.104,10.77,20.418,22.045,17.942,25.014,17.351,148.148,21.416,12.539,14.038,7.708,12.508,-132.423,22.651,-12.537
2.16015329999982,13.835,26.552,-6.502,20.173,22.345,43.151,26.825,17.411,15.766,11.776,11.004,19.165,13.979,20.52,9.223,16.811,23.048,12.288,24.477,12.723,140.828,19.345,9.452,6.339,8.213,10.959,-132.29,21.604,-9.451
2.1602101999997103,13.821,24.988,-2.397,23.739,28.471,39.009,22.187,15.344,15.75,5.616,8.432,16.584,10.891,19.987,7.164,13.72,28.66,11.764,24.452,11.174,139.662,18.814,14.054,5.82,7.692,7.362,-127.547,24.144,-6.88
2.175146799999766,16.369,26.5,-1.37,19.104,28.954,42.557,14.993,16.353,18.296,8.172,9.96,15.543,13.954,19.967,8.182,15.244,26.07,8.678,25.452,12.187,136.961,21.869,22.749,14.524,10.246,15.039,-121.272,29.755,-6.361
2.1752106999997523,23.013,34.671,-4.443,23.184,28.926,50.711,7.806,17.874,16.741,15.336,14.561,17.065,12.916,19.434,12.784,17.79,22.97,10.206,26.451,12.687,136.312,29.019,22.726,21.169,20.994,24.246,-120.638,37.41,-3.793
2.190140799999881,26.064,39.247,-4.438,32.382,35.044,51.685,8.822,21.442,17.236,18.395,18.645,20.121,10.854,18.39,17.895,18.797,23.972,12.245,30.011,15.748,137.713,35.138,25.777,23.71,27.121,22.684,-129.227,43.008,-0.203
2.190198899999814,29.624,44.843,-2.897,30.813,44.231,49.072,17.523,28.593,23.367,19.913,22.725,20.614,18.015,18.372,18.389,22.364,26.509,9.672,36.129,19.831,136.038,40.226,39.584,33.42,29.143,26.248,-131.147,52.699,6.457
2.20521669999971,37.279,49.921,-1.869,29.245,46.236,55.683,28.776,34.2,31.028,22.455,26.288,22.13,20.046,21.94,21.957,28.489,32.118,13.248,39.679,20.836,135.902,46.333,44.667,48.755,39.872,39.029,-119.745,61.868,15.16
2.2053124999997635,37.241,44.236,-3.404,28.191,35.431,56.651,34.895,29.555,29.972,20.383,24.725,25.182,13.366,28.066,26.546,27.949,34.135,16.821,36.053,20.815,131.155,43.725,35.913,46.657,43.419,37.966,-120.65,55.146,12.071
2.220217799999773,29.52,38.044,-9.036,20.478,27.711,47.886,30.762,22.865,21.233,15.24,18.04,22.595,13.865,24.964,19.859,24.335,25.904,10.656,30.382,21.819,119.753,34.46,30.242,28.68,31.08,22.046,-134.874,39.721,-2.286
2.22028999999975,27.953,39.031,-6.466,20.97,29.733,48.862,24.583,27.965,19.675,15.225,15.461,20.011,14.876,19.303,11.642,28.409,24.854,8.084,29.327,19.748,117.072,29.815,28.675,23.528,23.877,19.463,-132.177,38.145,-6.894
2.2361660999999913,28.437,35.918,0.713,26.072,28.678,53.424,22.509,28.962,22.217,16.746,16.982,22.552,9.226,22.87,17.266,28.893,32.513,8.588,27.76,17.166,110.807,26.199,21.986,27.091,19.754,25.079,-125.385,40.156,-4.326
2.236236299999746,22.774,28.709,-3.898,18.874,20.453,46.199,18.901,18.175,17.584,13.143,14.404,20.481,8.704,26.946,19.81,19.13,31.969,0.895,22.61,16.125,93.278,19.513,14.28,17.842,10.001,16.857,-136.531,31.919,-8.932
2.250189500000033,24.8,30.73,-7.993,19.88,20.432,45.64,18.37,22.255,17.566,12.618,12.852,19.435,13.819,26.406,15.18,20.135,33.474,-0.643,21.562,17.645,92.672,22.567,16.827,11.164,13.064,11.717,-144.591,31.374,-7.899
2.250254000000041,34.509,38.384,1.749,33.18,29.633,52.254,20.913,36.065,27.282,19.265,19.499,27.613,15.342,30.991,19.263,31.386,40.1,4.481,24.615,20.702,103.338,30.229,25.519,19.863,25.347,22.463,-138.811,41.589,2.868
2.265178300000116,30.889,38.345,5.333,31.097,32.165,46.054,19.867,29.881,26.23,19.246,18.968,23.487,12.765,30.96,22.83,24.695,35.449,-5.769,21.516,17.607,91.964,24.051,27.031,24.453,24.297,23.466,-139.185,41.548,3.377
2.265240100000028,24.198,36.77,3.279,31.578,30.084,34.738,19.335,24.728,19.032,13.591,12.801,10.656,10.191,20.17,17.172,11.35,28.754,-18.059,16.884,11.954,78.04,18.904,20.856,19.306,18.637,16.27,-139.045,38.945,-2.774
2.280218999999761,30.321,43.393,10.448,43.842,37.226,27.531,24.439,36.487,22.087,15.115,15.35,13.719,10.693,18.613,16.642,16.462,31.287,-14.455,18.404,12.454,78.986,26.57,20.323,19.287,23.229,22.401,-134.808,45.053,1.327
2.295200399999885,28.754,40.788,10.95,32.528,34.115,19.306,24.927,32.864,21.552,14.587,15.334,15.242,11.707,23.718,16.625,16.957,28.181,-15.977,16.849,11.417,71.735,22.445,18.766,17.73,23.206,22.379,-140.308,40.397,3.375
2.295254300000124,15.405,27.428,-1.357,13.54,16.662,14.164,23.365,17.462,13.334,5.864,4.561,2.419,6.572,20.108,8.412,5.67,26.616,-29.281,11.709,6.795,60.905,12.176,13.111,12.077,14.986,12.623,-148.365,28.574,-4.313
2.2952919999997903,15.902,28.425,-2.892,23.772,17.67,16.199,25.903,21.543,14.857,4.321,6.605,4.466,4.516,18.039,6.867,9.763,35.811,-30.789,15.283,9.862,61.356,21.386,18.221,17.701,14.971,18.245,-144.118,30.082,-4.308
2.3101480999998785,20.497,36.593,6.332,31.945,31.485,13.621,19.217,26.132,15.355,6.366,12.234,11.634,6.561,19.557,10.446,19.999,36.288,-22.561,20.903,13.439,56.172,28.024,26.4,23.318,23.665,22.838,-141.925,37.737,3.381
2.324173299999984,18.427,35.02,9.4,24.741,33.503,10.534,7.927,20.471,9.192,0.212,6.586,5.987,3.993,18.513,12.485,16.393,37.788,-18.44,22.419,12.401,45.87,20.824,25.349,20.221,27.74,18.717,-142.808,39.236,9.013
2.326047600000038,26.606,40.62,12.464,33.426,40.641,20.769,21.239,29.672,15.843,3.798,12.215,11.616,6.55,28.229,19.645,20.475,53.632,-13.299,29.057,18.536,51.459,28.488,30.959,27.373,29.761,25.358,-138.054,44.32,14.127
2.3392816999999013,33.239,44.678,11.939,38.003,50.847,26.896,41.71,37.839,24.536,15.577,22.961,23.9,14.741,39.983,22.186,30.701,57.165,-11.236,31.077,21.591,56.018,36.144,34.002,34.006,27.17,26.869,-138.428,45.812,10.014
2.339347799999814,20.398,26.19,-2.417,16.96,36.452,17.648,32.447,21.407,16.827,10.438,13.205,16.704,9.603,29.185,15.504,24.522,40.714,-23.008,18.75,13.885,43.155,18.689,16.037,19.115,11.774,12.498,-147.511,28.861,-7.927
2.3547006999997393,15.767,17.967,-10.099,10.796,22.07,14.044,16.021,15.75,14.761,6.329,9.093,12.076,4.982,18.91,16.513,18.35,36.574,-34.256,12.072,11.309,32.865,9.961,3.726,5.263,5.102,9.412,-144.802,16.024,-14.579
2.3547662999999375,23.948,30.757,-1.38,27.179,32.295,23.251,25.226,36.739,28.578,18.618,23.428,23.847,15.736,28.625,21.62,27.041,45.759,-32.685,15.646,13.86,33.857,17.636,9.87,3.721,18.929,12.988,-133.387,22.668,-5.855
2.3692384999999376,21.363,29.189,1.183,28.689,33.799,26.814,34.423,42.85,31.111,20.649,22.38,24.336,19.306,33.719,16.988,25.477,47.251,-32.14,9.482,7.698,28.7,13.008,10.885,1.668,21.472,7.34,-133.766,26.744,-8.923
2.3692983000000822,15.706,20.451,-8.04,16.877,22.495,22.689,23.117,28.975,18.785,8.333,10.063,10.991,9.041,25.488,11.847,13.156,40.543,-40.817,1.788,1.543,20.475,9.408,8.824,5.253,12.229,7.333,-142.341,21.082,-16.599
2.3842737999998462,18.764,21.967,-9.057,13.786,21.448,19.08,11.823,21.261,11.594,3.714,8.003,5.857,4.933,22.901,14.397,6.995,38.454,-48.461,6.397,3.59,23.016,19.133,15.476,14.981,19.389,13.985,-139.637,19.524,-9.41
2.3859604999997828,18.745,22.458,-1.363,15.822,21.938,14.45,12.836,17.142,10.045,2.685,6.971,7.388,6.465,24.415,15.407,5.451,41.489,-45.851,13.051,7.685,26.066,24.237,20.071,18.04,31.665,16.533,-127.714,24.115,0.333
2.3993796999998267,20.263,25.509,8.885,18.88,17.306,11.362,16.41,14.051,10.035,-1.416,6.451,6.356,4.922,22.854,13.855,7.495,44.009,-37.608,17.649,9.727,22.967,28.823,24.149,23.658,30.609,20.615,-120.927,32.288,9.042
2.3994438999998238,25.366,31.631,16.048,20.91,17.288,13.4,13.832,17.111,12.587,0.123,11.056,6.862,3.38,22.831,16.915,12.611,45.502,-33.984,22.754,10.742,24.993,35.454,31.297,29.782,33.14,21.619,-120.806,38.915,15.181
2.4144713999999112,21.755,25.452,9.372,17.815,16.246,13.386,8.182,18.63,15.136,2.684,8.483,10.442,6.45,27.419,20.997,14.135,50.579,-34.975,23.756,11.756,28.554,31.833,29.217,24.116,35.668,15.962,-120.685,32.216,6.457
2.4145336999999927,19.171,20.303,-2.42,15.748,10.595,11.836,10.736,17.075,15.121,-0.392,6.425,14.53,10.542,32.515,20.463,19.244,56.677,-32.89,22.195,15.842,23.402,27.19,22.015,18.457,26.411,14.921,-118.003,22.963,-3.284
2.429395900000145,23.763,24.382,0.656,17.782,5.461,13.874,13.799,18.082,13.568,-2.441,11.542,13.491,7.458,31.458,18.906,25.372,56.108,-32.858,22.685,18.9,21.33,28.7,19.944,19.975,21.774,15.931,-109.176,22.427,2.355
2.4294592999999622,18.616,19.234,6.803,16.227,-0.692,16.934,9.174,16.527,14.067,0.123,8.457,9.891,1.815,28.352,17.35,20.736,52.465,-39.485,16.515,14.783,22.333,22.524,15.826,14.832,24.313,11.304,-100.357,18.819,1.84
2.444370599999729,10.401,11.018,0.648,12.625,-2.228,15.38,12.239,17.535,19.176,4.221,6.399,11.93,6.937,29.861,16.308,16.105,51.388,-41.494,8.302,8.621,16.675,15.841,10.175,4.059,18.141,8.219,-103.331,12.652,-6.871
2.4462828999999147,8.341,8.445,-7.037,8.001,-3.763,10.754,16.837,21.616,21.719,3.705,10.491,13.968,11.028,27.782,14.243,15.576,48.775,-42.99,5.732,5.026,12.048,13.264,5.041,-0.043,10.439,5.137,-108.863,9.054,-13.012
2.4594514000000345,0.648,0.752,-13.178,-1.228,-13.493,5.62,5.038,16.984,12.988,-3.472,3.308,10.367,2.308,21.094,7.056,5.827,43.603,-51.656,-1.446,0.922,8.45,7.615,-2.648,-3.63,9.404,-3.577,-108.242,1.872,-21.195
2.4595187999998416,-3.963,-1.81,-15.214,-3.276,-13.992,4.589,-3.677,13.893,7.339,-6.03,-3.867,7.795,0.769,24.659,1.414,0.186,43.56,-52.629,-4.006,-0.616,5.367,8.632,-0.084,-5.163,9.906,-3.574,-105.572,-0.691,-23.224
2.4745232000000215,6.287,10.487,-4.44,5.436,-1.682,7.146,9.647,20.539,15.017,-2.437,4.333,9.837,8.452,31.294,8.072,4.284,48.127,-43.867,7.781,3.483,11.51,18.87,11.699,2.527,12.458,5.139,-98.294,7.506,-10.393
2.489890800000012,8.33,14.575,4.274,9.017,-3.218,5.602,20.908,20.519,17.563,-3.972,4.841,4.704,5.37,24.603,9.601,-0.844,42.956,-46.385,6.236,1.431,15.597,13.728,9.126,5.086,16.544,5.134,-85.9,11.597,-4.747
2.489956500000062,-1.925,10.462,-1.878,7.471,-13.973,2.523,16.789,16.912,11.398,-8.579,-4.385,-3.498,-0.783,18.943,-1.167,-11.601,31.642,-51.462,-8.115,-5.231,10.458,1.931,-1.13,-5.165,14.478,-2.044,-81.716,11.073,-9.865
2.504509099999723,4.225,15.575,-2.389,15.66,-11.397,7.643,9.6,23.043,11.899,-5.496,0.743,-1.957,1.779,23.023,2.42,-8.003,34.684,-42.189,-0.934,-1.127,13.009,8.589,3.995,-5.672,13.439,1.545,-82.659,15.161,-6.781
2.5045728999998573,16.516,19.658,6.835,23.842,-8.312,10.71,11.639,25.069,15.473,-3.442,9.963,5.217,1.778,25.049,14.713,4.812,51.044,-34.974,14.436,8.096,24.779,22.413,14.237,7.653,20.086,9.228,-86.162,18.732,-1.139
2.5195920999999544,14.45,17.589,8.365,18.182,-9.328,8.137,23.411,19.921,13.921,-2.926,8.929,9.31,3.825,26.561,13.674,15.566,59.189,-35.964,15.446,11.161,31.414,25.976,15.76,11.744,24.676,9.731,-101.445,19.738,-1.65
2.5196538999998666,16.485,22.694,7.332,14.578,4.513,12.228,27.998,23.999,14.931,2.713,11.994,14.424,10.481,32.682,17.246,23.747,56.056,-30.805,17.48,15.761,38.555,29.024,20.355,10.195,27.213,13.819,-121.836,25.353,0.913
2.5346684999999525,25.178,28.307,11.424,22.76,17.316,16.826,19.261,33.709,17.478,3.734,19.666,20.045,9.446,32.649,29.012,24.748,51.39,-26.675,20.536,18.819,46.201,34.118,24.433,18.894,30.772,20.466,-125.3,29.426,3.473
2.5347326000000976,21.566,22.643,11.412,23.25,9.102,12.199,12.582,31.626,15.411,-1.392,16.06,18.488,5.851,26.981,24.372,20.625,46.727,-33.821,12.319,12.14,44.618,29.473,17.748,19.9,25.618,17.371,-118.003,26.835,-1.653
2.5495842000000266,15.397,16.985,4.741,16.054,4.482,7.576,13.081,24.935,13.859,1.683,10.409,15.396,8.406,27.467,12.565,17.018,43.095,-39.935,6.671,7.517,39.45,21.247,11.583,2.462,18.933,8.645,-116.348,20.661,-7.287
2.549643500000002,19.48,18.505,0.638,21.674,16.261,7.568,14.605,26.959,14.357,5.267,16.546,17.942,9.935,27.951,13.065,16.489,45.613,-38.358,6.152,7.51,39.411,21.226,13.62,-6.25,19.938,6.587,-114.695,16.03,-6.255
2.5645543999999063,19.973,21.048,3.198,29.337,20.855,7.048,12.541,27.444,14.855,-1.398,18.579,17.924,9.925,25.362,18.687,17.497,45.055,-38.832,3.072,3.916,41.421,21.205,14.119,1.441,17.357,7.093,-110.994,14.477,-9.835
2.564610200000061,10.732,15.392,-0.391,15.987,11.613,3.967,1.258,17.171,8.693,-8.569,6.265,9.709,6.841,21.75,15.594,12.869,38.35,-42.379,1.02,0.838,37.793,15.548,9.494,0.415,12.729,5.549,-106.272,8.827,-20.584
2.579644299999927,3.036,7.179,-14.735,3.676,3.404,-1.16,-7.965,8.957,-0.538,-12.659,-1.938,2.527,-0.85,17.63,5.845,2.097,35.75,-40.288,2.556,-0.187,33.657,16.045,9.485,-3.172,16.815,5.031,-83.624,3.695,-24.661
2.579711999999745,6.619,10.758,-14.208,12.381,4.938,-2.183,2.802,13.046,-0.025,-14.183,4.211,2.525,-0.85,15.563,4.815,1.583,37.251,-33.075,8.188,0.326,41.308,26.787,18.697,7.59,23.458,10.149,-55.364,10.863,-18.489
2.5946384999997463,16.859,20.994,0.663,19.029,15.179,0.893,17.143,20.718,8.172,-6.997,9.843,9.182,6.836,21.183,14.031,13.877,40.8,-28.944,17.914,8.522,54.074,38.031,25.85,17.316,25.484,16.799,-53.259,21.611,-12.323
2.5947016999998596,20.94,23.022,-0.875,14.399,22.336,2.429,13.54,24.795,11.238,0.183,13.419,17.882,12.464,27.822,16.067,24.621,48.956,-25.841,22.507,18.76,58.119,40.555,21.726,16.787,25.458,18.831,-58.841,24.151,-9.237
2.6100390999999945,18.87,20.95,-9.583,13.873,17.191,3.451,11.477,22.721,11.227,-0.842,18.529,24.524,16.55,30.356,15.538,31.769,51.469,-21.204,23.509,20.278,60.622,40.002,24.266,16.258,21.334,20.861,-43.413,25.151,-7.178
2.610102099999949,23.462,22.466,-4.45,17.445,16.149,6.009,22.224,20.649,14.289,1.208,22.609,31.16,20.632,31.862,26.793,40.447,50.393,-18.109,28.609,20.77,69.271,45.597,36.537,18.803,20.288,26.988,-33.636,28.2,-5.122
2.624674299999697,30.611,27.566,-2.909,20.501,27.916,7.028,23.739,27.289,16.837,8.379,25.66,36.764,22.661,34.392,30.353,44.505,52.392,-17.066,30.117,23.823,72.788,48.625,36.5,23.907,26.416,27.474,-42.824,28.684,-5.629
2.624732700000095,25.457,26.514,-10.078,20.993,31.987,7.021,9.371,30.335,17.332,8.371,25.634,31.604,21.614,30.771,18.539,37.288,47.728,-21.148,20.353,18.164,64.518,37.818,22.119,20.809,24.34,20.274,-47.392,25.582,-9.722
2.639723100000083,10.063,15.217,-14.679,11.751,17.61,-0.159,0.14,18.522,12.704,-1.371,14.85,16.203,12.883,22.544,9.299,22.394,35.898,-30.348,8.549,3.801,53.183,22.924,8.777,2.858,13.557,12.569,-47.857,16.335,-16.372
2.639786400000048,1.343,7.517,-16.714,4.054,8.371,-10.917,6.287,10.307,7.056,-8.03,3.564,9.015,6.21,19.96,7.241,12.125,33.813,-34.416,1.881,-3.887,44.933,17.265,5.182,-5.342,9.445,5.896,-57.543,8.121,-17.38
2.654714799999965,3.391,11.096,-15.16,12.759,16.047,-10.394,11.404,17.981,10.123,-4.436,4.073,10.543,10.302,21.989,3.647,7.502,34.803,-32.333,-2.219,-3.884,41.814,15.199,8.763,4.397,10.973,3.329,-63.633,11.187,-14.801
2.6547765000000254,4.925,13.134,-12.583,17.357,20.642,-5.26,1.659,20.524,11.137,-4.431,3.557,2.847,8.755,17.868,-1.992,-2.239,26.572,-36.399,-8.365,-8.49,41.772,12.622,6.705,3.368,8.912,5.375,-60.495,12.2,-18.373
2.6697524999999587,-1.228,6.973,-17.181,7.094,9.863,-10.89,-6.027,11.282,2.929,-15.185,-7.718,-7.402,-3.549,9.141,-3.014,-14.532,20.397,-41.485,-11.943,-15.142,39.681,9.536,2.6,-6.881,5.83,2.296,-56.849,3.991,-22.965
2.684733900000083,-2.764,2.868,-21.263,0.427,0.631,-14.466,3.712,6.66,-0.148,-19.269,-9.759,-4.833,-3.033,9.644,-0.45,-12.981,23.451,-37.346,-7.832,-12.053,38.617,10.038,7.721,-1.751,5.311,-0.781,-56.28,-0.623,-21.918
2.684791799999857,1.338,1.84,-19.192,-1.623,7.291,-11.377,9.856,8.191,4.463,-10.54,2.546,2.857,9.265,18.344,-0.449,-0.16,29.575,-32.185,-1.164,-4.869,44.726,16.688,11.811,4.398,5.818,3.831,-60.834,-0.623,-22.92
2.6998281999999563,0.824,-0.211,-18.148,-4.183,13.943,-12.903,-0.912,9.207,7.02,-7.968,7.154,11.563,12.842,20.887,1.6,12.135,33.644,-31.128,3.96,-0.253,52.366,21.282,3.09,-0.217,5.813,4.852,-65.384,-3.184,-27.508
2.7015299999998206,-3.275,-2.772,-19.667,-3.154,7.782,-15.964,-3.985,9.71,5.476,-13.083,3.049,17.699,11.292,17.793,6.209,18.783,34.635,-26.486,7.03,4.358,53.85,20.749,-1.524,1.32,3.758,0.748,-60.195,-7.279,-26.456
2.7148637999998755,-6.858,-7.893,-20.16,-4.688,1.626,-17.485,3.191,4.577,1.885,-15.632,-0.028,12.559,8.719,18.287,4.154,18.764,31.526,-25.948,6.51,3.329,49.698,17.142,2.064,3.88,1.705,3.309,-55.525,-10.346,-25.917
2.714932200000021,-12.999,-12.495,-19.627,-12.88,1.112,-19.516,-0.91,-2.087,-3.24,-18.69,-5.664,3.837,2.051,17.756,-0.461,12.086,27.909,-29.508,4.455,-0.773,46.062,12.002,-1.524,-4.833,-1.883,3.306,-64.178,-13.921,-30.502
2.7310231000001295,-15.547,-12.483,-21.657,-13.379,-2.475,-21.546,-14.742,-2.597,-6.823,-26.356,-10.269,1.271,-3.074,14.153,-0.973,6.95,27.881,-26.404,1.889,-0.26,44.991,7.379,-7.67,-11.488,-7.517,-5.919,-71.286,-19.031,-36.107
2.7310889999998835,-12.97,-11.958,-27.271,-6.194,-4.009,-24.598,-16.776,-3.107,-8.866,-29.403,-10.258,-4.365,-2.559,14.651,-4.558,4.894,28.878,-25.866,-5.798,-2.309,42.897,4.81,-8.175,-7.378,-9.558,-7.962,-68.654,-20.548,-37.608
2.7448332999997547,-13.982,-11.434,-23.657,-1.577,4.191,-25.598,-3.439,-4.641,-7.32,-24.251,-9.736,-6.41,-1.02,15.661,-9.676,1.815,27.824,-31.988,-7.329,-8.966,40.293,1.219,-5.605,-2.76,-6.987,-5.393,-71.659,-12.843,-28.349
2.7448921000000155,-15.505,-7.324,-10.314,-0.038,11.872,-18.913,2.2,4.585,-3.726,-20.128,-6.652,-2.818,-1.019,12.571,-10.179,-1.772,25.235,-30.931,-2.711,-9.47,41.789,0.705,-2.013,0.829,-5.443,-6.412,-79.272,-6.17,-11.414
2.7598410000000513,-12.416,-5.78,-11.328,-1.575,9.811,-15.82,-11.123,7.142,-4.235,-20.62,-3.572,-7.426,-3.579,8.972,-9.657,-4.332,19.574,-30.388,-6.807,-8.435,41.235,4.291,-1.499,1.853,-7.487,-3.844,-78.168,-8.726,-12.94
2.7615336999997453,-10.866,-6.286,-21.05,-1.061,6.727,-17.341,-14.698,-1.574,-2.181,-18.55,-5.617,-8.955,-3.063,8.451,-6.573,-5.353,17.505,-37.017,-9.361,-12.526,37.096,4.799,-4.571,-2.248,-9.529,-1.791,-73.479,-8.205,-26.247
2.7751334999998107,-10.343,-1.157,-19.492,-0.548,10.307,-14.25,-0.851,3.038,5.505,-12.897,-1.001,3.862,6.161,14.59,0.606,-1.249,23.635,-37.493,-1.155,-9.951,39.108,6.331,-3.03,-0.708,-8.495,-1.789,-78.528,-5.635,-25.196
2.775202100000115,-10.845,-0.131,-19.985,-7.207,11.833,-13.211,-3.411,11.232,8.061,-9.298,4.635,10.518,10.766,21.236,0.605,7.462,30.272,-31.82,1.408,-3.282,44.704,11.448,1.072,8.514,-8.486,2.823,-89.208,-10.24,-22.097
2.7899505999998837,-13.396,-9.353,-28.674,-11.811,8.748,-19.346,-12.117,2.512,6.004,-10.313,-1.517,9.995,7.681,22.239,-1.957,12.065,32.291,-29.226,-0.643,-1.741,44.659,12.461,0.558,11.067,-10.527,1.796,-91.681,-11.767,-30.272
2.7900134999999864,-12.87,-10.368,-29.158,-9.75,11.813,-21.376,0.19,-1.589,5.998,-13.889,-2.54,14.596,9.211,22.729,1.119,12.053,33.283,-26.123,2.944,-1.74,43.59,8.862,-4.053,3.371,-9.492,-4.866,-86.978,-8.681,-34.34
2.8049074999998993,-12.857,-6.259,-33.227,-15.376,15.899,-21.866,0.702,4.56,2.918,-15.924,1.049,12.02,7.152,20.657,1.63,10.504,29.151,-27.122,1.916,-3.275,44.059,5.78,-5.074,-0.731,-8.458,-4.861,-90.99,-16.357,-36.355
2.804968999999801,-19.504,-13.425,-44.977,-26.631,7.174,-24.406,-17.229,-1.08,-3.232,-18.982,-8.686,-0.288,-3.101,15.001,-7.593,4.858,18.876,-35.292,-3.721,-7.882,37.355,3.725,-3.019,4.393,-12.548,-3.831,-103.194,-21.976,-42.978
2.81990420000011,-23.071,-18.535,-41.346,-27.117,-4.104,-23.357,-10.039,-7.227,-4.766,-25.111,-14.825,-4.898,-4.635,11.912,-9.635,-2.831,16.808,-37.306,-3.205,-8.387,30.145,1.159,0.57,6.438,-11.511,-6.389,-107.189,-16.831,-40.886
2.8217635000000882,-20.999,-10.319,-29.522,-15.819,-5.637,-25.895,7.389,-2.609,-4.249,-30.209,-10.712,-5.406,-3.093,9.339,-1.94,-4.878,20.89,-33.17,-2.69,-7.866,30.627,0.646,5.18,2.333,-2.79,-2.797,-102.471,-13.228,-31.111
2.835006700000122,-17.904,-2.112,-22.832,-1.458,-1.02,-29.456,-2.352,-0.557,-8.855,-31.715,-16.849,-10.011,-9.75,7.28,-1.939,-6.41,19.844,-35.186,-5.248,-9.395,33.158,0.645,3.638,3.868,-1.25,-1.257,-103.906,-7.58,-25.445
2.835070000000087,-14.3,0.452,-14.1,4.691,4.616,-24.303,-11.059,-2.093,-11.408,-33.733,-21.955,-14.1,-12.814,7.273,-10.134,-12.039,16.238,-41.811,-7.292,-10.41,35.686,-3.966,-3.026,7.45,-3.81,-4.842,-106.364,0.113,-18.247
2.85005719999981,-13.261,-0.573,-12.037,-4.023,4.099,-22.229,-2.339,-4.14,-9.348,-31.138,-15.273,-15.622,-10.752,4.192,-9.099,-16.125,14.173,-46.38,-11.896,-11.937,35.651,-6.011,-5.584,3.344,-5.856,-4.325,-101.134,-8.597,-16.18
2.8501219999998284,-17.858,-7.233,-22.271,-14.777,-3.077,-25.793,-11.046,-7.722,-9.338,-25.471,-15.77,-13.045,-11.766,3.163,-3.967,-15.084,14.671,-48.382,-13.421,-13.462,26.394,-1.907,-3.53,-2.807,-13.535,-5.345,-99.496,-21.908,-26.922
2.8654920999997557,-19.377,-8.25,-21.224,-11.177,-0.513,-19.108,-23.33,-2.592,-7.792,-20.835,-15.242,-5.348,-6.631,10.845,-6.524,-8.922,24.39,-46.797,-9.309,-10.887,20.219,-3.442,-6.088,-6.903,-21.206,-8.926,-106.569,-18.812,-30.481
2.8655571999997846,-16.284,-3.119,-10.957,1.642,14.345,-12.941,-6.913,5.608,-0.1,-13.129,-2.932,5.929,7.208,17.494,-3.956,2.87,36.661,-43.677,-5.714,-6.777,28.908,-6.512,-10.18,-9.457,-19.648,-6.355,-109.536,-13.67,-23.278
2.880039300000135,-14.731,-4.14,-11.97,4.715,22.527,-18.051,4.365,1.504,3.999,-6.969,1.17,14.12,12.323,19.013,5.782,10.04,39.698,-43.633,-3.659,-4.721,37.076,-1.383,-8.12,-5.349,-18.603,-3.275,-104.304,-16.731,-22.743
2.8951170999998794,-14.716,-9.772,-21.18,-5.024,23.53,-19.57,-9.472,-5.158,-0.103,-10.035,-3.954,12.056,6.163,18.482,2.702,6.444,36.585,-45.638,-4.167,-5.229,34.99,1.692,-3.502,-2.27,-19.097,-4.809,-99.076,-17.226,-28.868
2.89518309999994,-15.726,-12.836,-25.257,-13.216,27.092,-19.038,-6.901,-0.542,-0.103,-13.099,-2.414,7.433,3.083,16.414,-5.498,4.9,34.499,-43.031,-6.212,-4.711,33.418,-0.358,-1.961,-3.293,-13.955,-3.779,-99.489,-15.672,-29.864
2.9100899999998546,-15.71,-12.311,-23.183,-10.641,31.164,-19.531,17.185,6.631,7.069,-10.525,-0.874,8.963,8.203,16.398,0.656,7.457,36.513,-35.304,0.966,-1.633,34.409,2.716,0.602,3.371,-6.256,1.348,-102.976,-16.681,-28.297
2.9101479000000836,-12.621,-9.737,-21.11,-9.094,29.083,-15.413,22.803,6.112,6.55,-12.051,-7.021,3.831,6.658,16.381,4.753,0.789,37.502,-33.731,5.064,-3.168,27.203,1.688,1.626,7.978,-2.152,-1.215,-109.021,-17.177,-31.342
2.9251555999999255,-20.293,-13.825,-27.237,-14.72,21.369,-15.398,9.972,-1.066,-0.629,-22.797,-15.723,-12.054,-4.107,7.143,-10.621,-15.093,28.755,-42.407,-6.212,-14.436,14.368,-11.121,-6.06,-5.35,-4.711,-11.973,-114.035,-18.696,-40.02
2.9252198999997745,-31.543,-19.959,-36.943,-18.291,14.176,-21.53,5.351,-1.578,-3.702,-30.972,-23.392,-21.776,-9.738,0.476,-21.881,-27.373,14.894,-45.438,-13.891,-20.057,8.206,-16.745,-13.226,-12.517,-10.342,-15.034,-112.384,-19.702,-44.079
2.9401364999998805,-22.29,-8.669,-31.783,-10.076,15.186,-16.898,8.932,7.646,-0.113,-24.793,-20.807,-17.144,-5.118,7.648,-11.613,-24.272,10.78,-36.684,-4.143,-11.327,16.394,-9.556,-3.991,0.816,-2.134,-4.773,-103.05,-10.461,-33.276
2.9401991999998245,-5.874,7.734,-18.944,4.279,22.343,-4.586,15.071,10.712,8.085,-13.497,-7.466,-7.393,1.035,13.276,2.231,-10.928,16.405,-28.45,8.157,-1.582,28.161,0.699,7.796,11.573,15.286,1.379,-88.602,1.845,-19.411
2.9551535999999032,-6.381,7.214,-16.363,7.348,27.444,0.542,12.494,8.14,12.687,-11.947,-1.311,-1.238,4.62,11.213,0.18,-7.331,17.926,-25.86,10.71,-0.044,27.621,2.748,5.739,5.926,12.709,-2.208,-74.681,1.331,-19.903
2.955218699999932,-7.399,5.67,-19.421,3.755,26.904,0.542,0.187,9.156,9.601,-11.423,-3.871,0.813,5.64,12.227,-5.456,-11.934,17.395,-22.248,7.113,-0.044,21.445,-2.378,-1.439,0.285,-1.136,-2.206,-64.361,-6.355,-28.08
2.970206699999835,5.416,15.91,-13.766,12.972,29.439,4.127,5.309,13.758,13.177,-2.19,5.866,9.521,9.221,18.362,2.747,-1.676,24.038,-19.152,9.155,7.641,27.059,0.186,-0.413,3.871,4.501,4.456,-55.587,-1.738,-22.417
2.9702720999998746,11.559,23.067,-3.506,22.693,38.631,8.734,24.772,13.744,20.336,2.936,18.156,21.295,16.384,21.93,14.527,13.183,31.186,-20.157,16.831,14.293,36.766,9.407,1.636,6.429,13.206,5.476,-48.359,7.997,-12.148
2.9855186999998296,5.912,18.945,-3.503,13.449,39.105,3.09,17.575,7.07,13.656,-2.703,11.99,19.224,16.368,18.834,10.414,8.046,26.544,-20.137,12.203,11.205,37.242,5.3,-0.415,-0.238,1.409,1.372,-43.7,2.354,-17.259
2.985577800000101,7.443,15.34,-9.135,7.8,20.11,-4.598,-1.911,1.94,6.982,-9.872,2.756,12.033,11.228,16.766,3.231,-0.159,18.321,-17.556,6.043,7.608,35.155,-4.952,-0.926,-4.336,-3.203,-0.166,-34.435,-4.308,-21.853
3.0001973999997062,12.558,16.862,-7.076,12.403,0.622,-2.032,4.239,6.037,13.123,-12.424,3.266,12.021,9.68,18.799,7.839,2.915,19.839,-19.075,11.673,9.649,35.12,-0.848,1.636,0.791,9.608,1.371,-25.179,4.405,-13.634
3.000263399999767,6.398,15.82,-7.581,5.218,-1.427,-3.054,10.383,2.957,12.085,-14.461,-0.323,6.886,5.572,16.731,9.368,-2.723,22.381,-22.13,12.173,7.591,33.548,5.812,4.196,1.815,13.697,2.394,-29.764,10.549,-15.67
3.0153135000000475,1.269,11.193,-17.308,-4.008,11.382,-12.273,0.638,-4.731,6.438,-16.496,-4.422,0.219,3.517,12.103,1.162,-9.893,19.285,-20.058,9.087,5.534,31.978,4.782,7.266,0.789,12.146,3.929,-33.833,-0.733,-25.388
3.0153783999999177,6.39,10.158,-20.877,2.656,20.08,-9.699,5.761,4.495,12.579,-12.381,2.243,7.391,9.661,14.653,-0.889,-1.686,19.778,-17.989,17.275,11.676,31.946,7.339,10.844,6.423,18.282,5.974,-22.016,-6.367,-24.85
3.029288700000052,8.433,12.197,-19.319,5.727,14.424,-7.128,17.026,12.688,18.714,-6.221,5.314,11.994,11.188,15.663,4.235,1.902,20.27,-23.094,18.282,12.689,31.401,6.307,9.809,6.929,18.776,4.944,-16.359,1.324,-25.85
3.0293581000000813,4.839,12.697,-21.861,3.16,12.36,-11.219,10.349,8.577,17.671,-6.214,1.211,6.347,9.128,11.548,7.817,-3.735,15.127,-26.145,8.018,8.578,32.394,-1.384,4.164,0.775,16.196,1.352,-25.052,2.859,-29.923
3.044353499999943,7.395,13.709,-18.253,8.792,21.057,-3.523,15.974,17.79,21.752,-5.696,7.357,12.488,17.316,11.537,9.858,3.441,18.186,-25.606,10.059,11.131,32.874,-0.87,2.623,1.799,23.864,-1.21,-21.953,-2.779,-23.745
3.0444204999998874,11.486,13.695,-11.575,11.857,23.085,3.14,32.864,29.555,25.316,-2.616,16.059,22.722,21.397,14.599,10.873,11.122,27.901,-27.63,15.172,15.218,31.817,1.692,5.182,0.772,22.303,-1.209,-9.123,-4.313,-23.209
3.0593109999999797,8.401,12.144,-15.662,5.185,23.062,-2.498,20.023,23.378,22.217,-5.175,11.944,19.625,15.228,16.121,11.887,7.012,26.337,-28.627,7.985,13.666,30.248,-3.433,2.615,-12.036,5.887,-3.77,-8.089,-5.846,-32.92
3.074251600000025,6.856,14.182,-14.621,6.717,32.773,-0.959,-0.489,21.305,17.584,-6.707,9.371,16.532,14.188,16.618,12.9,5.981,19.138,-27.574,5.415,12.115,30.73,-4.454,-2.511,-15.61,3.32,-3.766,-9.618,-6.352,-28.788
3.075960600000144,12.484,18.778,-5.897,12.345,34.277,2.116,9.758,22.308,13.468,-6.7,11.411,16.515,14.174,15.064,9.813,5.975,17.582,-28.571,10.021,11.591,33.261,-2.4,-0.459,-7.398,11.513,1.361,1.662,1.851,-12.366
3.0893809999997757,15.546,19.784,-5.379,7.21,22.46,-5.059,18.969,7.941,9.356,-13.866,8.326,9.326,7.5,13.0,8.266,0.334,15.515,-28.03,7.449,10.555,35.277,-4.447,5.177,-4.317,10.477,3.409,13.956,12.095,-7.23
3.089441000000079,11.944,19.252,-6.911,3.104,19.364,-7.615,4.094,1.786,5.76,-17.95,3.706,5.219,2.881,14.524,11.844,-1.204,12.938,-24.928,4.368,10.032,34.217,-1.881,4.659,-4.825,15.077,2.893,12.917,13.108,-11.321
3.104771400000118,12.444,20.257,-3.318,7.712,24.98,-4.534,-7.694,9.469,3.705,-11.785,3.703,8.287,2.879,12.972,10.295,0.334,14.462,-23.879,10.511,9.509,29.572,4.268,6.192,-3.795,27.358,7.501,8.294,11.558,-12.335
3.104833299999882,19.604,23.311,-3.827,10.778,28.541,-5.554,-6.661,4.848,4.726,-10.236,7.285,9.304,3.9,7.836,8.236,1.871,17.009,-23.855,17.673,13.598,29.543,9.387,14.895,-1.742,29.38,13.129,15.458,16.157,-9.248
3.1193413000000874,28.806,30.46,0.276,11.792,36.197,-1.45,-5.118,4.331,7.796,-8.689,18.036,18.003,10.044,7.828,18.474,14.677,21.091,-19.22,22.778,24.343,39.759,19.624,24.614,10.555,33.961,17.727,31.324,23.825,-4.116
3.1193985999998404,36.974,39.139,8.984,18.44,45.382,7.773,-1.526,18.671,14.96,4.64,29.289,32.842,20.28,16.018,28.701,27.982,29.779,-11.004,29.928,30.979,53.039,27.289,29.712,21.815,46.222,22.32,39.489,26.875,0.499
3.134398499999861,34.888,34.489,4.877,20.471,44.825,7.766,3.086,21.214,22.117,10.271,29.26,36.908,25.895,23.174,24.574,25.393,34.872,-10.993,27.849,25.825,52.986,22.139,27.633,13.596,42.078,17.687,38.938,22.75,-3.6
3.136243200000081,23.582,19.085,-7.423,11.229,32.997,-0.951,4.62,9.41,16.972,-1.523,21.546,31.236,22.796,21.101,16.353,17.683,30.739,-20.716,16.55,18.627,43.2,13.92,18.384,0.263,26.154,7.423,41.973,15.043,-16.404
3.149427899999864,17.923,13.43,-14.588,2.509,23.23,-9.147,1.029,3.765,6.709,-10.231,14.352,24.545,16.625,16.47,14.287,12.03,20.974,-25.818,7.824,13.485,37.009,4.684,7.607,-5.885,21.005,2.292,38.857,7.855,-24.585
3.149490700000115,17.905,14.442,-21.234,-0.568,23.207,-11.187,-6.657,2.225,6.19,-12.27,6.141,14.786,12.51,12.355,11.711,2.796,13.781,-23.231,1.669,5.787,32.873,-9.665,-0.597,-14.076,14.836,-3.345,11.666,2.724,-27.634
3.164486300000135,12.764,8.792,-28.897,-4.153,21.134,-11.176,-5.625,-0.339,4.135,-17.38,-0.525,7.087,6.862,5.682,5.552,-7.453,14.279,-27.306,-4.481,-0.879,26.693,-15.291,-4.183,-21.234,7.137,-10.002,-20.621,-3.426,-33.754
3.1645508999999947,6.092,4.685,-30.917,-7.735,12.916,-13.727,5.139,3.76,-2.53,-21.974,-2.574,5.543,1.22,1.066,2.473,-12.569,14.265,-30.865,-3.452,0.147,25.641,-11.689,-5.203,-19.164,11.74,-9.992,-25.724,-5.984,-35.257
3.1794740999998794,5.061,5.705,-27.812,-7.215,14.952,-16.274,5.646,6.317,1.059,-21.952,-3.596,2.976,2.243,3.626,3.495,-15.118,10.665,-27.76,-1.911,1.683,28.69,-12.702,-5.198,-16.583,16.339,-5.884,-11.866,-1.367,-29.074
3.1795360999999502,1.982,0.576,-24.199,-4.647,21.597,-16.77,-5.631,1.7,4.132,-22.954,-6.666,-2.663,1.216,4.135,-0.607,-18.689,7.068,-30.294,-5.495,-2.417,28.149,-13.714,-5.193,-16.567,9.151,-4.853,-12.879,-3.928,-31.607
3.1944602999997187,-5.192,-5.573,-23.15,-7.203,17.477,-19.315,-8.699,-0.351,-2.532,-25.493,-9.221,-4.709,-5.445,0.545,-7.267,-21.744,4.499,-35.899,-6.002,-2.927,25.559,-10.114,-6.212,-19.624,8.117,-7.41,-26.186,-16.219,-36.186
3.2095125999999254,-7.749,-4.03,-22.614,-11.807,14.386,-20.833,0.531,2.211,-2.017,-23.418,-9.724,-4.192,-3.903,1.569,-6.747,-23.259,2.958,-32.277,-4.972,-0.362,26.046,-12.666,-7.743,-23.703,14.769,-7.915,-23.086,-14.154,-28.465
3.2095758000000387,-8.253,-3.514,-23.616,-13.332,16.421,-17.738,8.728,1.184,5.157,-20.833,-7.665,-2.651,2.761,4.129,-0.593,-21.699,5.516,-27.634,-5.991,-1.386,27.556,-15.727,-8.76,-23.167,11.168,-6.882,0.503,-5.43,-27.924
3.20961699999998,-9.27,-9.146,-30.253,-16.905,7.695,-16.696,4.621,0.159,5.152,-21.325,-4.584,0.938,4.296,2.588,-0.592,-16.042,7.048,-32.217,-3.936,-0.873,30.603,-13.662,-10.288,-23.656,2.447,-11.486,28.168,-14.134,-41.729
3.2245671000000584,-6.186,-10.161,-35.858,-19.45,5.126,-19.753,-7.167,4.257,3.097,-19.767,-0.481,9.134,8.39,1.048,-2.641,-7.316,9.09,-32.185,0.679,3.227,35.183,-12.624,-8.741,-24.657,3.982,-14.036,46.583,-20.78,-43.224
3.2406667000000198,-0.545,-4.515,-29.674,-10.721,17.929,-21.27,-5.111,5.277,4.631,-16.673,0.544,16.297,14.017,4.121,0.948,-0.649,12.667,-22.931,1.703,4.248,39.246,-8.0,-2.072,-16.948,12.687,-3.776,49.61,-10.001,-32.422
3.2407312000000275,-0.032,-1.437,-20.423,-5.075,18.935,-21.249,3.091,1.174,5.139,-18.193,-1.505,14.744,10.929,9.752,1.459,-1.673,13.167,-18.81,2.213,4.244,39.207,-3.894,-0.021,-11.295,16.773,0.326,46.999,-3.843,-31.878
3.2545986000000084,-4.13,-2.973,-22.964,-12.754,6.109,-22.252,-5.109,-3.438,3.085,-21.761,-3.553,6.532,7.844,9.742,-6.227,-9.356,9.567,-21.865,0.674,3.215,34.045,-12.087,-5.144,-17.944,14.195,-8.383,54.124,-8.962,-35.432
3.2546579999998357,-5.663,-1.945,-28.064,-13.254,6.615,-21.205,-19.448,-4.46,-0.505,-24.301,-6.623,0.89,4.762,6.659,-8.27,-16.007,8.533,-21.843,-5.987,-3.961,28.888,-20.272,-9.75,-22.537,5.984,-8.887,59.193,-8.953,-35.396
3.269679499999711,-2.584,5.229,-23.938,0.079,18.904,-19.647,-20.453,0.156,0.008,-22.74,-8.154,-2.185,-0.878,5.628,-4.675,-15.991,10.574,-17.21,-6.493,-4.981,31.42,-14.104,-6.666,-18.928,3.928,-1.706,51.961,-2.284,-34.849
3.269749099999899,3.567,12.396,-15.717,7.252,29.131,-20.14,-11.724,6.816,4.619,-14.52,-0.973,1.404,2.197,3.573,-3.646,-11.876,12.613,-14.119,2.223,4.245,41.635,-7.43,1.538,-15.835,12.634,-1.192,55.496,3.866,-27.642
3.28471189999982,4.588,10.335,-17.238,2.634,30.126,-22.681,-7.101,4.247,3.077,-12.456,3.126,7.55,7.318,1.52,-5.692,-10.84,8.501,-17.179,2.733,3.216,43.643,-9.472,-0.513,-16.332,12.109,-2.728,67.735,1.813,-27.102
3.28477840000005,-4.126,0.078,-31.053,-5.054,20.362,-27.782,-16.316,-6.516,-3.073,-21.153,-5.586,1.907,0.651,1.006,-7.735,-15.952,-1.753,-23.822,-6.491,-5.496,34.377,-15.097,-11.783,-21.951,-3.273,-5.799,63.569,-9.46,-44.493
3.2996539000000666,-9.245,-7.094,-40.756,-10.684,15.219,-32.877,-27.57,-9.583,-4.095,-24.718,-11.216,-6.292,-4.473,-2.069,-9.264,-22.596,-5.85,-26.872,-7.51,-5.491,31.269,-16.107,-10.747,-26.54,-5.831,-10.916,53.772,-17.135,-52.133
3.2997166000000107,-3.088,-6.575,-37.129,-11.186,20.839,-30.795,-20.37,-3.938,-4.091,-19.57,-7.106,-1.675,-1.395,-1.554,-7.718,-21.549,-0.209,-22.234,-1.867,-1.387,38.41,-12.505,-3.564,-22.927,5.958,-9.881,58.841,-16.606,-43.372
3.314655700000003,-4.11,-6.056,-33.506,-15.785,20.818,-28.203,-9.079,-3.422,-4.599,-21.088,-8.124,3.962,1.68,2.546,-6.173,-14.867,0.816,-21.7,-3.402,-2.922,39.909,-11.98,-6.634,-18.806,5.952,-5.26,64.93,-17.101,-43.841
3.3147149999999783,-10.766,-9.636,-33.985,-22.429,14.65,-32.273,-14.705,-8.029,-2.545,-24.653,-11.19,2.934,4.753,-2.58,-5.655,-11.266,-6.357,-26.289,-6.984,-4.456,35.77,-16.066,-8.165,-19.811,1.335,-7.816,65.377,-15.547,-44.309
3.329762099999698,-9.73,-9.626,-29.34,-17.796,15.147,-33.777,-24.937,-8.533,-4.08,-22.579,-8.617,3.955,4.748,-6.676,-7.186,-13.304,-7.888,-25.238,-4.928,-5.476,33.685,-16.563,-4.058,-21.329,5.945,-11.907,63.775,-13.482,-35.556
3.3298289999997905,-12.282,-8.08,-26.749,-16.754,15.132,-33.231,-24.912,-9.549,-7.662,-27.167,-11.682,0.878,-1.917,-0.009,-13.839,-17.902,-3.781,-21.114,-5.948,-9.569,32.115,-18.083,-8.152,-25.918,4.402,-11.383,56.027,-18.08,-35.008
3.344786699999986,-20.467,-11.658,-21.599,-27.496,8.457,-38.834,-18.227,-16.2,-8.679,-33.8,-19.867,-9.882,-4.477,-0.521,-19.973,-23.519,-5.314,-22.118,-11.065,-14.171,30.546,-24.725,-12.755,-28.966,-0.726,-12.908,55.458,-17.549,-30.362
3.344850800000131,-16.348,-9.085,0.964,-20.808,8.961,-40.332,-13.598,-16.696,-11.744,-32.741,-17.286,-12.946,-3.448,-6.156,-16.367,-27.594,-6.846,-19.022,-10.542,-13.644,33.077,-23.676,-9.156,-19.203,5.935,-15.457,70.26,-5.236,-6.765
3.360181999999895,-7.622,5.269,26.066,0.217,15.612,-32.607,-17.683,-10.019,-12.757,-31.172,-13.682,-9.347,-8.055,-1.539,-9.178,-26.542,-3.253,-13.88,-7.457,-12.093,34.58,-19.041,-7.098,-11.499,11.565,-12.368,75.825,3.99,11.684
3.360245500000019,-10.176,11.924,39.36,5.34,18.158,-34.111,-20.227,-12.571,-11.719,-31.653,-18.792,-12.411,-13.17,-1.538,-12.243,-27.028,-6.324,-15.915,-10.011,-14.131,33.521,-23.633,-8.115,-17.123,7.455,-7.744,64.991,5.523,18.845
3.3747771999996985,-13.752,3.715,56.739,1.236,14.554,-41.761,-14.059,-21.267,-17.343,-34.695,-19.798,-17.01,-13.669,-11.27,-19.915,-33.148,-11.953,-18.973,-13.075,-16.678,30.926,-27.708,-8.107,-21.204,7.447,-10.298,60.315,6.03,28.56
3.3748381999998855,-15.275,-2.949,71.027,-0.814,7.879,-43.769,-15.582,-21.246,-21.424,-42.345,-19.266,-18.017,-16.217,-14.845,-19.895,-35.164,-13.478,-21.515,-14.599,-18.198,27.309,-27.68,-14.247,-21.696,3.854,-15.411,60.255,-0.636,33.142
3.3898583000000144,-20.383,-3.458,74.03,-3.375,8.384,-45.774,-26.324,-15.59,-16.28,-41.79,-23.345,-16.974,-16.201,-13.293,-16.801,-31.031,-18.587,-26.617,-18.171,-19.205,27.794,-31.238,-16.794,-25.772,-9.983,-15.396,55.071,-5.758,29.011
3.389922999999726,-17.289,2.181,83.69,2.264,19.134,-45.216,-25.274,-11.475,-13.189,-29.453,-18.198,-10.298,-7.988,-10.206,-17.297,-24.852,-23.179,-24.029,-18.152,-15.087,34.939,-29.67,-9.605,-21.648,-13.047,-9.745,57.578,3.981,34.617
3.4048726999999417,-11.636,7.814,96.926,6.872,21.164,-37.487,-19.101,-8.39,-12.664,-26.862,-9.471,-2.603,-3.369,-5.073,-14.718,-18.679,-18.033,-16.832,-15.573,-10.973,38.49,-24.005,-11.132,-18.04,-1.763,-7.173,66.229,9.1,47.902
3.4049378999998225,-18.797,1.146,97.854,-0.307,9.359,-40.523,-21.131,-11.456,-12.139,-35.032,-17.658,-6.186,-7.464,-7.117,-13.679,-21.735,-18.527,-22.451,-19.656,-17.11,33.328,-33.203,-22.904,-33.904,-3.81,-14.851,64.114,-3.717,47.342
3.4198467000001074,-24.413,-6.027,99.805,0.718,2.178,-50.216,-21.11,-15.03,-15.713,-38.583,-27.887,-14.377,-9.506,-14.282,-19.813,-30.934,-22.095,-31.138,-24.759,-23.241,28.684,-42.391,-24.418,-40.53,-17.639,-22.008,54.828,-8.836,39.098
3.419905299999755,-21.315,-2.948,103.291,5.841,2.688,-48.117,-21.601,-13.478,-18.771,-39.569,-26.322,-13.338,-11.545,-13.243,-24.404,-32.44,-18.487,-28.033,-23.197,-20.656,29.168,-38.25,-19.271,-27.169,-16.596,-19.937,53.237,-3.704,41.108
3.434849299999769,-28.978,-9.092,95.504,-7.998,-6.024,-49.606,-28.751,-20.125,-21.314,-46.702,-30.906,-17.423,-17.169,-12.718,-26.429,-36.506,-20.005,-23.906,-27.785,-23.709,25.553,-43.847,-24.887,-28.679,-8.895,-19.917,56.257,-8.823,43.116
3.449823699999797,-40.733,-18.305,90.285,-17.723,-19.85,-57.241,-29.747,-29.839,-26.416,-50.242,-39.073,-30.213,-19.714,-16.291,-29.476,-47.228,-25.621,-26.444,-36.466,-31.882,21.941,-54.05,-33.059,-40.434,-13.497,-25.02,52.615,-19.061,32.315
3.4515301000001273,-30.958,-8.553,94.805,-3.873,-15.22,-50.011,-28.181,-22.636,-24.34,-41.482,-32.373,-28.646,-17.645,-16.787,-26.373,-45.644,-24.058,-25.905,-32.331,-27.752,28.579,-45.286,-26.366,-34.245,-15.533,-21.921,48.464,-16.48,29.721
3.4649681000000783,-20.169,1.19,97.785,4.84,-0.347,-40.227,-32.763,-13.392,-18.168,-36.318,-24.656,-19.396,-17.627,-17.283,-21.736,-38.939,-23.522,-21.781,-24.615,-22.089,36.747,-35.507,-17.118,-27.551,-8.345,-14.215,53.026,-9.804,41.986
3.465031799999906,-28.345,-6.496,96.15,-5.924,-1.884,-47.359,-32.218,-20.551,-22.761,-43.454,-31.292,-25.524,-21.708,-19.827,-24.275,-45.56,-25.035,-22.271,-29.201,-26.678,32.1,-41.107,-20.687,-32.134,-10.898,-14.713,55.534,-10.306,42.457
3.480425799999921,-34.465,-10.588,85.808,-13.09,-9.054,-54.484,-28.6,-27.191,-28.886,-47.509,-35.359,-34.72,-26.297,-19.807,-27.837,-51.149,-22.961,-25.835,-32.758,-31.262,24.383,-43.115,-26.814,-32.615,-21.133,-21.871,49.331,-17.468,28.582
3.4804998999998134,-27.258,-9.553,75.476,-8.466,-1.873,-51.868,-26.522,-19.991,-22.197,-41.826,-28.151,-28.026,-23.197,-19.787,-27.809,-46.488,-24.475,-23.248,-30.163,-30.718,27.945,-41.023,-25.762,-33.094,-23.674,-25.435,44.671,-23.086,22.406
3.4949444999997468,-25.694,-14.154,76.425,-3.335,4.789,-47.718,-16.249,-12.287,-13.465,-34.612,-23.0,-17.239,-12.415,-14.645,-27.269,-42.343,-23.938,-16.565,-33.719,-31.2,35.601,-44.568,-25.737,-40.233,-21.089,-21.823,43.602,-23.575,20.846
3.49501169999985,-32.84,-18.238,73.274,-8.967,-2.901,-44.084,-12.135,-11.762,-11.915,-33.04,-24.002,-15.173,-6.767,-5.921,-23.656,-39.226,-18.279,-16.548,-39.321,-31.169,34.029,-47.085,-29.809,-42.755,-17.481,-21.289,41.509,-24.576,14.678
3.51001929999984,-37.931,-21.294,57.832,-18.179,-11.607,-45.577,-28.004,-15.849,-16.514,-38.13,-28.588,-19.256,-12.908,-10.013,-24.144,-38.163,-22.871,-21.655,-36.72,-31.137,25.798,-49.599,-32.853,-41.687,-18.489,-28.953,41.468,-27.113,5.442
3.5119245999999293,-39.942,-26.396,51.114,-17.649,-14.157,-53.728,-36.685,-18.394,-21.108,-40.141,-33.171,-24.36,-16.481,-18.2,-31.293,-42.735,-30.533,-22.145,-33.097,-34.18,21.674,-53.136,-31.796,-41.133,-22.056,-32.51,36.815,-28.623,1.338
3.5250983999999335,-38.877,-22.783,54.137,-13.02,-15.167,-51.113,-24.353,-13.253,-17.501,-36.515,-31.601,-24.335,-12.879,-14.596,-30.749,-41.668,-22.818,-16.488,-32.552,-34.146,24.726,-50.521,-24.08,-35.969,-16.911,-27.354,28.069,-26.033,6.459
3.525159799999983,-35.252,-14.563,54.083,-10.446,-13.615,-45.426,-14.595,-11.703,-14.922,-38.528,-27.983,-21.237,-14.403,-8.433,-22.521,-37.528,-16.647,-11.348,-29.445,-29.501,25.213,-48.422,-18.932,-29.786,-7.673,-25.79,29.578,-16.785,14.138
3.540110399999776,-34.705,-13.012,56.59,-7.361,-12.577,-48.455,-14.58,-18.351,-20.542,-41.563,-29.492,-23.777,-21.048,-10.474,-26.085,-40.564,-25.34,-12.874,-31.465,-30.496,25.188,-50.422,-27.11,-27.707,-8.69,-26.789,37.233,-8.572,16.685
3.540175900000122,-37.744,-15.048,51.923,-5.817,-18.712,-49.431,-19.689,-18.845,-25.132,-41.009,-33.048,-32.463,-24.101,-19.685,-33.231,-44.622,-31.974,-22.082,-39.631,-38.15,26.7,-50.372,-34.256,-29.728,-14.829,-24.2,35.147,-13.686,12.058
3.555041799999799,-38.218,-17.082,33.428,-10.422,-28.94,-47.332,-30.428,-18.314,-28.181,-47.116,-38.651,-37.041,-26.126,-28.887,-29.612,-49.7,-32.967,-29.745,-41.64,-41.698,22.062,-51.346,-30.123,-35.334,-19.424,-24.176,27.939,-23.406,2.312
3.555105399999775,-35.106,-16.041,26.222,-11.436,-33.009,-50.871,-36.545,-25.98,-33.276,-54.753,-41.174,-37.004,-29.174,-29.371,-24.459,-56.311,-34.471,-28.691,-38.525,-39.095,15.893,-51.295,-27.531,-37.86,-19.917,-26.201,24.837,-24.407,-3.326
3.5700561999997262,-33.022,-13.463,32.343,-7.326,-31.439,-48.259,-30.873,-23.905,-28.632,-49.575,-35.497,-34.406,-26.583,-23.194,-25.972,-51.131,-29.826,-22.002,-36.437,-36.494,19.463,-48.17,-25.967,-33.211,-13.75,-23.613,24.813,-25.92,-2.298
3.5717578999997386,-30.94,-16.523,28.213,-7.319,-31.408,-41.038,-26.744,-14.147,-22.968,-43.378,-28.289,-28.224,-19.897,-20.096,-23.384,-39.297,-26.21,-17.369,-30.765,-33.384,25.591,-46.072,-22.867,-32.153,-10.15,-22.565,24.275,-30.505,-8.956
3.585133499999756,-26.298,-20.605,13.84,-12.435,-27.278,-40.485,-28.254,-15.67,-22.945,-39.236,-22.626,-19.486,-13.729,-15.978,-14.652,-35.672,-27.208,-15.815,-24.074,-27.715,28.127,-40.391,-22.844,-33.146,-14.238,-21.518,23.227,-28.425,-21.754
3.5851960999998482,-25.247,-20.072,0.506,-18.058,-21.615,-39.42,-30.787,-15.654,-18.311,-30.488,-17.992,-14.344,-10.129,-11.351,-10.538,-32.05,-23.083,-13.237,-24.05,-25.126,29.636,-35.74,-22.309,-32.088,-20.372,-15.861,20.642,-29.421,-28.905
3.6001759999999194,-27.783,-22.102,-6.667,-19.577,-26.717,-36.819,-34.342,-7.954,-15.731,-29.433,-18.999,-12.28,-12.168,-12.364,-16.163,-27.407,-18.961,-8.101,-29.149,-26.638,24.996,-42.364,-23.311,-39.228,-25.474,-17.382,17.035,-38.613,-35.024
3.600241300000107,-23.657,-21.055,-2.049,-14.434,-31.813,-35.757,-34.82,-4.872,-19.302,-33.502,-19.492,-11.755,-12.156,-11.327,-17.684,-28.917,-22.528,-4.507,-29.633,-28.148,21.897,-46.932,-29.948,-45.337,-23.912,-24.537,14.456,-36.526,-34.989
3.615510799999811,-16.461,-10.275,5.637,-6.223,-27.683,-28.549,-26.076,-0.769,-12.622,-27.32,-15.886,-11.744,-5.996,-7.73,-10.494,-27.351,-18.92,-3.478,-24.992,-27.608,27.51,-41.25,-29.406,-35.045,-14.154,-20.926,13.93,-22.144,-20.609
3.6155711000001247,-19.006,-8.728,-1.028,-4.167,-32.266,-26.471,-18.366,0.769,-7.487,-27.805,-19.969,-12.756,-7.015,-12.333,-10.996,-26.299,-16.851,-5.523,-24.455,-27.068,26.458,-42.746,-24.765,-29.375,-13.628,-18.856,9.817,-18.536,-17.515
3.630144599999767,-27.696,-19.99,-11.786,-13.385,-45.554,-38.74,-19.884,-11.015,-19.262,-41.098,-31.732,-21.453,-18.791,-19.493,-20.719,-36.519,-30.155,-11.666,-30.066,-31.651,15.673,-46.801,-27.815,-38.567,-19.762,-27.034,1.098,-27.227,-34.916
3.6452338999997664,-30.743,-22.532,-13.311,-21.568,-46.02,-45.362,-24.987,-19.201,-26.415,-46.18,-33.75,-29.628,-23.895,-21.01,-22.235,-41.093,-35.247,-11.142,-29.523,-34.181,15.657,-41.119,-27.274,-36.992,-12.57,-25.47,-1.977,-30.273,-36.418
3.6452964000000065,-27.638,-18.923,-12.273,-13.862,-36.24,-39.681,-22.913,-13.034,-20.754,-41.01,-27.568,-24.988,-18.236,-21.502,-16.577,-33.367,-27.528,-6.007,-24.371,-30.561,24.863,-35.443,-20.075,-27.221,-2.311,-15.199,-2.487,-22.046,-22.037
3.659236999999848,-25.049,-18.392,-13.285,-4.114,-28.007,-37.08,-18.28,-9.435,-16.634,-38.408,-24.467,-20.865,-14.632,-20.968,-15.536,-31.797,-31.086,-8.563,-26.908,-29.506,22.789,-35.92,-19.542,-27.706,-4.358,-14.671,-14.268,-17.413,-25.601
3.6593010000001414,-32.196,-18.373,-16.858,-10.258,-17.221,-42.678,-22.872,-12.499,-19.692,-38.369,-25.467,-28.016,-21.277,-20.435,-23.205,-36.888,-39.252,-14.702,-33.541,-37.673,12.008,-39.982,-25.158,-33.314,-13.575,-18.755,-31.16,-27.13,-41.457
3.674261199999819,-42.41,-21.941,-22.989,-18.957,0.215,-49.295,-33.095,-12.487,-23.258,-43.454,-31.077,-30.55,-25.354,-24.0,-33.428,-39.413,-38.188,-12.126,-35.557,-44.296,6.361,-45.065,-30.769,-37.379,-21.246,-22.835,-39.325,-37.349,-46.538
3.674326999999721,-40.831,-27.555,-28.089,-15.864,7.387,-50.271,-38.698,-6.327,-21.698,-43.411,-32.583,-24.884,-15.595,-24.489,-33.395,-37.324,-36.613,-10.577,-34.497,-43.227,10.453,-47.069,-29.201,-38.878,-19.176,-26.91,-40.823,-33.725,-43.418
3.689228599999751,-32.081,-24.966,-30.623,-14.823,-8.502,-43.56,-35.073,-3.759,-20.139,-38.244,-25.89,-23.322,-8.407,-18.829,-24.14,-31.651,-39.138,-13.128,-33.437,-39.085,17.102,-43.436,-24.049,-35.253,-8.398,-23.297,-42.319,-29.593,-42.35
3.6892892000000757,-31.024,-22.379,-34.69,-23.006,-26.937,-42.492,-25.816,-12.976,-25.242,-43.841,-24.327,-24.323,-16.596,-18.81,-20.529,-29.058,-38.587,-11.578,-32.379,-38.534,19.134,-39.807,-28.123,-35.218,-8.902,-21.737,-41.764,-34.174,-45.381
3.704353099999935,-29.968,-23.894,-34.143,-21.958,-32.545,-45.011,-23.229,-21.16,-29.828,-51.482,-28.401,-23.786,-21.19,-22.377,-20.509,-30.054,-34.45,-6.955,-32.347,-38.495,19.115,-41.816,-32.193,-38.769,-15.041,-26.326,-35.575,-30.554,-46.873
3.7044114999998783,-23.791,-19.771,-32.06,-13.227,-40.197,-39.843,-36.013,-14.479,-30.823,-47.332,-25.811,-23.25,-17.582,-22.867,-15.878,-24.901,-30.829,-5.412,-29.753,-34.358,24.732,-42.799,-22.94,-33.607,-8.366,-21.689,-31.953,-22.839,-45.801
3.7193443999999545,-21.205,-15.141,-35.102,-13.214,-53.989,-36.217,-42.637,-7.805,-31.304,-45.748,-23.736,-23.227,-20.639,-24.894,-14.325,-20.265,-33.872,-4.381,-25.625,-29.201,32.904,-37.633,-20.867,-24.864,-5.796,-13.47,-36.02,-22.304,-45.243
3.719407499999761,-20.672,-16.15,-33.53,-15.25,-58.034,-37.718,-27.738,-10.871,-27.174,-48.776,-24.737,-24.741,-24.717,-25.893,-15.847,-24.343,-39.473,-6.426,-25.599,-28.659,33.383,-34.522,-26.482,-23.815,-10.913,-14.482,-35.471,-19.72,-42.637
3.7354181999999128,-19.627,-14.597,-28.373,-11.136,-59.0,-34.094,-13.365,-8.811,-25.098,-45.653,-23.688,-29.327,-23.155,-25.355,-13.782,-29.442,-39.946,-11.031,-28.648,-31.192,29.764,-37.561,-22.357,-26.865,-5.779,-18.053,-29.8,-18.163,-40.032
3.73547759999974,-26.267,-15.607,-35.517,-15.223,-66.114,-33.035,-18.987,-8.802,-31.22,-47.657,-28.275,-33.396,-24.669,-28.916,-14.793,-34.536,-38.882,-12.044,-32.205,-34.747,26.148,-38.036,-22.847,-32.986,-5.261,-21.109,-35.918,-31.977,-49.726
3.7494480999998814,-35.462,-26.35,-48.289,-25.966,-68.609,-36.076,-27.678,-14.428,-30.677,-49.659,-31.833,-32.85,-25.156,-31.961,-20.926,-36.55,-36.281,-13.057,-31.148,-37.274,26.122,-35.948,-29.996,-38.588,-16.526,-24.162,-49.202,-44.753,-62.484
3.749512699999741,-31.841,-30.934,-49.778,-27.99,-59.831,-31.942,-29.187,-8.266,-22.962,-39.875,-22.067,-26.157,-16.422,-24.757,-20.393,-23.706,-26.511,-14.581,-21.383,-30.064,34.805,-32.839,-20.233,-34.451,-14.461,-20.039,-51.715,-42.147,-62.934
3.764458999999988,-24.124,-26.805,-47.167,-26.425,-48.501,-30.373,-28.645,0.963,-19.865,-31.638,-13.336,-12.811,-7.184,-15.51,-12.176,-8.313,-16.751,-8.931,-13.677,-22.349,46.041,-23.584,-9.454,-29.293,-5.225,-14.896,-48.077,-37.494,-60.822
3.7645219000000907,-22.051,-27.291,-50.706,-27.423,-44.866,-34.441,-22.469,-0.574,-15.234,-31.607,-11.273,-1.528,-1.541,-8.835,-9.09,-4.206,-10.074,1.324,-12.127,-21.302,48.556,-16.901,-12.518,-29.264,-4.707,-16.93,-46.492,-37.969,-62.81
3.7794073999998545,-20.492,-28.288,-53.729,-23.809,-45.846,-27.746,-10.663,-0.574,-9.584,-29.526,-7.164,0.011,2.559,-0.629,-12.667,1.946,-5.453,7.983,-7.504,-19.232,46.971,-20.982,-11.481,-27.186,-3.678,-17.938,-48.495,-37.418,-62.235
3.779474299999947,-19.959,-27.747,-58.798,-24.298,-44.775,-24.132,-11.165,0.451,-13.672,-30.521,-9.206,-1.526,1.019,0.909,-11.629,8.091,-6.985,10.024,-6.472,-18.188,42.313,-25.06,-7.371,-26.134,-5.211,-18.945,-63.303,-39.43,-63.71
3.794444399999975,-26.599,-33.355,-65.912,-35.032,-45.243,-30.256,-24.986,-5.697,-20.319,-36.638,-18.93,-3.574,-5.642,-10.363,-9.056,-1.651,-11.076,5.403,-14.15,-26.367,31.512,-29.133,-15.561,-33.792,-12.378,-26.61,-95.515,-42.465,-68.257
3.809378099999776,-31.696,-34.858,-62.26,-37.046,-49.296,-26.127,-33.158,-8.253,-22.86,-42.749,-23.522,-15.866,-12.296,-19.062,-16.219,-19.067,-13.114,-3.311,-18.746,-34.537,26.358,-38.838,-24.254,-37.345,-10.829,-29.145,-124.621,-40.885,-66.139
3.8094403000000057,-28.078,-22.016,-53.488,-26.251,-45.66,-19.953,-28.514,-6.707,-24.886,-48.342,-28.622,-28.145,-17.407,-18.531,-22.351,-27.758,-22.835,-7.406,-21.802,-35.527,26.843,-42.385,-23.718,-31.16,-3.646,-25.53,-130.132,-33.672,-58.389
3.824434900000142,-21.902,-14.309,-52.41,-20.589,-36.906,-26.081,-24.9,-9.775,-26.398,-49.83,-31.667,-29.142,-19.951,-18.512,-16.181,-28.242,-35.62,-2.788,-26.39,-34.467,22.206,-37.22,-19.596,-26.518,-0.056,-23.968,-123.342,-23.392,-53.207
3.8262798000000657,-18.806,-14.295,-53.894,-17.495,-35.332,-25.03,-23.338,-7.716,-23.81,-44.657,-23.951,-27.063,-15.833,-17.469,-14.628,-27.189,-34.56,4.387,-21.241,-32.384,24.233,-33.596,-15.478,-24.954,5.067,-21.382,-123.731,-17.733,-51.105
3.839507599999706,-17.763,-9.158,-46.156,-10.305,-38.883,-16.809,-14.093,-3.097,-16.102,-40.514,-19.316,-26.524,-11.206,-13.353,-19.736,-25.113,-27.865,11.043,-11.998,-26.716,35.992,-27.415,-12.901,-22.368,6.599,-15.213,-126.169,-16.179,-44.906
3.8395682000000306,-18.257,-3.513,-37.913,-10.807,-38.331,-18.841,-5.882,-3.606,-9.938,-39.961,-20.321,-21.887,-11.707,-13.34,-13.056,-20.989,-28.35,16.155,-8.4,-19.517,41.079,-14.067,-7.765,-18.759,3.519,-9.05,-118.87,-11.552,-32.053
3.854940700000043,-15.165,-4.022,-43.51,-15.919,-35.732,-18.31,-7.925,-1.041,-8.904,-36.848,-15.178,-16.229,-7.085,-13.326,-2.285,-10.21,-27.297,21.262,-1.732,-12.837,42.575,-4.832,0.952,-10.031,7.101,-6.48,-102.87,-8.466,-29.46
3.8550092000000404,-10.539,-4.018,-56.787,-16.416,-36.72,-13.681,-9.967,2.034,-4.796,-34.249,-10.04,-9.553,3.168,-9.215,-3.307,2.096,-21.634,22.265,4.418,-9.751,50.217,-2.266,1.976,-5.923,13.754,-7.498,-77.151,-11.02,-45.312
3.8695314000001417,-16.164,-7.088,-66.464,-20.498,-45.393,-20.839,-10.469,-3.091,-4.792,-34.727,-14.128,-4.933,2.653,-10.23,-10.476,3.631,-21.612,15.07,-1.222,-10.766,48.117,-5.849,-4.174,-15.651,14.765,-10.052,-61.705,-16.132,-54.488
3.8695944999999483,-26.394,-14.253,-71.52,-28.674,-55.594,-27.479,-18.143,-5.65,-11.447,-38.791,-20.774,-10.051,-5.547,-13.806,-14.052,-2.521,-29.275,9.932,-6.856,-13.316,36.798,-14.553,-5.194,-24.857,11.164,-14.652,-79.062,-23.288,-50.847
3.8845541999999114,-24.831,-17.825,-72.986,-29.67,-55.026,-25.914,-21.199,-2.058,-9.386,-40.801,-19.729,-12.09,-3.492,-11.231,-12.501,-3.03,-32.832,15.045,-5.312,-14.328,36.249,-14.026,-2.627,-22.782,7.054,-18.224,-98.963,-26.851,-55.407
3.8862266000001,-17.121,-15.245,-70.351,-26.054,-46.262,-26.913,-15.542,-2.568,-4.254,-35.638,-13.561,-5.418,2.147,-10.707,-9.927,0.559,-28.189,17.08,-5.307,-13.289,40.824,-7.352,-6.211,-21.735,6.023,-17.693,-86.568,-21.701,-59.963
3.899588799999947,-14.543,-10.107,-64.646,-20.393,-43.141,-26.886,-13.99,-5.127,-10.397,-32.528,-13.035,-8.486,-2.466,-16.844,-10.429,-2.516,-29.185,11.939,-11.962,-14.812,34.635,-15.029,-13.889,-28.886,2.431,-17.676,-73.162,-17.581,-49.657
3.899652900000092,-8.893,-1.9,-53.823,-9.102,-39.512,-21.224,-13.976,-1.536,-10.387,-33.52,-16.096,-16.163,-6.562,-18.364,-10.419,-7.636,-32.742,11.415,-19.122,-19.408,28.965,-25.26,-20.023,-38.078,-5.256,-18.683,-79.749,-15.514,-40.898
3.914640099999815,2.899,6.811,-41.986,4.74,-29.739,-15.055,-8.326,7.687,-2.692,-26.827,-11.469,-11.023,-3.994,-14.247,-6.822,-8.141,-27.074,13.965,-20.128,-20.413,33.035,-22.673,-22.565,-34.966,-5.251,-15.59,-82.743,-4.74,-38.295
3.9147048999998333,5.97,9.366,-36.308,11.907,-28.172,-13.503,-7.293,12.29,-6.275,-22.701,-7.359,-8.963,-6.551,-12.696,-7.328,-8.133,-23.461,12.414,-16.009,-18.344,32.489,-18.04,-18.956,-21.099,0.902,-9.939,-80.099,2.437,-31.085
3.9295962999999574,0.329,8.844,-36.784,8.822,-36.341,-16.563,-9.848,4.593,-10.88,-30.363,-12.987,-17.151,-12.692,-15.757,-10.394,-11.199,-26.511,11.89,-14.456,-18.838,25.797,-16.485,-13.814,-18.516,4.487,-7.368,-81.043,-0.127,-26.443
3.9296565999998165,1.865,10.885,-39.309,0.616,-38.354,-19.62,-6.764,-0.022,-6.77,-33.919,-17.073,-21.745,-14.729,-15.741,-8.335,-17.335,-26.484,11.365,-20.077,-23.942,22.185,-13.395,-12.263,-26.183,8.069,-7.36,-78.4,0.386,-29.49
3.9447329999998146,0.839,8.312,-44.393,-4.508,-39.852,-17.552,-5.733,1.003,-8.3,-34.91,-19.105,-25.821,-17.788,-16.238,-8.839,-26.539,-27.483,7.256,-25.18,-28.529,17.04,-14.918,-11.226,-25.644,6.524,-7.353,-81.908,-0.639,-38.682
3.9464130999999725,-9.92,-1.43,-51.521,-6.04,-48.009,-19.071,-9.313,-5.146,-12.903,-38.973,-24.209,-25.283,-18.795,-19.808,-13.441,-26.0,-29.504,11.859,-20.544,-22.865,12.924,-13.366,-8.141,-19.983,0.882,-6.833,-94.122,-11.397,-49.402
3.959716599999865,-11.447,-5.015,-56.08,-8.083,-45.912,-23.15,-11.865,-5.141,-7.767,-32.787,-18.037,-10.913,-11.092,-14.665,-10.866,-5.994,-25.376,23.118,-10.277,-11.059,20.084,-4.132,-4.035,-17.914,6.516,-7.851,-94.028,-14.46,-48.84
3.9598267000001215,-3.239,-1.936,-55.512,-8.588,-36.132,-19.029,-14.927,6.647,-1.611,-22.508,-6.236,1.905,-0.834,-4.404,-3.17,11.942,-21.253,22.07,-3.095,-6.437,28.26,0.483,1.093,-13.797,18.293,-7.331,-84.712,-5.224,-38.545
3.974813599999834,-2.211,-2.446,-52.382,-9.091,-38.658,-16.448,-12.351,7.153,-2.122,-20.948,-4.693,3.953,4.29,-5.424,-2.142,13.98,-18.67,16.925,1.007,-3.357,25.158,3.557,9.288,-8.148,19.811,-2.713,-88.213,-3.169,-37.482
3.990085999999792,-4.258,-4.493,-49.768,-12.668,-42.205,-20.018,-1.58,2.023,-2.12,-16.317,-4.688,8.047,4.798,-7.981,-2.14,16.015,-13.016,23.056,5.616,2.794,18.985,9.701,12.353,-8.652,17.742,-1.173,-94.785,-7.777,-41.031
3.9901466999999684,-3.229,-5.001,-48.182,-12.656,-34.991,-18.461,0.983,11.242,1.981,-13.226,-0.073,9.576,3.256,-2.85,-2.65,20.61,-15.564,26.619,5.099,-0.282,15.38,6.105,5.168,-15.816,18.749,-7.832,-93.666,-11.355,-35.354
4.004805600000054,-4.763,-3.459,-48.133,-8.032,-31.882,-16.393,-6.19,13.792,1.979,-17.824,-0.585,5.468,4.79,-4.384,-1.111,18.54,-20.672,20.445,-2.079,-5.405,13.828,-1.586,-2.522,-22.973,18.218,-11.923,-92.548,-10.831,-33.782
4.004883699999937,-1.172,2.18,-46.036,-6.487,-35.949,-18.938,-6.696,7.631,-0.073,-16.269,-1.097,3.925,6.322,-8.478,5.55,16.472,-14.503,17.35,-4.126,-0.277,13.302,1.49,-0.982,-21.413,15.638,-8.837,-93.48,-4.673,-36.31
4.019882000000052,2.415,2.69,-45.478,-9.042,-38.474,-19.944,-4.64,9.16,-1.609,-12.667,-0.583,0.848,-1.882,-6.42,4.52,14.406,-8.853,14.259,-0.536,1.26,10.215,7.636,4.654,-13.707,9.987,-6.779,-91.337,-2.619,-34.224
4.019948099999965,-4.247,-6.022,-49.531,-11.083,-43.046,-21.461,-10.271,4.028,-6.219,-20.339,-7.243,-7.862,-9.564,-9.487,-7.267,8.244,-12.943,8.097,-0.535,-2.327,7.643,8.141,5.162,-11.644,4.854,-4.21,-89.196,-8.764,-38.289
4.03489159999981,-5.78,-6.016,-52.043,-8.51,-41.466,-25.538,-10.773,-3.661,-8.774,-24.417,-9.285,-10.416,-6.481,-15.113,-5.723,6.699,-12.93,10.651,-1.047,0.749,8.66,11.719,5.157,-12.657,9.46,2.966,-90.644,-6.706,-41.836
4.034959099999924,7.546,7.31,-43.794,-1.841,-29.642,-22.439,0.509,5.052,-3.642,-17.732,-1.591,-5.283,-3.913,-9.463,3.504,12.328,-7.282,16.788,1.516,2.285,9.164,15.805,9.25,-7.009,16.623,6.037,-92.09,5.084,-33.085
4.049877500000093,13.174,13.963,-37.09,2.771,-27.051,-15.244,6.143,13.244,0.972,-13.616,0.973,-3.228,-4.934,-8.941,1.451,13.34,-4.713,13.185,0.49,-1.303,7.105,13.228,8.729,-5.465,16.094,7.056,-88.412,8.665,-27.929
4.0499354999997195,11.624,11.387,-37.565,5.33,-33.684,-10.618,5.113,11.182,0.971,-12.578,-0.053,-6.299,-2.879,-17.129,-0.599,6.667,-3.684,9.073,-1.56,0.747,7.61,12.19,7.183,-6.996,17.615,10.635,-78.078,9.168,-27.901
4.064863999999943,20.834,16.499,-30.355,11.985,-30.064,-3.435,7.669,18.855,4.557,-5.905,7.632,-2.194,0.197,-11.476,8.623,7.172,-1.631,10.089,3.564,6.894,10.164,19.863,16.91,3.257,26.307,13.186,-65.192,19.405,-16.603
4.064926399999877,31.059,26.216,-18.03,19.145,-23.374,3.741,7.661,28.57,8.138,3.322,14.796,8.054,3.271,-2.243,14.25,16.899,-2.654,5.468,6.635,7.4,14.253,25.478,22.528,11.963,30.891,14.197,-57.954,31.681,-7.877
4.0799253000000135,24.88,23.629,-21.598,15.54,-31.547,0.663,7.654,21.369,4.544,3.319,11.708,5.997,5.317,-9.926,10.649,15.858,-12.385,-0.685,0.48,2.782,10.652,16.743,9.698,2.217,25.737,11.109,-65.581,27.039,-15.041
4.079984699999841,17.171,15.408,-29.261,11.426,-41.762,-4.46,14.818,10.077,2.49,-1.295,8.11,-2.206,1.725,-14.527,8.077,2.522,-20.057,-0.685,-6.18,-1.832,-1.141,4.944,-0.558,-7.007,18.539,3.926,-74.225,13.18,-18.1
4.0949359000001095,12.021,10.262,-32.781,13.968,-48.84,-4.959,18.88,1.359,2.487,-2.825,5.023,-5.779,-2.373,-10.907,8.576,-9.253,-23.596,0.341,-12.821,-3.361,-15.472,-4.276,-4.645,-12.619,9.288,-2.735,-75.604,-1.178,-18.573
4.1099654999998165,7.91,11.277,-33.772,11.905,-48.279,-0.855,1.955,5.968,0.948,-0.261,2.457,-0.65,1.216,-11.408,9.592,-0.022,-17.937,-1.708,-11.271,-0.796,-10.846,-0.686,-5.665,-13.631,6.717,-0.171,-68.869,-0.664,-27.776
4.1253515999997035,-4.905,-5.641,-50.133,-11.16,-66.162,-12.125,-2.658,-6.845,-7.762,-9.482,-4.206,-10.896,-5.958,-17.545,4.459,-7.707,-20.992,-3.756,-13.822,-5.918,-19.544,-8.882,-19.492,-27.962,-3.536,-8.88,-79.558,-18.082,-44.654
4.125409599999784,-10.023,-16.906,-60.841,-24.982,-77.879,-25.433,4.517,-21.695,-14.415,-16.133,-8.812,-13.959,-13.636,-12.404,2.918,-12.31,-21.996,-1.703,-12.783,-5.4,-27.722,-10.41,-15.886,-31.52,-8.656,-11.433,-86.651,-26.773,-51.27
4.140006000000085,-4.89,-7.155,-54.632,-16.247,-66.018,-20.797,6.562,-14.501,-5.691,-7.407,-5.217,-1.65,-4.401,-4.707,7.013,2.047,-16.851,7.52,-2.524,4.852,-20.009,5.482,3.085,-16.119,0.575,1.387,-76.831,-10.865,-45.071
4.154986000000008,-0.787,-0.488,-47.918,-8.547,-59.292,-10.018,6.043,-3.216,6.098,-0.228,1.96,1.426,3.288,-2.141,6.494,9.217,-11.199,18.271,6.7,8.433,-14.866,13.673,8.717,-4.32,9.796,4.971,-69.069,-3.682,-35.804
4.156677599999966,-1.298,-4.074,-46.333,-8.538,-67.429,-10.52,9.623,-5.774,2.505,-6.375,0.421,-8.309,-4.4,-1.626,6.487,2.036,-9.138,20.302,4.132,5.863,-18.437,7.0,2.049,-9.439,11.323,-2.718,-73.611,-11.875,-33.719
4.156725499999993,-5.396,-5.606,-46.799,-8.017,-74.022,-16.145,12.687,-7.818,-5.182,-13.541,-9.313,-17.01,-14.642,-6.235,10.579,-8.725,-14.252,12.597,-3.045,2.271,-20.468,-2.229,-1.027,-17.626,11.311,-7.839,-77.123,-14.937,-36.759
4.170094300000073,-6.927,-6.625,-48.289,-5.448,-82.145,-16.641,11.65,-6.273,-6.201,-15.577,-14.427,-24.678,-18.726,-14.426,6.47,-20.499,-22.435,2.851,-8.165,-3.366,-26.083,-10.936,-5.637,-21.195,8.226,-11.929,-71.923,-14.409,-37.235
4.170165900000029,0.764,-1.496,-43.118,2.242,-88.21,-15.087,9.589,-9.853,-9.781,-15.561,-10.314,-27.727,-19.219,-15.436,1.341,-20.991,-20.363,2.848,-11.231,-3.363,-30.668,-11.949,-7.68,-18.612,7.706,-10.38,-64.167,-5.174,-29.001
4.185176399999818,9.985,10.289,-33.853,6.339,-75.827,-12.511,12.141,-8.819,-14.382,-12.984,-5.18,-20.015,-17.151,-12.859,13.122,-10.724,-15.22,9.505,-10.195,0.226,-23.465,-8.351,-2.037,-10.909,14.358,-1.661,-64.103,10.713,-18.213
4.200064799999836,11.0,9.254,-36.893,-3.914,-65.505,-11.474,11.617,-8.297,-12.318,-9.385,-2.614,-15.384,-13.548,-13.359,22.843,-12.25,-20.328,7.447,-10.185,-2.848,-23.441,-12.954,-1.523,-11.922,13.319,-2.684,-67.112,7.629,-19.732
4.20012719999977,10.989,2.585,-47.102,-10.57,-68.513,-9.925,2.384,-15.974,-7.183,-4.765,-0.05,-16.393,-9.436,-12.833,16.16,-15.312,-23.381,-1.782,-15.297,-3.357,-27.516,-14.99,-4.083,-20.62,-1.039,-5.243,-63.459,-5.699,-29.446
