Timestamp,Cz,Fz,Fp1,F3,C1,C3,T7,C5,CP5,CP3,CP1,P1,P3,O1,CPz,Pz,Oz,O2,P4,P2,CP2,CP4,CP6,C6,T8,C4,C2,F4,Fp2
0.0,-7.131,15.024,-37.308,20.679,227.304,-98.342,-48.773,9.114,9.671,12.273,-13.394,4.657,5.892,-17.265,-82.453,-12.245,-40.048,11.981,-3.836,-17.662,-8.417,1.743,3.596,1.357,-4.641,2.635,-120.569,-1.095,-13.064
6.509999957415857e-05,-5.587,10.911,-36.759,15.535,226.564,-97.219,-39.503,3.982,12.223,16.359,-9.282,4.14,3.837,-15.711,-84.933,-13.769,-37.447,16.067,-2.296,-16.62,-5.335,-0.82,2.568,-0.694,-3.611,2.12,-117.887,-7.753,-18.174
0.01505239999960395,-11.729,-1.395,-41.333,8.347,217.116,-106.856,-34.853,1.416,4.013,6.609,-15.933,-3.036,-0.777,-17.232,-87.409,-15.805,-39.971,14.002,-4.855,-16.603,-5.842,-4.405,0.004,-4.279,-9.755,-0.956,-123.404,-15.943,-29.939
0.015118999999685911,-13.255,-0.882,-41.804,2.191,215.874,-105.212,-44.552,9.1,6.571,5.577,-15.405,2.09,5.371,-13.116,-80.149,-10.154,-34.808,15.525,2.835,-12.488,-0.713,6.87,6.152,0.848,-2.061,3.144,-120.207,-14.902,-25.298
0.030054399999698944,-10.68,3.218,-41.25,-1.397,218.22,-98.959,-62.438,7.554,6.564,9.158,-14.877,3.625,4.853,-19.251,-75.459,-9.119,-37.847,16.534,4.881,-12.476,1.849,8.912,9.732,5.458,2.039,6.214,-117.525,-11.813,-19.125
0.0451188999995793,-11.181,0.141,-44.282,0.141,215.952,-103.471,-55.203,-4.749,-1.127,3.513,-18.448,-1.502,-1.812,-26.916,-82.043,-10.647,-43.444,14.468,-0.759,-12.463,1.847,6.342,8.697,3.403,-2.061,5.183,-122.531,-10.265,-19.618
0.04518319999988307,-6.56,3.727,-39.627,0.654,219.323,-107.978,-34.143,-4.745,1.948,6.071,-10.233,8.746,7.412,-16.131,-79.399,-2.439,-30.081,23.163,7.438,-2.717,10.042,17.094,15.861,8.011,7.675,12.863,-116.773,-7.18,-11.914
0.059090199999900506,-1.942,8.846,-33.952,-1.909,226.276,-104.284,-37.183,6.531,8.606,15.287,-0.489,21.032,14.577,-9.455,-69.074,5.248,-18.78,32.362,15.628,1.896,16.692,21.175,20.968,15.687,17.913,18.485,-108.459,-4.612,-6.267
0.05915199999981269,-9.113,0.64,-45.701,-1.907,225.025,-103.155,-50.978,8.061,1.425,9.636,-9.197,13.327,3.804,-17.13,-73.616,0.632,-28.495,23.62,4.854,-7.327,11.04,12.957,13.263,6.962,5.6,7.709,-115.523,-10.243,-18.556
0.0740933999995832,-18.325,-8.07,-57.439,-7.54,217.627,-106.638,-54.001,1.906,-3.187,3.991,-16.361,5.629,0.214,-16.6,-82.251,-8.078,-33.59,16.936,-0.786,-11.93,3.857,9.87,6.589,-5.34,-4.652,0.016,-123.604,-23.04,-31.857
0.07578269999976328,-20.356,-8.574,-54.307,-15.217,216.385,-110.118,-56.508,-2.707,2.964,9.11,-13.27,10.234,7.386,-11.461,-79.607,-8.582,-27.408,22.042,5.874,-8.845,2.316,7.299,6.583,-3.285,-2.598,4.115,-126.042,-29.677,-34.387
0.08912549999968178,-22.897,-11.127,-56.302,-11.104,220.267,-114.106,-56.452,-7.315,3.473,6.027,-16.843,10.224,3.28,-12.986,-79.016,-5.5,-26.869,21.508,3.819,-9.86,2.826,3.193,-0.084,-6.356,-7.718,1.037,-132.064,-31.184,-41.013
0.08918949999997494,-24.411,-12.14,-60.345,-6.482,220.047,-112.967,-46.662,-5.259,0.396,2.947,-16.826,8.164,0.715,-9.899,-80.473,-8.568,-27.354,19.437,2.279,-9.338,5.897,5.239,-5.719,-16.083,-13.858,-7.674,-132.957,-37.813,-48.144
0.10417019999977128,-20.288,-7.005,-54.649,-5.451,217.778,-105.17,-37.906,4.993,9.105,12.678,-9.125,15.328,9.424,-5.279,-76.807,-8.56,-21.691,25.566,12.522,-2.669,9.99,9.332,3.508,-8.383,-7.697,-4.08,-127.188,-34.701,-40.411
0.10423549999995885,-16.169,-0.338,-50.496,5.313,222.683,-99.429,-37.356,10.623,18.317,15.74,-8.604,17.875,10.951,-10.396,-75.705,-0.866,-20.645,26.565,15.071,-0.105,15.103,13.422,10.165,2.897,0.508,6.17,-125.012,-19.81,-29.1
0.119555699999637,-11.03,6.322,-45.834,16.579,229.12,-99.33,-48.589,10.613,18.299,13.162,-7.058,14.783,7.866,-15.509,-75.63,-1.89,-26.26,19.366,8.396,-3.178,18.674,13.408,1.445,-0.693,0.507,8.726,-122.838,-14.667,-27.022
0.11961799999971845,-7.433,8.877,-38.104,10.927,230.94,-97.181,-56.225,12.651,18.793,18.784,-1.928,16.305,10.932,-14.469,-74.017,-10.085,-29.82,11.662,6.339,-7.274,15.581,7.759,-1.63,0.333,-1.03,8.205,-120.153,-16.701,-25.458
0.1341512999997576,-10.499,9.893,-38.066,8.354,234.296,-92.473,-36.701,13.151,20.823,19.278,-5.0,17.313,11.434,-14.967,-75.992,-10.075,-28.765,9.601,6.332,-7.266,11.979,8.264,5.032,9.042,6.656,9.221,-121.058,-9.512,-20.821
0.1358556000000135,-10.489,16.543,-37.516,19.617,238.16,-94.43,-18.221,19.285,17.216,13.111,-7.044,14.734,8.861,-16.489,-75.916,-9.04,-25.15,13.177,5.814,-4.698,17.091,13.891,7.588,10.57,17.92,11.774,-118.375,-1.306,-17.214
0.14925659999971685,-7.405,17.551,-36.966,19.597,236.385,-100.483,-34.597,30.025,14.638,15.659,-2.426,12.67,7.315,-15.448,-74.816,-14.154,-25.125,11.627,4.783,-6.23,19.123,9.266,8.093,11.584,17.902,12.786,-112.109,-2.329,-17.71
0.14932189999990442,-13.545,6.775,-47.175,5.745,227.951,-102.944,-53.005,17.699,13.598,15.132,-7.035,9.072,5.258,-16.457,-79.352,-15.677,-29.198,3.931,2.729,-8.785,13.468,5.159,6.036,12.084,13.273,10.212,-113.022,-6.938,-23.84
0.1643291999998837,-20.191,2.158,-52.763,-0.408,215.428,-105.403,-46.805,-3.835,6.413,3.846,-13.688,6.501,4.229,-12.342,-81.322,-14.637,-26.095,12.124,5.288,-4.678,15.504,10.276,2.443,7.461,17.871,8.665,-118.544,-10.517,-26.377
0.1644093999998404,-19.147,2.156,-48.612,2.154,212.651,-106.322,-44.196,3.853,4.869,4.354,-12.137,9.056,7.81,-0.034,-76.63,-15.647,-11.725,25.944,10.406,-2.112,21.124,10.779,3.978,7.454,17.853,8.656,-123.548,-15.629,-24.302
0.17934559999957855,-19.64,-1.945,-52.149,2.664,221.66,-100.068,-52.861,16.657,14.086,14.084,-12.125,9.047,9.852,3.04,-76.553,-13.07,-7.102,23.869,7.834,-5.696,17.004,6.157,2.437,7.447,10.15,4.037,-126.499,-25.86,-30.425
0.17941399999972418,-24.231,-6.041,-55.683,-2.462,216.315,-101.505,-47.685,2.296,13.047,8.434,-16.723,4.427,5.744,-6.697,-81.599,-13.569,-17.854,19.747,3.215,-8.252,12.889,3.589,-4.225,-0.246,10.652,-1.603,-127.397,-36.08,-38.079
0.19431149999991248,-32.404,-13.72,-54.603,-11.681,197.144,-115.748,-42.002,-12.564,-2.335,-5.919,-22.854,0.324,-0.922,-11.814,-86.641,-21.752,-21.934,19.727,1.163,-9.78,13.901,-1.025,-5.246,-4.344,10.13,-4.675,-130.343,-39.118,-38.041
0.20938219999970897,-36.982,-19.854,-56.085,-12.182,200.02,-116.657,-53.743,-10.502,-1.82,-3.351,-24.881,1.349,-0.921,-8.216,-89.116,-22.755,-17.301,14.072,-0.375,-11.82,12.862,-2.049,-3.704,-1.266,6.021,-4.67,-130.725,-33.956,-35.442
0.20945239999991827,-25.674,-7.539,-45.783,1.151,219.8,-103.733,-60.35,1.292,11.501,8.435,-15.634,9.544,4.715,-5.646,-83.391,-11.974,-17.284,16.107,1.674,-9.759,17.972,4.101,-2.675,4.371,11.65,1.994,-122.91,-23.676,-27.721
0.2243679999996857,-15.402,2.203,-31.905,8.322,221.117,-103.117,-52.605,14.098,6.367,6.89,-9.983,13.633,5.735,-7.177,-78.697,-10.425,-18.291,18.653,2.697,-10.774,24.614,3.585,-1.136,6.416,15.225,5.579,-117.664,-18.017,-18.985
0.22443359999988388,-19.998,-3.435,-39.045,2.678,212.699,-106.087,-47.941,11.522,-3.886,3.297,-15.609,7.472,0.606,-12.293,-82.205,-18.611,-20.835,7.363,-0.379,-13.837,24.077,-1.03,-5.233,1.799,5.988,2.499,-120.108,-20.048,-24.089
0.23976429999993343,-15.879,1.692,-45.154,5.749,216.073,-95.223,-43.283,0.753,9.95,12.515,-9.445,9.001,3.167,-14.33,-75.462,-14.494,-23.888,5.819,3.207,-8.187,29.689,5.631,-4.203,5.383,6.494,8.132,-115.377,-14.905,-26.626
0.23983289999978297,-2.031,14.498,-33.326,19.063,222.004,-87.955,-31.969,9.461,20.699,20.699,4.909,21.288,9.824,-9.193,-64.116,-0.648,-17.204,18.621,12.426,-3.056,41.954,16.384,7.072,22.284,19.808,18.37,-103.478,-1.57,-13.792
0.25441019999971104,-1.517,12.434,-26.633,25.704,222.807,-92.478,-33.986,22.772,11.969,17.605,1.318,21.779,7.253,-6.109,-67.126,0.89,-10.014,18.602,14.462,-4.59,43.962,16.368,8.602,26.36,24.399,15.278,-101.326,-0.031,-8.143
0.2544764999997824,-4.589,13.446,-27.631,26.191,226.683,-91.873,-47.272,17.113,9.908,16.562,-3.295,15.609,3.147,-6.616,-72.182,-3.209,-11.029,16.534,14.448,-0.487,41.356,15.839,3.47,17.624,22.837,12.701,-105.835,-5.154,-13.77
0.2708957999998347,-4.072,18.043,-29.14,22.066,227.993,-89.732,-47.225,8.899,11.435,17.57,1.832,18.667,5.193,-3.023,-67.499,3.966,-3.846,25.739,18.532,6.174,45.413,20.434,10.126,22.218,23.839,17.811,-103.168,-8.223,-14.781
0.2709629999999379,-11.753,8.804,-41.406,8.212,219.568,-95.79,-38.98,7.866,2.714,8.844,-2.268,20.186,4.163,-0.458,-69.481,7.036,2.818,26.226,16.464,3.606,46.905,17.34,10.116,25.782,22.279,16.769,-104.089,-16.412,-20.401
0.28448019999996177,-17.376,2.135,-50.074,0.007,214.738,-100.817,-46.114,5.809,3.224,4.736,-8.414,16.067,2.11,-1.482,-76.583,0.369,-5.894,17.49,11.837,-3.058,45.321,9.125,-4.238,13.46,13.547,10.092,-112.182,-24.08,-32.164
0.2845460999997158,-18.384,1.62,-47.975,4.618,217.084,-103.79,-56.314,4.778,7.319,10.367,-4.819,17.076,4.669,-3.018,-78.556,0.369,-11.011,14.399,7.214,-5.616,43.226,6.043,-12.431,4.738,3.287,3.934,-114.631,-26.105,-32.132
0.2994050999996034,-26.562,-10.164,-52.025,2.564,216.867,-110.347,-41.913,3.749,-2.934,8.307,-9.938,13.472,2.615,-6.089,-84.625,-1.681,-6.902,12.335,-2.014,-11.758,33.962,-2.673,-17.542,0.122,-6.45,-4.779,-121.689,-35.301,-33.637
0.3143946000000142,-36.269,-18.863,-60.17,-8.197,213.064,-113.822,-27.014,-2.403,-3.444,1.639,-19.661,3.725,-2.51,-6.595,-91.713,-17.049,-8.944,5.663,-7.648,-20.456,25.218,-15.478,-24.697,-13.71,-12.591,-13.995,-137.961,-47.561,-48.46
0.3144505999998728,-39.819,-17.307,-62.671,-11.263,208.753,-110.122,-47.479,-3.937,7.318,2.662,-21.179,0.135,0.054,-8.125,-95.207,-28.302,-17.644,-5.101,-11.226,-24.022,24.681,-21.61,-29.795,-20.357,-15.652,-19.105,-143.971,-49.562,-55.071
0.3144919999999729,-43.366,-22.413,-65.17,-8.178,205.47,-109.5,-69.973,-3.421,-1.911,-1.439,-27.305,-8.574,-4.045,-19.9,-101.26,-39.032,-27.36,-15.342,-23.51,-29.633,20.558,-27.224,-38.987,-17.775,-19.223,-20.11,-144.339,-46.951,-47.844
0.32956899999999223,-42.298,-20.854,-60.494,-6.633,207.314,-117.587,-51.973,-14.176,-17.278,-12.196,-38.549,-22.91,-16.849,-30.639,-104.745,-52.313,-32.456,-14.814,-27.585,-36.776,15.926,-30.783,-41.509,-17.245,-17.667,-14.967,-148.293,-39.732,-41.648
0.3296333999996932,-34.571,-4.439,-49.675,-0.478,214.791,-122.593,-31.428,-15.186,-14.699,-13.208,-35.949,-17.252,-14.782,-19.85,-99.005,-42.015,-20.641,-3.017,-10.139,-30.079,27.181,-15.895,-19.951,-5.444,-2.28,-4.706,-140.461,-22.786,-30.848
0.344526599999881,-25.315,4.787,-45.015,6.182,226.36,-112.224,-37.032,5.834,-2.902,-2.949,-22.08,3.258,-0.423,-1.387,-89.684,-16.87,-1.665,10.819,4.728,-13.143,44.06,4.101,0.049,17.615,14.116,5.545,-124.439,-4.833,-16.473
0.34459069999957137,-13.506,7.856,-39.847,12.324,240.99,-100.329,-38.02,20.172,11.446,9.349,-8.226,15.55,6.75,3.225,-80.885,-1.484,7.559,20.542,8.822,-3.396,52.725,11.269,0.561,27.844,19.738,13.224,-113.556,6.443,-11.333
0.3605113999997229,-0.173,19.119,-29.561,23.07,251.508,-98.179,-24.15,18.615,23.218,18.049,4.078,25.78,14.428,5.784,-73.12,12.862,14.211,27.181,18.547,2.756,62.407,20.992,7.221,30.89,25.353,18.334,-106.27,17.707,-6.711
0.3605816999997842,3.414,29.346,-23.384,33.805,256.891,-95.007,-17.465,20.646,21.657,19.056,6.635,32.415,24.659,13.463,-70.485,22.071,19.32,29.716,26.213,8.388,70.541,30.192,14.898,35.469,29.939,21.902,-104.114,25.374,-0.045
0.3744776999997157,-1.713,26.243,-27.971,32.747,253.048,-92.351,-20.01,18.576,18.562,14.938,-2.593,21.111,21.048,9.863,-71.439,11.29,9.567,24.563,21.063,3.257,64.323,19.916,3.1,25.7,20.687,20.343,-110.67,19.713,-9.778
0.38945509999985006,-3.248,20.069,-40.238,25.029,241.525,-97.381,-23.576,9.848,19.568,13.386,-8.738,11.356,12.83,-1.93,-74.954,1.545,-0.689,18.391,15.919,-1.87,59.648,9.65,-5.1,15.428,8.883,12.126,-115.683,14.058,-21.552
0.39123409999956493,2.391,22.61,-43.784,27.054,240.771,-95.235,-23.552,17.523,19.548,19.521,1.004,19.542,17.941,0.121,-74.879,6.667,4.435,25.544,17.953,5.817,70.347,15.788,5.152,23.61,12.973,11.601,-109.932,25.315,-14.358
0.40460910000001604,2.9,24.124,-33.494,32.15,248.215,-87.455,-20.455,29.801,25.677,26.673,9.713,24.646,24.07,8.318,-70.706,8.197,9.554,31.154,17.935,6.323,73.35,17.309,7.196,28.197,22.694,17.225,-105.211,32.974,-7.171
0.40467549999993935,-6.324,12.317,-38.072,19.31,239.77,-93.003,-32.217,18.5,29.237,21.524,-0.543,15.912,19.436,5.236,-75.246,-0.008,2.372,19.852,10.744,-4.954,62.006,7.558,-5.107,15.361,17.548,8.499,-113.303,18.597,-19.972
0.4196745999997802,-10.928,2.571,-58.526,1.872,231.845,-99.57,-45.505,4.137,22.036,11.768,-11.301,10.773,14.805,-0.405,-85.417,-5.643,0.832,13.173,6.123,-8.535,60.407,1.915,-10.737,9.71,10.358,-1.244,-123.948,7.82,-32.759
0.41973949999965043,-2.208,11.79,-57.955,5.969,239.81,-97.421,-29.578,8.744,20.477,14.318,-5.654,16.397,18.889,3.182,-80.208,-1.027,7.492,22.381,10.215,-3.916,69.056,4.475,-2.017,19.947,17.008,7.979,-123.824,17.546,-27.604
0.4346393999999236,7.528,22.537,-40.991,19.283,245.718,-94.25,-14.179,18.981,29.678,19.939,1.011,22.529,23.993,8.302,-69.882,8.196,11.583,27.482,17.377,-1.863,71.548,11.13,5.669,27.611,27.749,17.193,-117.552,28.799,-15.281
0.43470229999957155,12.643,23.026,-35.827,19.776,249.059,-89.033,-32.608,22.548,36.82,19.407,1.01,23.531,23.457,10.855,-71.349,11.774,14.132,28.991,19.921,0.189,74.038,17.779,6.176,28.096,30.283,17.175,-113.849,33.381,-9.118
0.44959309999967445,7.508,16.856,-42.451,13.608,245.223,-92.53,-34.112,14.841,28.074,11.703,-3.602,17.872,14.724,9.819,-75.376,8.688,11.557,26.913,16.315,-0.836,74.989,15.2,6.17,26.019,28.716,17.158,-115.784,32.323,-14.232
0.4513656999997693,-5.308,7.617,-49.581,10.008,220.9,-112.417,-8.975,-1.568,2.431,-6.752,-18.967,4.022,1.39,1.613,-78.887,-1.567,-0.238,13.566,9.639,-5.958,66.205,5.963,6.164,20.87,23.052,12.018,-122.328,24.606,-23.951
0.4646119999997609,-3.253,13.245,-44.921,15.121,217.093,-113.329,-19.725,-1.054,-4.744,-11.868,-24.071,0.431,-0.661,-6.586,-82.906,-5.151,-2.287,11.503,11.679,-3.903,67.163,10.568,6.157,22.898,24.053,8.932,-118.107,31.754,-17.779
0.464677699999811,20.316,37.823,-22.846,37.648,249.663,-88.625,-42.759,22.001,19.339,14.271,-0.993,18.362,10.61,0.081,-72.065,12.272,8.986,28.398,25.499,6.347,88.1,27.976,15.885,39.269,39.399,24.805,-99.034,55.288,4.78
0.4796977999999399,33.616,50.08,-8.479,54.516,264.27,-77.266,-17.613,28.639,29.054,31.163,15.914,33.713,19.309,9.814,-57.136,31.728,12.051,31.955,32.134,12.488,99.283,36.145,24.066,45.89,47.044,37.075,-90.226,64.967,16.558
0.4797649999995883,27.435,43.37,-12.057,47.802,253.248,-81.799,-0.177,21.438,21.852,24.984,12.312,33.167,21.339,7.755,-60.153,30.671,6.404,24.239,25.954,10.939,93.548,32.01,19.431,37.135,38.8,27.817,-96.283,60.803,10.906
0.4950051999999232,23.821,41.278,-16.655,41.094,259.142,-82.23,-26.304,29.614,31.564,30.082,13.324,31.596,21.83,4.161,-66.24,24.493,5.885,24.727,22.342,3.755,91.918,27.879,12.752,32.999,33.638,20.617,-99.773,59.718,8.334
0.49507709999988947,18.674,35.601,-25.86,37.979,258.371,-87.271,-35.5,31.633,32.557,31.589,9.724,27.466,18.222,4.67,-66.686,18.321,1.781,20.091,18.733,-6.494,87.215,19.655,7.616,25.281,28.994,16.498,-106.333,47.363,1.153
0.5096130999995694,4.311,18.147,-40.691,25.646,238.132,-96.917,-24.706,15.72,16.131,13.627,-3.605,17.705,14.617,-0.458,-77.378,8.056,-6.93,11.362,11.03,-11.099,74.833,7.852,-0.588,7.838,16.157,3.673,-120.059,28.872,-16.267
0.5114379999999983,-1.329,13.006,-43.724,16.399,231.746,-97.333,-28.78,8.532,20.213,10.539,-7.7,14.614,16.14,-1.482,-83.448,8.048,-5.387,16.986,9.994,-9.551,75.27,7.844,-1.1,5.781,13.067,0.084,-120.964,27.819,-21.886
0.5246476999996048,-2.352,12.993,-47.267,10.747,226.392,-101.846,-29.263,6.987,24.804,13.603,-12.303,11.013,10.488,1.081,-80.803,8.552,-4.357,20.043,5.886,-13.64,78.781,6.812,0.438,11.923,16.128,3.157,-118.281,25.229,-22.888
0.524713299999803,-12.083,1.709,-61.052,-1.047,213.87,-113.527,-32.82,-2.242,8.898,-1.268,-24.586,-0.269,0.232,-6.093,-88.919,-4.264,-11.525,9.777,-4.366,-21.311,69.993,-4.466,-7.247,1.664,8.939,-6.067,-128.921,10.347,-35.161
0.5396678999995856,-10.534,3.756,-54.843,5.102,223.39,-108.291,-49.181,-0.703,12.475,-1.267,-19.951,1.268,2.793,-6.599,-92.929,-3.235,-7.415,10.792,-0.776,-18.728,70.435,-2.925,-7.752,0.638,7.393,-9.135,-129.305,14.948,-33.076
0.5397303999998257,1.771,20.146,-36.858,25.077,240.585,-96.399,-38.373,10.057,23.733,12.567,-8.148,10.488,7.913,4.166,-83.102,11.113,1.814,19.49,7.422,-14.611,80.611,4.763,-2.109,14.47,15.071,0.608,-114.319,29.79,-15.625
0.5553308999997171,-1.816,16.028,-40.407,23.515,232.147,-102.963,-21.429,11.071,7.828,4.358,-12.75,5.355,2.782,0.576,-86.093,5.466,-4.335,14.348,-0.782,-21.256,76.944,-2.926,-6.718,9.332,9.932,0.095,-115.741,21.563,-18.683
0.5554114999999911,-7.962,8.839,-46.514,16.831,217.058,-104.397,-40.363,14.646,7.82,1.279,-15.299,2.788,2.267,-8.646,-89.081,-1.199,-9.454,8.698,-0.782,-22.259,73.281,-4.46,-8.76,2.151,3.262,-3.491,-121.773,14.369,-23.788
0.5697472999995625,4.341,21.638,-35.197,26.548,214.28,-86.874,-44.933,24.365,32.915,17.16,-5.55,16.105,10.462,-1.465,-74.135,13.659,-2.272,15.861,15.101,-10.454,87.04,10.401,1.495,17.518,15.555,6.758,-106.794,28.187,-8.907
0.5847345999995923,10.997,24.178,-32.088,26.522,202.795,-82.176,-21.322,18.706,30.321,17.142,0.091,21.212,10.451,0.073,-67.4,18.256,-6.881,17.895,15.598,-6.345,95.662,12.44,7.129,21.599,23.736,11.362,-95.417,32.257,-8.898
0.5848026999997273,5.863,15.445,-40.253,18.81,186.198,-87.217,-20.788,13.564,24.655,14.564,2.652,18.117,13.515,-6.075,-65.284,12.603,-15.071,14.291,10.972,-6.851,95.054,8.329,6.097,13.892,20.126,10.326,-96.346,26.077,-19.648
0.5997459999998682,16.103,23.626,-37.138,27.501,183.963,-74.835,-24.866,35.067,46.147,30.431,10.334,27.321,25.797,4.178,-53.435,24.373,-3.785,22.986,24.281,1.865,103.669,19.079,10.189,25.149,26.766,18.001,-86.004,34.761,-9.382
0.5998095999998441,23.259,26.677,-37.101,28.498,178.656,-67.588,-13.57,39.643,47.126,30.913,10.324,27.806,24.234,7.76,-57.481,26.91,-0.195,25.012,25.281,1.863,108.176,19.572,10.179,29.223,28.788,19.007,-81.307,34.726,-8.348
0.6151375999997981,4.793,8.207,-57.044,9.514,152.862,-81.352,-23.291,9.889,23.0,11.414,-3.519,8.822,10.377,-9.667,-70.743,2.292,-21.199,7.056,5.276,-10.434,97.821,3.671,-4.176,8.189,8.267,5.668,-98.132,13.174,-33.442
0.6152017999997952,-3.921,4.1,-65.696,6.431,136.827,-79.734,-38.637,3.22,25.026,11.915,-9.663,5.227,11.904,-11.706,-65.549,-2.321,-24.764,1.926,2.709,-10.424,96.699,3.155,-11.856,2.033,-0.962,0.027,-101.107,7.526,-39.044
0.6297568999998475,12.989,17.928,-48.725,20.257,142.838,-63.773,-28.352,23.196,37.297,24.711,4.691,20.591,22.138,1.113,-55.238,18.686,-8.346,16.781,16.538,0.345,110.947,14.423,-1.086,14.326,10.822,9.249,-82.051,21.863,-23.124
0.6298167999998441,20.66,18.935,-39.967,18.699,138.084,-66.271,-23.2,21.636,31.624,24.174,13.396,24.669,20.067,-0.937,-52.108,22.254,-12.436,16.252,16.01,0.857,116.984,13.896,4.038,15.849,12.86,15.387,-75.821,25.427,-21.564
0.644798499999979,18.078,14.305,-48.124,10.484,126.163,-71.84,-37.522,13.93,31.593,22.1,8.259,23.108,18.51,-6.059,-46.933,18.645,-20.108,9.063,13.432,-0.681,117.891,15.419,0.96,16.345,9.261,15.884,-84.454,25.402,-21.542
0.6448666999999659,28.819,22.488,-46.026,19.182,130.648,-62.034,-37.484,26.211,42.832,29.763,13.887,32.306,28.737,1.119,-41.763,29.385,-7.28,19.813,24.689,7.517,128.02,25.137,11.206,26.063,20.01,18.942,-81.296,37.159,-11.274
0.6598034999997253,30.839,25.539,-43.419,25.311,130.005,-57.873,-24.127,33.87,40.74,30.245,21.557,32.274,29.733,3.679,-41.209,29.868,-5.736,24.404,25.177,9.559,131.478,22.551,14.268,21.938,18.453,17.386,-75.58,35.073,-14.337
0.659869599999638,12.365,9.632,-59.257,10.941,109.383,-64.476,-27.177,29.737,29.94,20.481,6.166,18.409,16.384,-7.595,-47.828,12.42,-25.198,9.522,9.27,-2.746,119.051,7.159,-7.263,2.449,-3.082,3.536,-87.287,10.447,-34.303
0.6748164999999062,4.668,-1.648,-69.956,0.172,94.416,-67.485,-43.031,27.658,29.398,13.801,-6.647,9.682,9.707,-18.858,-58.539,3.698,-32.857,2.853,1.576,-9.403,110.735,-1.557,-16.99,-5.751,-7.178,-3.639,-98.983,-1.859,-46.564
0.6748745999998391,5.688,-0.622,-63.738,0.171,91.248,-66.905,-46.574,18.409,28.857,8.152,-2.542,4.549,10.21,-18.839,-60.529,0.621,-31.287,8.485,3.624,-5.808,114.723,-1.556,-8.776,-0.11,2.051,0.463,-94.273,3.778,-43.443
0.6898365999995804,-4.051,-5.232,-62.138,-7.513,81.423,-75.035,-36.794,-1.589,15.508,-1.078,-9.712,-3.653,3.027,-15.234,-59.956,-7.577,-34.842,6.428,-1.503,-7.339,117.169,-3.091,-13.378,-0.622,-2.562,-1.587,-93.154,4.287,-39.301
0.6898959000000104,-1.486,-3.69,-62.076,-9.043,78.268,-80.083,-33.683,-8.248,11.394,1.484,-13.801,2.499,1.487,-15.731,-62.97,-3.983,-29.684,7.446,1.573,-5.795,121.151,2.547,-11.827,2.453,-3.071,0.976,-94.086,7.356,-35.676
0.7049185999999281,20.545,16.806,-49.206,10.434,98.169,-66.171,-42.871,12.253,29.313,19.926,9.779,22.988,17.88,-8.031,-50.612,21.124,-12.236,23.832,19.502,12.142,136.911,23.037,9.701,21.406,12.301,17.881,-75.036,22.718,-22.32
0.7049823999996079,23.086,23.449,-43.009,18.108,106.78,-54.834,-51.025,27.098,35.944,26.566,18.991,28.089,24.009,4.785,-39.803,31.349,-8.126,31.493,24.093,15.716,143.946,28.649,10.716,25.483,13.313,20.937,-63.178,26.794,-13.589
0.7199170999997477,2.058,4.47,-54.237,0.672,80.546,-69.636,-52.511,5.041,18.489,9.121,-4.082,14.228,11.178,-0.855,-54.62,10.825,-17.339,20.703,8.188,-2.743,130.483,6.079,-8.25,3.94,-3.606,4.01,-77.972,10.886,-25.871
0.7199825999996392,-6.653,-7.829,-60.842,-9.063,56.899,-80.325,-51.434,-14.431,9.249,-2.671,-14.836,2.943,5.019,-11.613,-63.275,-2.506,-22.957,13.51,-2.067,-9.912,121.131,-9.808,-15.926,-7.334,-11.287,-6.752,-86.603,-3.47,-36.603
0.7353430999996817,-7.159,-12.432,-63.343,-8.029,54.281,-74.609,-55.993,-1.609,10.777,-1.131,-12.772,-1.671,3.989,-11.601,-56.551,0.058,-30.619,9.91,-5.651,-8.366,121.009,-11.336,-21.546,-10.913,-16.399,-12.381,-88.566,-13.712,-39.64
0.7354053999997632,-16.373,-22.666,-70.452,-16.73,46.542,-82.731,-60.548,3.003,3.594,-7.278,-22.493,-9.353,-4.212,-17.225,-66.741,-12.237,-40.834,-1.37,-10.768,-16.554,118.839,-17.984,-30.746,-21.148,-27.141,-20.565,-98.723,-20.359,-50.359
0.7498902999996062,-15.332,-21.107,-66.795,-17.226,40.348,-88.796,-52.803,-9.808,2.053,-10.345,-22.471,-8.832,-3.183,-20.282,-74.359,-18.372,-36.695,-1.369,-3.585,-13.976,124.356,-13.355,-25.08,-13.955,-22.503,-18.496,-95.551,-14.191,-50.309
0.7499500999997508,-4.046,-12.376,-56.483,-6.45,48.504,-74.363,-46.602,-3.65,15.884,2.473,-9.641,0.399,9.116,-10.015,-60.964,-1.448,-27.437,10.416,4.103,-7.302,134.477,-0.022,-15.833,-2.158,-13.259,-13.354,-84.184,-11.103,-37.963
0.7650341999997181,-12.239,-18.511,-64.111,-12.079,46.407,-69.678,-59.363,6.6,18.429,6.569,-12.705,-1.651,5.52,-11.542,-61.416,-3.496,-31.508,7.331,-5.123,-17.029,131.781,-9.756,-20.94,-13.939,-22.98,-21.025,-93.834,-24.412,-46.122
0.779970499999763,-26.571,-27.715,-73.78,-23.338,30.991,-81.904,-61.865,-3.141,6.115,-5.733,-22.938,-9.846,-5.243,-19.728,-73.65,-19.374,-34.038,2.713,-9.216,-19.061,128.064,-19.992,-24.505,-18.536,-29.104,-26.64,-100.4,-32.584,-57.347
0.7800413999998455,-21.422,-26.15,-67.047,-21.778,29.423,-82.846,-41.824,-8.261,5.597,-6.751,-20.354,-5.226,-0.115,-10.999,-68.965,-8.596,-24.782,14.494,1.552,-7.259,135.62,-8.189,-16.796,-4.685,-18.829,-19.953,-90.054,-28.965,-49.093
0.7950040999999146,-14.228,-24.587,-64.418,-21.756,35.541,-76.103,-39.733,-3.642,13.788,1.965,-14.186,1.952,7.057,-8.426,-58.65,3.196,-23.733,17.553,3.599,-7.251,142.657,-3.058,-11.144,-4.68,-16.761,-14.81,-86.89,-28.424,-48.531
0.7950945999996293,-14.214,-20.464,-68.452,-19.685,34.993,-75.003,-59.16,-4.15,14.287,2.987,-12.122,2.974,2.952,-17.639,-58.592,-3.98,-29.344,7.802,-1.015,-9.293,146.1,-7.666,-12.158,-9.799,-23.917,-12.746,-85.778,-25.322,-52.069
0.8098843999996461,-8.052,-13.783,-61.724,-9.419,34.446,-73.391,-62.175,-2.609,10.686,1.447,-9.549,4.508,2.949,-11.986,-59.558,0.123,-27.778,9.843,2.06,-1.6,151.077,-5.096,-14.707,-4.666,-23.38,-11.196,-74.934,-20.686,-40.746
0.8099502999998549,-4.458,-12.233,-57.051,-11.459,32.362,-69.731,-57.502,-1.582,7.602,2.983,-10.564,2.455,6.02,-6.851,-58.473,6.27,-28.263,12.395,0.009,-2.623,150.414,-8.165,-19.303,-9.272,-29.505,-12.21,-74.347,-25.276,-39.168
0.8249250999997457,-9.064,-12.733,-63.142,-17.083,27.719,-68.637,-65.642,-5.167,5.033,2.467,-12.602,-3.183,3.452,-17.091,-57.903,-5.519,-35.919,1.624,-8.701,-12.354,146.165,-16.866,-24.919,-20.533,-41.771,-14.247,-79.908,-31.398,-45.789
0.8265959999998813,-8.543,-14.769,-61.542,-8.869,26.155,-71.642,-70.699,-5.161,5.028,0.928,-12.59,-5.229,1.399,-19.635,-56.82,-11.661,-39.469,-4.013,-11.253,-14.903,148.068,-17.362,-25.406,-19.488,-40.192,-17.306,-77.266,-30.342,-41.133
0.8400369999999384,-9.046,-20.902,-59.431,-11.934,21.005,-76.181,-69.604,-5.156,3.998,-1.634,-15.139,-7.273,0.373,-15.517,-60.862,-8.576,-38.405,-2.985,-11.242,-14.888,149.969,-15.807,-22.307,-13.833,-35.029,-16.777,-73.603,-30.824,-44.678
0.8401018999998087,-12.111,-17.295,-65.519,-21.656,18.423,-74.056,-67.997,-11.299,4.506,-1.12,-15.124,-7.778,-0.652,-18.063,-63.875,-8.055,-35.805,-3.494,-9.182,-15.898,149.819,-15.279,-19.211,-9.209,-34.994,-8.563,-65.332,-29.769,-52.83
0.8550263999995877,-0.316,-6.519,-60.331,-11.9,30.7,-63.223,-59.22,-7.701,13.211,8.615,-2.813,5.037,4.984,-14.459,-52.028,2.712,-27.06,5.219,1.586,-8.197,158.379,-3.481,-7.409,0.022,-24.713,1.179,-53.484,-21.03,-42.019
0.8550898999997116,12.492,-3.439,-51.561,-4.716,37.841,-53.939,-55.575,6.651,17.809,15.778,8.973,17.84,12.152,-6.76,-38.143,17.566,-20.885,18.534,12.343,2.057,171.54,10.355,7.456,10.78,-14.442,7.838,-51.381,-12.812,-30.706
0.8710602999999537,9.406,-2.923,-54.071,-12.396,31.656,-53.885,-57.568,10.231,11.131,13.201,6.402,15.26,10.603,-6.241,-38.105,17.036,-21.889,19.54,14.892,4.617,175.979,11.369,7.448,13.844,-18.013,12.953,-57.478,-11.774,-33.749
0.8711192999999184,8.372,-1.383,-50.943,-9.31,31.624,-55.368,-50.338,7.146,12.144,15.237,2.81,13.196,5.981,-5.722,-39.604,14.457,-21.867,16.446,12.828,3.587,172.73,7.772,0.781,8.194,-20.045,10.379,-58.957,-11.763,-30.641
0.8850994999997965,10.925,-2.407,-42.695,1.97,39.277,-51.726,-48.239,10.725,21.354,20.857,5.881,17.794,8.537,-5.204,-38.54,18.029,-19.796,15.918,9.229,2.047,169.995,6.227,-0.245,2.038,-22.586,5.245,-60.435,-11.751,-26.0
0.8869371999999203,1.692,-3.429,-47.263,0.432,37.189,-52.187,-57.924,10.202,17.746,13.664,2.289,11.116,9.553,-11.347,-46.186,10.839,-23.875,11.291,3.072,-5.128,168.288,-4.026,-8.954,-4.624,-39.47,0.629,-69.596,-20.448,-33.146
0.9000735999998142,-5.482,-4.962,-47.216,-3.155,26.905,-60.331,-58.891,1.995,9.532,3.916,-4.886,0.858,3.396,-13.897,-52.288,1.094,-27.437,6.156,-1.03,-12.295,162.997,-15.805,-21.752,-15.89,-52.238,-8.08,-81.31,-31.699,-39.773
0.9001399999997375,-2.915,-9.568,-39.997,-1.103,23.805,-64.37,-56.783,0.969,11.059,5.449,-4.881,3.419,1.343,-9.784,-48.649,3.142,-23.824,9.736,-0.516,-13.307,158.736,-14.764,-22.243,-19.46,-49.112,-12.171,-83.79,-32.691,-36.659
0.9141314999997121,-8.547,-11.095,-49.69,-8.274,24.805,-64.817,-66.46,0.968,12.585,5.956,-6.925,2.903,3.903,-11.824,-49.113,2.114,-25.337,9.214,-1.54,-12.781,155.503,-14.237,-20.172,-13.805,-45.989,-7.036,-81.657,-32.146,-36.623
0.9141960999995717,-13.662,-11.597,-58.862,-17.999,23.756,-68.851,-73.566,-8.255,8.986,3.389,-13.578,-5.809,-0.199,-19.497,-55.724,-6.597,-36.582,-1.553,-5.637,-16.355,149.712,-21.395,-23.738,-13.791,-45.943,-7.541,-87.723,-34.676,-39.148
0.9290841999995791,-4.939,-8.511,-47.533,-10.297,31.929,-69.295,-66.32,-10.296,8.465,6.972,-11.516,-6.827,-3.785,-24.6,-54.131,-5.566,-41.156,-6.162,-6.656,-16.338,146.489,-18.3,-19.615,-13.778,-41.798,-9.582,-88.66,-26.444,-30.912
0.9291469999998299,1.726,2.768,-40.313,3.546,49.316,-63.078,-55.495,-2.089,7.944,13.112,-4.332,-0.673,0.83,-22.526,-47.417,-0.437,-33.431,2.553,-2.551,-9.662,151.465,-8.035,-10.374,-4.03,-39.707,-2.913,-77.3,-18.733,-18.073
0.9440968999997494,0.188,7.376,-45.908,3.542,56.439,-60.453,-57.489,4.061,12.547,16.173,-1.766,3.938,5.439,-14.819,-47.369,1.1,-26.737,7.673,4.111,-4.529,154.9,-5.978,-6.778,-3.514,-40.18,0.676,-73.125,-23.325,-17.543
0.9458356000000094,-0.837,-1.341,-47.399,-4.146,51.772,-60.905,-66.141,4.057,23.805,18.206,-2.276,5.984,6.459,-11.218,-50.908,6.735,-27.223,5.104,4.62,-6.574,150.134,-8.021,-5.234,-11.195,-40.652,-2.911,-79.711,-28.425,-27.259
0.9591452999998182,-7.496,-9.536,-49.401,-7.216,44.547,-63.918,-63.001,-1.07,15.072,11.016,-8.422,-0.17,1.329,-17.355,-52.907,4.166,-31.806,1.001,-4.607,-11.178,140.25,-14.673,-9.839,-14.257,-48.808,-6.494,-85.779,-38.13,-37.99
0.9742142999998578,-21.321,-16.699,-57.548,-12.331,35.794,-69.489,-57.302,-3.63,-6.972,0.246,-19.684,-9.904,-6.869,-20.411,-56.44,-8.133,-32.799,-0.025,-11.774,-15.778,129.864,-26.954,-19.563,-20.903,-59.518,-12.635,-93.891,-53.974,-46.661
0.9742789999995694,-23.349,-20.781,-60.564,-18.467,35.246,-69.932,-61.856,-2.09,-4.404,0.758,-20.689,-8.869,-5.838,-16.805,-60.482,-8.125,-28.155,4.074,-8.689,-14.737,124.099,-28.464,-19.032,-27.542,-57.922,-15.696,-100.969,-54.944,-48.664
0.9895718999996461,-19.74,-17.174,-59.479,-17.936,41.358,-70.374,-63.331,-9.772,5.847,5.368,-16.57,-3.225,-1.733,-17.3,-62.471,-2.482,-28.127,9.705,-6.118,-11.137,121.925,-21.776,-12.865,-21.367,-51.204,-10.558,-101.38,-48.742,-45.029
0.98963859999958,-21.769,-17.669,-62.494,-17.918,38.243,-75.939,-67.366,-19.496,-2.868,3.314,-19.627,-6.808,-8.392,-20.869,-61.383,-6.578,-31.685,8.671,-6.625,-13.175,118.217,-22.778,-12.852,-18.272,-47.566,-11.059,-102.304,-53.816,-47.033
1.0041590999999244,-20.21,-22.774,-62.431,-21.486,36.668,-73.302,-83.18,-16.915,-1.328,3.31,-20.632,-9.362,-10.432,-20.848,-57.736,-5.546,-29.604,8.15,-5.081,-12.137,116.05,-23.78,-11.815,-20.303,-43.933,-14.122,-101.177,-55.299,-49.548
1.0042152999999416,-17.629,-22.239,-61.344,-26.588,45.34,-68.618,-88.732,-12.8,10.456,3.307,-18.562,-6.792,-5.299,-22.364,-57.678,-1.442,-28.038,13.265,-6.101,-8.539,112.86,-19.658,-10.266,-18.233,-44.401,-8.985,-98.514,-51.658,-47.961
1.0192945999997391,-25.296,-26.315,-67.43,-30.147,48.881,-76.746,-77.373,-14.324,-1.338,-2.332,-21.105,-8.834,-7.855,-24.391,-63.256,-6.564,-31.084,15.813,-8.144,-11.092,103.013,-22.2,-13.842,-21.289,-45.381,-10.513,-102.514,-61.852,-52.012
1.0193591999995988,-26.807,-32.437,-71.462,-27.044,48.832,-81.28,-69.099,-14.31,-12.095,-1.817,-18.523,-8.313,-7.335,-19.244,-67.291,-3.996,-29.516,17.846,-4.549,-10.568,95.738,-25.252,-12.291,-23.317,-39.7,-17.162,-104.461,-68.963,-56.058
1.0342317999998158,-16.534,-27.794,-66.267,-22.918,58.005,-74.027,-73.64,-12.246,1.75,7.919,-12.357,0.917,1.382,-15.126,-63.125,4.205,-26.925,23.464,-4.545,-5.947,95.13,-23.177,-8.18,-17.658,-35.562,-13.559,-101.795,-61.721,-54.465
1.0342965999998341,-21.129,-28.79,-69.275,-27.506,62.045,-79.076,-85.862,-9.673,6.359,6.374,-18.492,-1.645,-0.157,-20.746,-64.087,-3.996,-30.484,23.44,-11.2,-13.626,86.325,-27.252,-15.344,-23.276,-41.162,-14.058,-109.89,-65.246,-58.509
1.0492789999998422,-32.378,-35.934,-79.451,-32.601,56.86,-91.292,-88.338,-9.663,-6.455,-4.903,-27.183,-12.402,-7.329,-23.799,-73.757,-13.214,-35.576,20.855,-12.726,-18.735,72.919,-30.299,-21.477,-32.474,-42.658,-21.216,-117.464,-74.915,-63.574
1.0493418999999449,-26.71,-28.726,-77.323,-28.47,60.902,-87.102,-74.417,-15.801,-4.912,-3.874,-21.008,-8.291,-3.735,-18.652,-73.683,-6.028,-35.029,25.958,-8.615,-11.032,72.334,-26.17,-14.283,-27.318,-39.029,-15.559,-109.15,-67.155,-55.826
1.0642854999996416,-21.561,-22.037,-71.098,-23.831,71.087,-78.306,-68.195,-13.736,6.364,5.864,-16.376,-1.623,0.367,-16.584,-63.875,-3.461,-33.969,30.542,-8.606,-11.021,72.262,-27.681,-13.756,-25.242,-38.478,-10.933,-104.43,-56.842,-49.11
1.0643457999999555,-29.736,-26.626,-72.564,-25.344,70.504,-79.765,-77.348,-8.087,3.284,2.784,-25.581,-7.769,-3.732,-19.129,-66.373,-10.117,-37.009,31.536,-11.671,-17.157,60.919,-33.801,-22.452,-30.852,-38.439,-19.631,-113.035,-61.908,-51.622
1.0793580999998085,-31.243,-27.111,-70.954,-26.856,61.212,-85.32,-80.345,-16.276,-4.917,-6.44,-30.166,-12.372,-7.827,-22.184,-73.991,-11.132,-42.095,30.993,-14.221,-15.603,52.661,-32.743,-22.429,-31.846,-38.401,-19.612,-115.483,-65.432,-49.521
1.0794227999999748,-27.626,-25.035,-67.809,-27.854,57.564,-86.772,-78.728,-19.845,-4.399,-4.897,-26.038,-10.311,-8.331,-28.822,-69.819,-10.096,-48.2,26.863,-13.695,-15.075,52.096,-30.148,-17.796,-30.789,-40.924,-15.494,-108.196,-61.268,-45.886
1.0943349999997736,-26.061,-24.498,-68.254,-28.338,65.191,-82.074,-82.747,-7.018,-0.809,2.793,-23.45,-6.202,-6.274,-34.429,-64.626,-7.524,-53.788,26.324,-7.533,-12.499,51.531,-26.02,-17.778,-29.734,-39.346,-18.552,-104.501,-58.645,-47.377
1.0943961999996645,-17.838,-16.789,-64.599,-21.65,78.446,-72.771,-85.226,-2.4,2.778,8.425,-16.254,2.001,-0.12,-29.783,-60.975,3.242,-51.685,39.618,-0.354,-2.24,54.554,-17.284,-9.564,-22.532,-28.548,-14.435,-99.786,-56.025,-44.768
1.1097297999999682,-9.623,-8.063,-60.436,-13.431,87.077,-68.599,-83.604,-8.033,10.46,11.491,-6.504,8.147,3.467,-23.606,-53.23,9.386,-43.436,48.8,0.159,0.836,57.061,-13.681,-1.869,-16.874,-22.372,-4.174,-93.026,-52.895,-39.088
1.1097912999998698,-14.737,-10.104,-63.962,-13.93,84.428,-72.629,-79.422,-6.488,6.351,6.356,-12.133,1.991,-1.66,-28.705,-54.713,0.668,-48.003,39.529,-7.013,-5.825,44.196,-20.327,-10.064,-19.931,-27.473,-7.244,-98.569,-58.478,-40.073
1.1243460999999115,-23.431,-16.241,-63.386,-18.014,77.684,-75.63,-75.244,-3.408,-9.025,-0.823,-22.879,-8.257,-8.831,-38.41,-63.88,-10.604,-62.812,29.244,-15.716,-10.942,28.782,-28.504,-18.251,-27.596,-30.519,-17.483,-109.741,-66.104,-45.156
1.1393149999998968,-22.896,-17.762,-59.224,-19.021,76.069,-77.092,-77.73,-3.404,-6.966,2.252,-19.783,-6.2,-6.26,-37.347,-62.792,-9.569,-61.213,33.825,-15.7,-11.443,30.803,-27.963,-14.135,-29.617,-26.39,-17.978,-107.069,-66.038,-45.111
1.141099199999644,-19.287,-15.695,-64.8,-19.514,80.092,-79.576,-82.776,-4.426,8.41,8.91,-11.566,1.491,1.431,-31.162,-57.093,-0.85,-49.881,41.988,-6.975,-7.333,33.334,-21.787,-15.145,-24.977,-24.827,-12.837,-98.765,-63.41,-42.504
1.1544291999998677,-22.341,-17.216,-69.858,-20.007,81.548,-79.497,-87.816,-4.421,9.426,6.339,-12.579,0.465,0.405,-30.619,-59.086,-0.337,-52.392,40.409,-5.943,-6.814,24.079,-23.303,-20.765,-28.538,-29.925,-15.385,-99.179,-67.445,-44.511
1.1544918999998117,-25.905,-23.347,-68.252,-20.499,78.393,-77.368,-99.511,-0.318,4.294,3.772,-17.69,-3.121,-3.694,-32.638,-60.051,-7.509,-59.512,37.295,-13.11,-13.467,16.37,-30.452,-18.695,-38.243,-35.018,-22.03,-101.641,-74.55,-49.077
1.1694912999996632,-27.928,-29.471,-73.819,-30.213,75.241,-74.729,-109.658,-4.416,9.412,7.866,-17.672,-3.118,-3.178,-34.654,-59.479,-11.087,-59.453,38.795,-13.097,-16.015,13.28,-32.47,-16.627,-42.304,-38.057,-21.496,-103.589,-81.136,-53.127
1.1695542999996178,-32.511,-36.614,-83.991,-42.478,76.703,-75.679,-108.011,-24.392,9.403,4.784,-16.63,-7.726,-6.249,-42.304,-64.542,-13.638,-64.516,35.17,-12.571,-13.438,6.094,-33.462,-20.709,-48.409,-42.117,-23.523,-112.195,-91.813,-61.271
1.1844339999997828,-32.479,-39.139,-77.759,-34.239,85.335,-82.263,-93.046,-25.392,-3.414,-2.393,-17.638,-10.792,-10.854,-45.336,-64.478,-16.698,-68.038,30.011,-15.633,-13.936,3.014,-33.429,-17.615,-49.385,-40.026,-27.086,-118.23,-95.307,-64.283
1.1844900999999481,-24.762,-27.317,-65.386,-7.564,91.397,-85.255,-75.022,-2.825,-15.706,-4.439,-17.108,-3.609,-7.769,-37.606,-60.827,-12.583,-60.285,34.592,-10.494,-12.386,6.085,-24.174,-8.888,-32.942,-26.666,-17.837,-111.964,-81.38,-50.387
1.19952289999992,-28.835,-23.703,-70.956,-2.946,84.646,-86.706,-85.194,-7.433,-15.178,-8.021,-21.701,-5.655,-8.273,-39.105,-66.914,-16.156,-61.25,32.508,-9.459,-14.422,-0.581,-24.15,-9.391,-28.298,-22.541,-14.233,-110.828,-77.2,-42.652
1.2014436999997997,-40.59,-41.61,-85.23,-35.218,75.852,-93.28,-117.384,-32.017,-7.991,-13.649,-32.95,-19.994,-17.999,-49.312,-71.458,-29.46,-73.996,18.644,-22.769,-23.117,-14.413,-35.397,-18.091,-44.664,-34.301,-26.002,-122.5,-93.004,-56.441
1.2145393999999214,-36.963,-43.618,-84.12,-58.749,82.949,-93.699,-112.656,-27.886,-8.495,-10.561,-33.942,-17.924,-18.493,-46.701,-66.776,-28.918,-72.897,19.137,-23.771,-23.606,-16.96,-33.312,-22.684,-44.107,-32.218,-24.439,-126.476,-94.448,-59.971
1.2146058999996967,-28.729,-25.131,-74.302,-36.149,96.186,-87.457,-85.903,-11.464,-11.56,-6.964,-25.199,-8.173,-10.79,-37.945,-65.172,-19.668,-62.066,31.413,-11.964,-15.898,-10.283,-23.545,-18.05,-30.743,-17.329,-13.144,-121.739,-79.497,-46.079
1.2295950999996421,-30.237,-24.081,-75.765,-17.158,99.676,-91.468,-98.112,-13.502,-4.376,-7.47,-25.174,-11.751,-10.267,-36.883,-68.693,-22.21,-60.979,30.87,-11.952,-14.858,-12.322,-23.521,-14.446,-34.81,-17.824,-16.717,-125.203,-80.442,-45.008
1.229660099999819,-31.744,-34.816,-80.3,-33.534,95.99,-97.012,-114.408,-16.563,-0.274,-6.438,-27.71,-14.3,-11.794,-35.309,-69.649,-22.7,-62.455,28.79,-11.94,-12.794,-17.945,-25.035,-18.018,-39.899,-22.929,-19.774,-126.102,-87.534,-54.185
1.2449517000000014,-28.638,-30.682,-78.17,-38.112,97.943,-91.792,-93.801,-16.034,-4.372,-6.431,-23.072,-8.651,-8.708,-31.687,-69.067,-14.48,-59.319,35.421,-6.293,-8.682,-17.415,-23.473,-20.049,-35.76,-18.295,-15.656,-117.267,-81.811,-53.618
1.245018699999946,-22.974,-19.893,-70.407,-17.581,112.702,-85.04,-83.974,-15.505,2.293,-3.351,-17.925,-6.08,-3.064,-30.119,-66.436,-13.953,-55.674,39.484,-8.336,-8.161,-15.86,-19.351,-16.443,-35.212,-15.203,-15.128,-111.514,-70.971,-45.367
1.259533499999634,-14.754,-6.553,-58.554,-5.78,128.983,-77.271,-94.136,-2.17,20.221,12.534,-10.223,1.61,6.161,-23.941,-57.661,-11.378,-49.47,46.104,-2.18,-3.03,-14.82,-9.597,-9.766,-25.956,-10.065,-7.941,-106.792,-54.506,-33.539
1.261295699999664,-12.178,5.236,-53.885,-5.262,132.44,-65.923,-84.308,10.128,29.935,23.792,0.034,8.269,11.278,-19.819,-49.918,-4.707,-44.298,54.255,7.556,3.633,-13.268,-5.489,-3.609,-13.634,-0.833,-0.76,-101.05,-39.594,-30.432
1.2746204000000034,-19.338,-2.454,-69.2,-7.819,125.136,-71.492,-71.416,8.068,19.659,13.522,-7.139,-1.986,3.069,-25.946,-56.016,-14.436,-52.45,48.053,-2.698,-3.031,-20.427,-14.193,-7.192,-21.817,-2.882,-9.469,-106.072,-42.116,-39.623
1.2746843999998418,-25.979,-16.796,-83.988,-19.082,117.838,-89.864,-73.394,3.45,4.27,1.213,-21.476,-11.718,-4.618,-33.093,-68.768,-27.741,-64.693,37.759,-11.916,-11.737,-32.702,-18.79,-16.918,-34.091,-10.051,-17.656,-112.114,-51.808,-45.219
1.2896616999996695,-28.514,-17.804,-84.416,-29.309,112.597,-93.36,-75.37,-2.702,6.315,1.212,-21.455,-9.657,-2.052,-34.084,-69.724,-29.25,-68.727,37.721,-5.245,-8.651,-33.694,-18.771,-18.438,-29.958,-11.578,-16.614,-110.465,-53.805,-47.223
1.289723199999571,-26.949,-17.273,-86.381,-26.718,114.022,-84.557,-78.88,-5.26,16.554,5.822,-19.384,-11.696,-0.001,-34.05,-65.555,-29.734,-67.121,36.659,-7.288,-6.081,-30.586,-19.264,-12.784,-27.367,-9.517,-18.134,-108.817,-52.727,-53.835
1.3045858999998927,-17.7,-15.207,-85.782,-19.006,123.129,-79.862,-83.412,7.553,19.099,11.451,-20.389,-11.172,1.024,-32.992,-64.978,-28.167,-65.005,37.647,-7.281,-6.075,-32.093,-9.511,-6.112,-23.753,-0.798,-12.481,-102.561,-44.477,-48.658
1.3196239999997488,-11.023,-5.97,-76.475,-17.451,126.592,-79.782,-82.817,13.18,19.593,10.928,-15.246,-5.013,5.633,-31.934,-62.863,-23.016,-62.378,44.269,6.046,-3.507,-31.036,0.232,-0.47,-11.947,9.961,-3.247,-95.798,-33.674,-37.339
1.3196790999995756,-17.672,-11.6,-79.472,-24.605,116.219,-86.875,-85.295,-1.177,12.401,-0.354,-20.354,-14.23,-0.008,-37.025,-64.337,-32.726,-68.464,38.59,0.405,-8.627,-35.616,-11.551,-6.105,-17.058,2.266,-11.441,-105.436,-40.301,-44.986
1.334748799999943,-24.826,-22.859,-89.639,-29.704,105.857,-92.936,-87.259,-8.349,-1.956,-7.526,-35.19,-28.048,-10.766,-43.648,-74.007,-46.014,-78.641,26.256,-17.014,-14.254,-48.9,-24.347,-17.882,-33.947,-11.568,-25.261,-117.626,-50.507,-56.724
1.3348121999997602,-18.141,-15.151,-81.865,-18.916,110.362,-85.67,-80.0,2.418,4.706,1.703,-29.52,-19.823,-5.12,-37.969,-71.884,-38.795,-74.464,30.328,-12.899,-6.043,-49.364,-17.151,-16.327,-27.765,-6.946,-21.138,-112.385,-41.747,-48.983
1.3497567999997955,-8.389,-4.89,-70.512,-6.089,120.498,-76.363,-76.334,8.051,21.607,10.923,-14.121,-7.508,5.644,-28.197,-59.516,-26.974,-64.656,38.494,-2.127,0.623,-42.654,-9.449,-7.089,-11.856,1.77,-12.92,-104.588,-31.459,-37.663
1.3498203999997713,-6.332,-2.324,-74.54,-7.108,121.914,-79.361,-81.893,3.432,19.024,9.887,-17.181,-9.037,5.638,-30.731,-60.481,-29.508,-65.104,34.87,-2.125,-3.476,-47.735,-10.977,-5.545,-14.406,-2.33,-11.37,-107.045,-31.94,-38.65
1.3658259999997426,-4.789,3.826,-76.515,-10.174,122.304,-80.306,-90.008,2.917,11.833,9.877,-19.725,-9.028,3.071,-35.311,-64.007,-29.991,-65.551,33.81,-1.611,-3.472,-51.273,-8.916,-9.126,-18.49,-6.426,-8.285,-105.914,-32.42,-42.198
1.3658884999999827,-3.247,3.31,-69.266,-5.553,123.207,-76.127,-93.504,11.623,11.309,11.404,-14.07,-5.945,2.043,-30.665,-58.82,-26.887,-61.387,38.387,0.44,-0.907,-48.148,-4.809,-7.068,-12.836,-5.907,-7.252,-98.635,-31.363,-37.545
1.3798154999999497,-6.83,-3.353,-65.098,-6.06,117.961,-80.662,-83.676,12.124,3.1,5.758,-18.667,-10.55,-3.594,-31.659,-59.786,-30.959,-59.788,37.324,1.977,-1.931,-51.686,-3.78,1.136,-9.237,-3.852,-9.806,-97.0,-29.795,-30.847
1.3947920999999042,-6.823,3.31,-65.545,-11.177,114.769,-83.143,-76.933,4.427,2.073,4.727,-21.21,-10.54,-5.128,-36.238,-62.8,-31.952,-59.729,36.262,9.147,0.633,-55.22,-0.19,5.746,-6.666,3.324,-5.698,-96.903,-23.105,-30.304
1.3966283999998268,0.356,10.992,-69.066,-5.018,121.826,-74.863,-91.2,12.107,14.366,14.456,-9.405,-3.357,0.513,-31.591,-57.102,-24.748,-55.571,38.788,13.236,5.243,-53.116,3.397,4.716,1.025,3.833,-0.569,-90.146,-16.934,-31.811
1.3966772999997374,-2.718,4.321,-72.071,3.184,126.827,-73.763,-95.72,23.366,11.278,11.368,-9.396,-5.915,-2.561,-30.022,-54.483,-23.186,-54.49,34.65,8.1,3.701,-56.137,0.832,0.1,0.512,-6.417,-4.667,-90.568,-21.016,-31.267
1.4098331999998663,-14.498,-3.368,-68.925,-3.48,119.528,-84.448,-73.595,14.121,-4.103,-1.451,-24.243,-15.643,-11.268,-36.652,-60.576,-31.872,-60.071,24.882,3.481,-1.938,-64.277,-4.292,-8.097,-9.735,-12.558,-9.273,-104.31,-27.655,-34.821
1.4098989999997684,-15.509,-4.902,-65.27,-7.575,116.335,-84.876,-74.546,6.934,2.049,4.186,-23.194,-12.553,-7.671,-35.079,-61.028,-34.914,-62.573,25.369,6.551,-2.449,-67.287,-3.775,-9.113,-10.75,-9.472,-6.19,-105.743,-28.652,-34.274
1.4248364999998557,-3.198,0.226,-65.717,4.216,133.637,-73.008,-105.722,17.174,23.564,20.576,-7.29,0.267,3.608,-26.847,-52.258,-23.609,-53.289,36.615,13.717,6.263,-61.072,7.499,2.679,2.581,-3.827,1.501,-88.218,-20.426,-25.018
1.4249142999997275,0.904,3.3,-65.139,5.237,148.873,-75.496,-108.69,19.206,18.417,20.043,-2.159,3.853,3.092,-25.283,-51.181,-15.9,-45.551,37.09,14.728,12.404,-56.913,13.127,6.775,6.677,-0.75,5.086,-81.982,-15.795,-25.506
1.4398245999996107,-9.855,-9.511,-68.66,-17.823,138.99,-90.79,-86.04,7.403,-7.729,9.264,-12.403,-4.86,-6.133,-26.794,-60.864,-26.131,-52.165,24.246,4.979,4.707,-70.176,0.306,-6.04,-3.576,-10.483,-3.116,-96.245,-29.099,-35.214
1.439883799999734,-19.067,-21.797,-73.714,-29.076,130.142,-91.724,-89.028,-0.801,-8.233,5.669,-21.1,-11.515,-6.639,-27.792,-65.926,-35.326,-55.187,21.66,0.364,-4.519,-85.987,-6.866,-10.645,-9.208,-21.743,-11.822,-108.444,-42.902,-37.228
1.454884399999628,-20.073,-18.189,-71.079,-19.825,139.233,-84.46,-105.845,-0.288,6.632,8.225,-20.567,-9.967,-4.071,-26.74,-65.86,-33.754,-49.496,27.274,1.9,-4.002,-87.438,-1.224,-7.048,-7.662,-21.721,-10.786,-110.897,-40.81,-39.24
1.4549496999998155,-23.639,-18.683,-76.131,-19.293,141.143,-89.498,-103.69,8.934,-1.572,4.118,-23.108,-12.519,-8.165,-24.664,-67.843,-36.794,-53.545,20.586,-5.274,-2.974,-89.912,-6.858,-13.701,-11.752,-23.749,-9.238,-110.274,-42.306,-50.984
1.4698977999996714,-28.226,-28.398,-89.375,-29.007,132.805,-98.118,-100.513,17.122,-10.28,-2.546,-30.257,-17.117,-9.694,-20.028,-70.849,-42.905,-55.029,16.98,-9.879,-5.532,-99.556,-13.512,-20.859,-15.839,-28.336,-15.377,-110.164,-51.486,-56.568
1.469964699999764,-25.636,-30.419,-89.798,-28.978,131.648,-94.434,-103.998,8.396,4.075,1.042,-25.616,-13.001,-3.024,-12.836,-70.778,-36.714,-42.166,31.819,-2.697,-5.014,-98.944,-4.276,-12.641,-9.675,-20.623,-17.411,-108.517,-50.922,-53.438
1.4853266000000076,-22.537,-26.29,-80.486,-23.826,134.078,-86.655,-94.16,1.727,9.707,10.263,-17.393,-6.328,0.565,-12.823,-67.634,-28.993,-38.538,43.571,1.916,-1.423,-96.796,4.437,-3.407,-2.493,-12.917,-11.246,-104.31,-48.309,-51.335
1.4853839999996126,-24.051,-21.141,-74.258,-19.192,140.091,-84.007,-83.82,20.169,6.623,12.302,-18.401,-4.785,-0.972,-21.007,-63.468,-27.939,-42.597,40.966,1.402,2.677,-101.822,3.408,-2.892,0.583,-15.466,-10.21,-98.058,-48.261,-47.185
1.499870699999974,-21.465,-14.46,-68.548,-12.0,150.197,-83.923,-91.421,30.395,16.863,11.777,-16.333,-3.243,-1.484,-20.474,-62.892,-28.424,-40.506,33.752,0.376,1.649,-105.307,0.331,-7.499,-1.979,-19.549,-14.81,-97.447,-40.528,-40.478
1.4999277999995684,-14.272,-10.859,-67.968,-10.451,152.096,-85.376,-91.329,6.286,13.772,10.229,-12.218,-5.802,-2.507,-15.843,-62.829,-31.981,-45.588,26.546,-5.772,-1.938,-110.324,-4.793,-16.201,-8.125,-26.702,-16.845,-102.985,-37.926,-39.413
1.5149675999996361,-10.671,-9.824,-71.486,-14.027,152.456,-87.339,-80.48,-7.041,-5.71,4.583,-15.28,-10.407,-5.578,-20.438,-60.717,-32.462,-51.69,24.983,-5.254,1.137,-112.263,-2.739,-18.234,-7.605,-29.749,-12.217,-105.956,-40.962,-39.374
1.5300009999996291,-9.124,-8.277,-70.902,-12.988,161.013,-85.203,-92.182,12.434,0.956,7.652,-11.678,-4.761,-1.987,-19.393,-59.632,-24.232,-43.442,30.081,3.46,6.772,-102.417,7.51,-10.019,-0.425,-26.133,-7.082,-105.338,-34.261,-39.847
1.5300707999999759,-5.528,-5.195,-72.88,-9.389,167.512,-79.482,-112.582,20.106,18.374,17.378,-0.908,3.441,5.188,-10.664,-58.547,-18.06,-39.3,34.662,4.482,6.765,-99.241,10.064,-4.886,-0.937,-29.181,-6.05,-106.257,-30.641,-40.831
1.5449619999999413,-0.912,0.446,-74.857,-7.843,172.468,-78.378,-105.81,5.229,14.769,16.849,2.679,6.511,8.769,-5.018,-55.927,-13.432,-38.236,39.238,6.014,9.32,-105.289,12.616,-2.32,-0.936,-27.615,-2.458,-101.028,-32.147,-34.643
1.5450192999996943,2.163,3.519,-69.659,-6.298,181.517,-79.837,-98.019,4.712,10.144,13.758,3.188,9.579,10.297,0.11,-53.822,-8.295,-28.976,45.346,12.668,14.433,-103.647,18.751,2.806,7.775,-15.292,1.131,-91.705,-26.479,-29.998
1.5601678999996693,-0.913,-2.12,-75.224,-9.366,181.335,-79.245,-113.803,12.392,7.572,14.769,-1.426,5.471,5.676,-7.062,-54.793,-15.459,-34.07,38.128,4.971,6.734,-106.617,10.535,-2.32,4.181,-21.936,-3.993,-95.712,-27.99,-44.312
1.5602555999998913,-7.572,-7.753,-84.371,-17.041,171.932,-85.313,-117.787,7.769,-2.169,7.07,-14.232,-7.343,-3.551,-23.961,-61.91,-29.276,-49.918,23.746,-6.305,-5.055,-119.831,-0.746,-11.027,-7.094,-37.796,-9.625,-107.399,-39.233,-55.026
1.5751002999995762,-7.565,-3.647,-76.089,-14.975,172.785,-92.912,-95.128,3.662,-3.192,-0.622,-17.291,-10.409,-4.06,-20.864,-67.484,-27.71,-45.257,25.259,0.361,-4.538,-120.223,6.427,-6.917,1.11,-27.0,-3.98,-108.829,-34.583,-43.188
1.5769185999997717,-4.996,-0.057,-68.329,-8.812,180.297,-90.258,-87.861,3.659,1.422,4.502,-11.639,-5.788,0.042,-9.06,-65.367,-21.534,-37.015,32.918,2.41,-2.484,-114.468,11.031,-5.374,7.256,-15.702,-2.951,-107.695,-26.351,-34.948
1.5900808999999754,-11.138,-6.717,-77.994,-14.951,178.58,-85.557,-101.605,1.093,1.933,9.108,-13.676,-6.294,-0.982,-14.686,-64.79,-26.124,-44.15,25.713,-7.838,-5.043,-119.988,1.286,-17.151,-2.485,-29.006,-13.707,-114.248,-35.546,-46.696
1.5901427999997395,-19.324,-15.42,-82.015,-22.62,170.204,-90.082,-99.454,0.58,7.054,3.976,-17.249,-8.337,-0.981,-19.282,-70.36,-28.147,-48.204,16.978,-8.855,-4.526,-123.967,-3.326,-21.745,-5.556,-39.736,-17.791,-119.257,-44.22,-54.846
1.6050628999996661,-20.329,-18.478,-76.297,-23.622,165.936,-94.09,-87.572,2.116,3.973,-0.639,-17.232,-10.378,-1.493,-16.701,-71.827,-26.582,-46.619,15.937,-6.285,-5.034,-121.794,-0.761,-18.649,-4.526,-39.696,-14.188,-121.187,-46.225,-50.693
1.6051246999995783,-18.772,-14.873,-73.147,-22.574,167.307,-90.923,-95.681,5.7,-5.765,0.386,-18.751,-10.368,-2.516,-18.734,-67.144,-26.555,-46.573,17.457,-8.84,-7.078,-120.647,4.363,-17.606,-5.034,-36.582,-11.612,-118.504,-44.13,-46.032
1.6194381999998768,-14.655,-4.1,-65.389,-14.867,173.799,-85.709,-103.782,11.33,4.487,8.07,-13.097,-1.648,3.634,-12.567,-63.491,-16.282,-37.817,23.075,-0.122,0.614,-111.817,15.117,-9.392,9.316,-27.324,-4.428,-106.09,-30.253,-35.74
1.6195118999999067,-9.517,3.589,-53.541,-4.606,178.236,-85.623,-88.822,4.659,10.63,10.624,-7.449,0.403,4.143,-3.333,-64.964,-8.581,-30.094,25.102,7.05,5.224,-106.07,17.151,-3.234,16.991,-26.272,-1.862,-97.787,-21.001,-23.408
1.634063199999673,-15.655,-3.075,-54.512,-5.626,174.984,-92.197,-83.61,-4.055,-7.311,0.879,-13.589,-9.332,-6.619,-11.015,-70.535,-18.307,-34.163,16.88,-5.252,-4.515,-115.698,4.839,-13.477,1.093,-40.591,-9.032,-106.911,-29.69,-26.459
1.6357994999998482,-21.787,-9.732,-62.142,-5.62,172.248,-90.568,-106.068,6.195,-6.791,1.391,-15.625,-6.761,-4.564,-13.565,-70.464,-20.85,-32.592,16.863,-10.37,-5.023,-118.144,3.297,-19.612,-3.519,-47.21,-9.536,-112.951,-35.808,-33.605
1.6491282999995747,-17.667,-7.161,-62.08,-3.053,171.051,-81.256,-117.232,9.263,10.634,7.537,-9.973,0.931,4.15,-7.404,-65.271,-12.12,-28.461,21.457,-3.187,2.667,-111.878,10.466,-15.494,1.095,-45.626,-6.452,-107.715,-36.796,-31.522
1.6491910999998254,-24.822,-16.375,-69.19,-24.567,156.535,-87.835,-106.869,-9.19,-1.16,-6.303,-19.185,-11.366,-7.637,-15.593,-72.378,-21.329,-35.605,10.164,-13.942,-5.533,-121.5,-0.303,-24.187,-15.812,-51.216,-16.18,-111.194,-48.543,-42.249
1.6641766999996435,-38.629,-32.24,-87.052,-51.183,144.083,-103.628,-111.885,-17.377,-18.065,-16.543,-31.974,-22.113,-19.925,-22.75,-84.088,-35.653,-41.204,-1.117,-27.761,-17.823,-131.625,-15.16,-37.483,-29.629,-59.874,-25.385,-123.89,-61.814,-60.65
1.6642429999997148,-32.955,-26.572,-89.014,-33.201,155.21,-97.889,-122.02,-7.114,-4.727,-2.181,-22.72,-11.332,-8.634,-14.018,-79.393,-28.445,-33.478,6.057,-17.999,-12.682,-121.759,-10.534,-32.323,-18.841,-58.789,-20.237,-121.205,-58.166,-53.929
1.6791188999995939,-21.652,-13.226,-72.531,-0.38,165.813,-84.984,-106.016,-0.959,6.549,3.968,-11.427,-5.686,-3.502,-10.418,-71.117,-18.682,-29.347,9.125,-6.71,-6.522,-113.44,-1.302,-23.069,-9.6,-50.021,-13.556,-108.788,-47.35,-37.993
1.6791793999996116,-25.728,-16.799,-67.336,-11.138,157.45,-91.559,-95.151,-6.593,-4.729,-7.819,-19.612,-14.901,-14.257,-13.994,-77.706,-21.738,-32.391,2.456,-10.802,-10.613,-116.913,-1.813,-24.583,-12.664,-45.361,-14.567,-108.68,-45.253,-36.419
1.6941729000000123,-22.116,-14.22,-68.293,-24.447,162.928,-91.98,-116.573,-6.587,-6.261,0.386,-17.031,-9.763,-8.608,-10.906,-76.604,-16.593,-29.285,7.064,-8.23,-5.48,-108.599,4.337,-17.386,-4.455,-41.217,-12.504,-111.132,-42.134,-30.234
1.6960303999999269,0.447,11.921,-54.905,8.365,194.528,-62.174,-140.023,17.498,18.849,29.075,10.651,16.374,12.918,-2.186,-55.522,8.527,-13.374,18.84,8.172,12.456,-86.462,24.825,4.661,17.579,-26.319,0.829,-93.603,-23.649,-13.298
1.7092681999997694,12.23,23.18,-42.042,33.973,207.654,-48.792,-134.76,36.436,34.711,34.681,21.911,28.141,17.516,7.038,-45.221,23.375,-3.114,21.895,14.312,19.104,-78.69,34.022,13.366,24.734,-18.608,12.099,-77.115,-11.33,-8.674
1.7242730999996638,-2.639,3.689,-48.66,1.663,181.319,-81.018,-101.837,10.272,3.426,2.371,-5.263,5.571,-1.97,5.494,-61.057,4.909,-12.845,11.114,0.977,5.765,-90.907,18.618,-4.579,3.704,-33.446,3.378,-90.358,-27.2,-18.399
1.7243373999999676,-13.395,-2.974,-56.808,-29.589,164.743,-105.528,-77.145,-16.891,-28.853,-21.71,-22.164,-11.341,-17.337,-4.245,-73.291,-11.49,-23.078,-0.68,-7.22,-4.487,-95.939,7.329,-17.894,-9.62,-46.22,-7.897,-104.613,-37.931,-27.09
1.7396347999997488,-2.623,11.886,-50.604,3.228,186.096,-79.807,-106.269,0.032,-6.283,1.878,-2.674,4.04,-7.586,-3.216,-61.435,2.866,-15.371,1.883,0.984,4.227,-85.085,17.055,-6.093,1.149,-45.149,-1.229,-93.749,-21.499,-21.428
1.7397022000000106,6.601,13.411,-48.504,20.643,199.742,-61.796,-125.118,13.865,25.487,21.856,10.648,14.794,5.742,2.422,-51.127,12.597,-11.257,8.028,3.544,10.883,-78.852,21.649,0.573,4.734,-45.104,6.969,-83.922,-20.965,-15.771
1.7542266999998901,-0.578,4.176,-59.726,-0.382,185.197,-78.641,-92.205,-1.006,8.043,3.391,-2.17,4.021,-0.411,-3.728,-58.249,-0.735,-19.443,0.336,-3.119,3.187,-82.359,10.869,-10.186,-5.517,-49.158,1.327,-87.936,-40.925,-29.587
1.7542859999998655,-8.262,0.073,-69.912,-2.431,177.84,-83.685,-79.305,-2.03,-5.285,-3.272,-8.316,-1.618,-7.583,-7.823,-65.363,-8.419,-20.96,-6.837,-6.702,-2.452,-84.839,6.76,-14.274,-9.098,-53.207,-6.871,-94.508,-48.056,-44.927
1.7692751999998109,-14.914,-10.173,-75.478,-11.138,173.564,-78.478,-110.989,9.755,9.577,3.904,-7.283,-3.154,-2.453,-5.766,-68.371,-8.923,-17.865,-6.83,-10.282,-5.523,-89.365,4.191,-14.772,-15.237,-59.301,-13.524,-105.172,-52.619,-49.493
1.7693499999995765,-24.12,-21.434,-77.964,-38.279,159.045,-88.134,-99.095,6.672,10.592,-3.273,-14.96,-8.274,-3.987,-6.784,-75.987,-15.574,-20.409,-9.385,-13.345,-10.128,-93.374,-4.522,-22.442,-21.369,-59.754,-20.171,-111.727,-61.275,-50.98
1.7843412999995962,-21.535,-12.703,-69.177,-20.822,166.059,-85.484,-72.868,9.739,8.532,1.854,-8.285,-1.093,-3.983,-3.191,-73.862,-9.411,-18.339,-8.863,-8.209,-3.458,-84.571,-1.956,-18.321,-12.638,-49.961,-16.564,-101.369,-53.529,-43.757
1.7994764999998552,-14.341,-2.444,-62.448,11.986,182.799,-70.029,-88.677,19.975,16.721,12.098,1.969,4.544,3.193,1.935,-66.104,-0.18,-16.272,-7.317,-7.176,1.668,-76.802,3.169,-14.204,-13.138,-48.374,-11.425,-96.657,-49.377,-36.029
1.7995406000000003,-19.45,-11.151,-71.094,-10.055,168.784,-80.206,-94.224,6.123,3.896,-5.845,-12.889,-6.732,-5.519,-4.727,-72.185,-10.426,-21.891,-16.019,-15.366,-8.579,-79.799,-5.031,-28.535,-30.031,-56.522,-18.586,-107.831,-63.16,-47.776
1.7995836000000054,-18.918,-13.189,-74.097,-26.951,161.443,-91.908,-90.543,-6.178,-7.378,-11.474,-18.0,-8.774,-12.686,-7.284,-74.675,-11.44,-19.307,-13.954,-12.277,-9.083,-74.084,-2.464,-26.457,-23.341,-52.367,-15.493,-106.187,-56.437,-50.802
1.8143122999999832,-5.067,4.755,-59.678,1.253,184.335,-76.447,-116.068,16.369,10.56,10.054,3.023,3.53,1.671,-0.617,-59.743,3.428,-13.14,-0.62,-0.994,3.221,-61.714,11.37,-7.988,-5.899,-39.507,-0.621,-92.76,-33.327,-28.209
1.814375899999959,-4.037,9.873,-53.471,6.887,188.761,-71.248,-122.612,22.501,14.135,9.532,2.508,1.477,3.206,-5.227,-59.683,-1.698,-19.275,-7.279,-5.091,-3.954,-68.313,6.236,-15.152,-15.115,-45.103,-6.256,-97.278,-34.83,-22.546
1.829421199999615,-15.816,-3.969,-58.541,-10.026,176.277,-86.546,-98.411,-4.674,-6.371,-3.286,-11.327,-6.209,-8.068,-7.783,-76.53,-13.992,-21.305,-19.055,-12.771,-13.172,-76.953,-7.09,-29.994,-28.932,-61.452,-20.082,-112.55,-48.628,-37.38
1.829490899999655,-14.776,-6.527,-57.97,-4.893,184.298,-84.922,-95.751,-6.719,-0.729,5.939,-0.045,5.068,3.211,4.008,-75.429,-1.17,-9.501,-5.716,-4.049,0.674,-66.118,0.601,-17.156,-20.706,-56.267,-10.328,-107.315,-48.067,-33.244
1.844424799999615,-6.564,1.165,-56.887,-1.302,193.848,-72.542,-111.025,12.243,19.764,14.643,9.176,15.821,14.479,8.615,-64.595,11.639,-3.856,8.122,5.177,7.333,-55.806,13.921,-2.794,-11.976,-40.33,-1.608,-93.375,-41.871,-23.989
1.8444922999997289,-8.607,-1.398,-64.515,-7.448,190.068,-71.957,-112.963,8.645,13.084,11.554,-0.054,10.682,2.681,1.434,-69.141,3.43,-7.95,4.528,2.098,-0.871,-57.287,13.395,-3.304,-11.452,-40.289,-6.217,-95.331,-40.805,-33.187
1.8604545999996844,-15.258,-6.008,-65.987,-2.83,193.464,-75.471,-101.579,-0.585,-2.811,6.932,-3.64,2.987,-1.932,0.408,-75.22,-3.233,-4.868,2.986,0.559,1.179,-57.23,11.844,-3.813,-8.367,-41.786,-3.137,-100.871,-45.375,-41.351
1.8605191999999988,-19.341,-3.44,-52.089,-0.778,191.733,-80.519,-91.744,6.075,-0.246,-0.247,-7.223,-1.627,2.681,1.944,-73.095,-3.742,-4.351,4.52,0.558,0.665,-56.66,13.369,-3.809,-7.334,-33.547,-1.085,-102.307,-48.915,-32.6
1.8744426999996904,-25.47,-7.535,-43.328,-8.974,175.66,-89.148,-100.873,11.705,5.389,-5.883,-16.437,-8.285,-5.007,-3.181,-75.584,-13.473,-13.569,-2.144,-5.078,-10.606,-61.726,4.647,-9.44,-12.962,-35.563,-10.305,-112.451,-46.817,-21.809
1.8894641999995656,-29.03,-15.212,-56.092,-14.6,170.361,-90.083,-112.556,5.545,-1.788,-8.438,-18.47,-13.4,-12.686,-9.325,-80.119,-25.242,-21.752,-10.339,-8.659,-12.132,-65.763,-5.092,-17.628,-17.047,-44.749,-12.857,-117.974,-50.357,-31.009
1.8913125999997646,-28.489,-15.709,-76.528,-20.734,171.728,-87.944,-106.808,-7.78,-9.471,-15.09,-19.988,-17.485,-11.649,-12.902,-80.039,-28.803,-23.779,-13.403,-12.236,-13.145,-64.161,-5.599,-22.733,-19.079,-44.704,-10.282,-112.221,-60.552,-53.007
1.9044991999999183,-29.485,-17.743,-84.136,-24.811,163.359,-94.004,-112.849,-16.482,-13.56,-19.685,-26.116,-23.615,-18.297,-18.012,-82.52,-30.824,-29.391,-19.537,-19.908,-24.402,-63.072,-9.18,-25.785,-21.622,-44.147,-14.883,-114.158,-60.492,-55.003
1.9045624999998836,-33.554,-23.873,-83.028,-23.762,157.56,-98.008,-121.445,-11.342,-17.645,-17.617,-27.627,-26.665,-24.427,-24.654,-86.024,-35.403,-38.583,-24.128,-20.913,-24.89,-68.132,-16.343,-32.419,-25.186,-50.251,-19.479,-121.216,-59.407,-47.264
1.9195181000000048,-31.984,-25.386,-83.969,-22.713,166.624,-90.225,-100.319,-4.158,-9.943,-14.525,-22.989,-22.028,-16.718,-21.556,-83.376,-32.294,-34.446,-18.981,-14.745,-16.669,-67.551,-12.228,-33.923,-26.698,-52.25,-19.459,-119.558,-68.057,-58.487
1.919579899999917,-27.341,-24.848,-85.935,-18.592,178.241,-83.987,-96.632,-1.593,5.949,-8.363,-14.769,-13.297,-6.967,-8.727,-80.731,-22.016,-19.555,-10.253,-11.656,-14.09,-56.213,-5.556,-26.205,-24.622,-50.148,-17.903,-119.438,-70.038,-68.675
1.9344873999998526,-33.461,-31.483,-94.558,-21.135,177.038,-90.051,-127.787,1.995,3.893,-6.305,-12.705,-10.722,-7.473,-6.156,-83.724,-18.408,-15.437,-9.73,-13.181,-14.589,-54.108,-9.649,-27.715,-29.208,-55.733,-18.909,-123.417,-71.505,-68.606
1.9345447999999124,-46.235,-41.186,-108.808,-38.533,159.955,-97.646,-125.097,-7.229,-15.578,-18.594,-22.426,-15.834,-12.588,-13.323,-87.227,-26.074,-20.544,-13.819,-14.193,-16.623,-63.787,-15.274,-36.397,-38.913,-61.825,-26.063,-127.904,-87.827,-81.345
1.9495198999998138,-47.214,-44.218,-110.748,-42.08,147.499,-97.036,-98.332,-19.517,-15.05,-23.699,-27.014,-16.843,-12.576,-10.235,-88.164,-26.048,-16.938,-9.707,-12.642,-17.119,-61.674,-12.185,-30.213,-33.239,-55.104,-27.574,-129.313,-92.35,-87.924
1.9512338999998065,-38.97,-37.514,-103.465,-26.669,155.037,-90.279,-113.603,-8.226,5.969,-9.331,-18.278,-9.141,-6.415,-2.028,-83.465,-15.776,-8.724,1.574,-8.018,-11.979,-52.903,-5.001,-20.449,-20.398,-41.216,-20.374,-123.036,-78.938,-74.516
1.964524099999835,-43.541,-36.452,-107.46,-31.765,153.345,-94.287,-132.445,-1.046,5.451,-8.297,-20.821,-12.206,-8.458,-5.1,-79.796,-19.858,-10.252,0.548,-9.547,-17.602,-58.486,-10.631,-27.601,-27.037,-43.224,-24.452,-122.401,-80.396,-74.441
1.9645929999996952,-56.818,-48.711,-117.087,-52.226,133.724,-109.562,-109.259,-14.877,-19.657,-30.318,-37.706,-27.051,-21.77,-12.78,-89.962,-38.281,-18.951,-12.773,-21.833,-29.368,-70.21,-27.014,-40.381,-39.306,-58.038,-37.235,-134.574,-93.635,-87.175
1.9796631999997771,-53.175,-47.125,-110.31,-45.514,135.127,-109.965,-99.415,-13.838,-20.662,-32.336,-37.669,-28.048,-25.334,-11.23,-97.557,-37.731,-20.981,-15.834,-27.446,-25.752,-68.603,-29.549,-43.414,-37.73,-58.492,-35.661,-134.439,-88.418,-79.915
1.9797301999997217,-37.752,-28.635,-93.293,-26.0,154.972,-92.436,-114.173,-5.627,-1.686,-12.836,-21.237,-15.213,-16.087,-5.583,-89.262,-24.373,-12.251,-7.621,-19.222,-18.042,-59.825,-20.298,-37.735,-33.593,-48.7,-28.965,-122.522,-75.01,-67.028
1.9949532999999064,-36.178,-26.045,-86.028,-27.511,157.378,-90.807,-107.399,-16.38,-5.783,-11.799,-18.142,-13.148,-12.997,-6.602,-82.001,-24.861,-8.14,-3.003,-17.154,-19.048,-57.716,-23.351,-32.575,-32.535,-47.114,-30.986,-122.912,-70.837,-66.961
1.9950262999996085,-39.215,-33.191,-89.528,-31.07,152.098,-97.888,-101.656,-15.339,-14.999,-17.935,-24.272,-16.209,-15.546,-8.645,-81.406,-26.373,-13.255,-3.512,-19.186,-16.468,-56.122,-23.328,-33.567,-28.404,-47.579,-27.881,-124.326,-69.229,-65.869
2.0095987999998215,-32.516,-25.986,-90.463,-24.891,158.093,-91.643,-118.461,-2.003,-7.812,-11.769,-21.174,-10.045,-13.993,-6.075,-76.714,-17.125,-11.705,-2.484,-11.482,-11.84,-49.406,-9.985,-30.459,-24.79,-43.433,-20.681,-115.492,-66.598,-63.754
2.011320699999942,-31.971,-24.423,-88.835,-28.965,161.521,-90.526,-123.977,-13.784,-12.927,-13.807,-18.079,-7.986,-15.004,-6.581,-77.662,-17.62,-7.595,-0.432,-6.86,-12.853,-45.77,-7.413,-23.769,-26.302,-41.853,-22.197,-114.864,-68.581,-66.764
2.024672399999872,-35.526,-30.546,-88.234,-29.96,163.921,-92.998,-128.977,-23.505,-11.377,-14.305,-18.06,-10.027,-13.964,-8.111,-80.146,-16.578,-10.149,1.105,-10.439,-11.303,-44.187,-8.943,-21.696,-22.177,-41.299,-19.613,-115.774,-68.0,-63.111
2.024736799999573,-28.83,-22.318,-86.609,-13.024,173.491,-81.634,-139.606,-7.087,10.664,-0.971,-11.382,-2.332,-6.778,-0.419,-75.967,-5.803,-7.065,3.153,-5.305,-5.657,-36.459,1.312,-16.039,-12.421,-35.11,-11.397,-111.048,-63.321,-54.851
2.039766499999587,-31.875,-24.345,-85.498,-14.548,168.195,-87.7,-117.949,-4.519,-4.716,-12.241,-15.47,-5.916,-11.382,1.119,-82.039,-12.457,-7.57,0.076,-5.3,-11.799,-40.521,-2.787,-11.924,-15.482,-32.513,-15.484,-117.084,-66.844,-60.432
2.0398337999999967,-46.188,-38.666,-91.56,-29.903,155.219,-105.031,-106.048,-14.76,-30.839,-30.672,-29.286,-23.841,-21.104,-7.079,-92.715,-29.351,-17.809,-6.584,-16.566,-22.545,-52.775,-15.08,-19.085,-23.664,-33.505,-22.64,-128.238,-77.535,-71.13
2.0547309999997196,-43.58,-32.992,-94.03,-21.676,165.31,-88.532,-138.218,-8.598,1.979,-9.124,-21.06,-20.231,-12.374,-6.048,-85.45,-22.662,-14.205,-4.528,-13.475,-18.424,-46.063,-4.819,-18.041,-14.419,-24.763,-15.958,-124.011,-76.946,-67.472
2.054796299999907,-38.926,-26.811,-88.813,-16.531,173.854,-77.172,-145.252,-5.515,26.568,3.181,-12.842,-10.989,-6.214,-4.505,-83.828,-18.541,-7.018,0.087,-7.314,-13.283,-37.82,0.822,-7.777,-5.183,-16.029,-12.356,-121.326,-71.233,-64.331
2.069691999999577,-53.744,-42.153,-91.286,-30.859,154.212,-103.223,-112.319,-10.121,-5.734,-27.049,-35.883,-26.347,-21.577,-17.82,-99.626,-35.428,-20.843,-10.671,-17.041,-21.979,-47.516,-15.573,-14.429,-16.448,-23.697,-20.54,-134.012,-78.847,-74.001
2.0847710999996707,-57.276,-44.673,-95.805,-30.316,145.861,-108.755,-82.493,-2.938,-22.634,-33.682,-41.483,-28.37,-23.092,-21.901,-96.965,-35.393,-26.458,-19.882,-17.536,-23.494,-46.444,-16.07,-23.124,-22.067,-30.846,-23.081,-137.976,-81.329,-77.513
2.084834199999932,-37.751,-29.771,-89.049,-25.675,168.769,-86.617,-92.144,1.676,10.176,-7.52,-12.24,-2.727,-3.089,-10.096,-77.4,-12.816,-11.575,-11.665,-2.661,-9.638,-31.028,-0.172,-9.781,-10.774,-24.155,-14.861,-126.055,-68.44,-70.263
2.0997793999999885,-27.467,-22.569,-87.423,-27.699,183.97,-83.969,-101.786,-0.888,16.826,-1.877,-0.444,9.572,3.061,-4.963,-71.175,0.005,-7.465,-3.969,1.952,-1.944,-25.362,3.414,-0.549,-5.64,-20.545,-8.699,-115.171,-64.273,-70.193
2.09984089999989,-26.928,-18.96,-94.508,-10.253,187.372,-84.397,-116.029,8.335,-0.097,-3.412,-5.567,8.537,0.497,-2.908,-72.128,3.079,-9.506,-2.941,3.487,-2.454,-21.238,4.435,-7.721,-9.733,-26.159,-6.641,-109.933,-67.795,-72.684
2.115198799999689,-20.753,-13.818,-91.34,-2.045,195.894,-75.604,-126.671,12.425,7.075,6.325,2.636,15.701,7.156,3.754,-70.007,7.686,0.237,2.185,8.607,-1.427,-10.97,10.066,-8.226,-9.211,-27.67,-3.048,-104.187,-61.58,-67.488
2.115266099999644,-20.732,-11.755,-82.539,-17.925,199.284,-81.676,-110.663,0.629,15.777,1.195,4.682,15.685,8.686,2.726,-73.011,6.142,0.237,1.671,5.012,-5.012,-11.984,6.982,-5.144,-7.665,-24.056,-1.508,-100.497,-53.321,-65.371
2.1297946999998203,-27.884,-9.694,-81.944,-6.124,195.498,-91.328,-92.621,0.629,7.565,-8.54,-5.056,5.424,-0.544,-2.4,-78.061,-1.037,-9.497,-6.015,0.396,-10.13,-18.12,1.852,-8.725,-6.633,-20.446,-4.068,-100.396,-47.633,-64.794
2.1298531999996158,-24.27,-9.172,-80.838,11.301,196.84,-85.089,-95.603,11.387,4.483,-5.97,-6.588,2.857,-1.056,1.189,-79.007,-6.159,-6.414,-1.911,3.47,-10.632,-15.54,2.875,-5.642,-3.552,-15.815,-5.089,-100.296,-41.437,-56.532
2.144919299999856,-17.073,-6.601,-73.072,-11.764,202.791,-78.856,-98.069,11.888,13.7,-2.89,-4.532,3.366,5.093,5.286,-74.83,-7.69,3.326,8.849,5.515,-8.06,-10.401,5.434,2.561,0.55,-8.627,-3.034,-102.757,-34.224,-50.328
2.144982599999821,-18.081,-0.959,-68.389,-18.413,202.588,-83.388,-92.847,7.265,19.322,-4.424,-9.139,-2.785,1.502,0.67,-71.681,-11.268,1.274,7.304,2.948,-8.052,-10.391,4.404,-2.053,2.598,-7.594,-3.031,-106.241,-27.017,-49.253
2.159866299999976,-27.284,-7.619,-77.029,1.586,191.627,-94.575,-93.267,0.598,7.52,-13.641,-17.326,-13.028,-10.795,-8.04,-81.343,-24.065,-11.535,-6.024,-3.715,-16.753,-18.065,-5.847,-14.858,-6.113,-16.295,-10.2,-112.282,-28.015,-50.741
2.159931400000005,-32.892,-19.394,-87.711,-8.15,187.337,-97.555,-91.124,-6.063,-1.709,-20.8,-22.432,-16.089,-12.321,-10.081,-91.508,-30.188,-17.159,-10.116,-8.322,-22.372,-19.072,-9.94,-16.893,-14.304,-16.791,-16.338,-116.781,-31.573,-56.325
2.1748948999997992,-24.15,-10.153,-78.402,-14.289,203.543,-81.063,-78.226,9.312,17.248,-2.336,-9.09,-2.241,4.597,-1.362,-81.683,-15.301,-6.383,0.14,3.47,-7.492,-3.683,4.927,-4.068,-1.482,-3.454,-8.125,-105.905,-17.197,-52.683
2.1749582999996164,-12.343,0.616,-69.102,7.242,215.635,-71.248,-78.147,32.869,37.21,17.134,7.825,11.081,15.863,6.324,-69.306,-0.941,2.332,6.8,15.249,4.298,7.591,15.681,3.108,11.327,3.209,4.179,-91.967,-3.859,-41.359
2.189854899999773,-14.38,-7.07,-80.303,2.112,206.198,-83.985,-86.778,23.102,26.927,4.822,1.158,9.533,10.724,3.756,-72.823,-6.063,-4.842,2.695,9.599,-0.829,5.534,11.054,-0.481,4.143,0.644,2.125,-98.023,-12.052,-47.466
2.1899141999997482,-14.878,-7.575,-84.834,-8.649,201.381,-90.561,-73.372,3.612,8.969,-7.478,-6.528,10.036,7.64,0.679,-73.774,-7.594,-3.813,2.692,8.564,1.733,11.676,13.093,-1.505,3.627,5.767,-2.487,-105.61,-13.577,-55.103
2.20496009999988,-2.567,5.24,-74.503,8.778,211.938,-82.273,-65.101,16.928,7.936,-0.811,4.237,17.198,10.706,2.215,-64.991,3.172,7.462,8.325,21.364,12.49,22.935,21.276,2.082,12.845,10.372,6.224,-99.356,0.781,-44.289
2.2050216999996337,5.12,11.895,-70.33,10.819,220.435,-78.605,-83.992,30.743,23.297,5.338,10.893,17.694,13.257,5.799,-61.34,9.316,7.966,8.829,24.928,12.478,28.036,22.28,6.179,12.832,9.849,12.878,-94.646,9.489,-35.536
2.2199641999995947,8.189,15.469,-63.087,3.123,225.338,-73.403,-89.543,21.491,36.081,8.918,12.419,20.75,18.879,13.99,-59.742,12.381,11.032,14.455,24.903,13.49,35.692,22.77,8.734,13.331,17.524,11.841,-90.965,16.14,-30.889
2.2200261999996656,11.254,21.089,-52.266,14.903,226.65,-68.719,-77.67,21.982,28.873,11.471,14.968,25.34,18.348,18.075,-58.658,13.906,17.681,20.589,27.44,15.013,37.706,23.772,7.189,14.855,21.605,12.853,-83.19,22.784,-21.125
2.2352821999998014,8.681,20.556,-56.312,11.814,219.251,-77.36,-82.716,24.522,18.598,5.824,7.268,16.605,8.596,9.86,-62.697,3.645,6.393,9.81,18.703,5.777,29.983,19.137,6.157,5.106,9.8,11.304,-85.668,18.15,-24.177
2.235338899999988,6.623,18.486,-59.842,0.02,212.884,-84.967,-84.682,10.152,22.166,-0.329,0.601,5.83,6.538,4.214,-65.709,-5.58,-1.811,-0.446,8.951,1.16,32.003,13.995,5.638,-1.559,2.106,6.169,-89.169,14.546,-34.912
2.249957600000016,9.691,21.029,-56.708,10.778,215.232,-77.71,-81.012,13.728,25.217,2.745,8.285,9.41,12.679,6.772,-63.081,-0.451,7.925,7.751,15.602,5.77,38.118,12.956,1.022,1.517,7.227,4.114,-86.518,16.068,-32.315
2.250014799999917,11.73,19.984,-61.774,16.915,219.116,-69.947,-94.763,30.621,30.315,14.013,14.937,17.598,16.765,6.765,-62.506,7.234,8.43,9.792,21.734,7.301,39.105,15.505,2.045,4.589,12.342,6.671,-90.017,11.441,-30.746
2.266171399999621,13.255,16.377,-64.786,10.238,220.433,-71.414,-89.545,17.27,38.994,19.122,14.922,20.142,19.822,4.197,-64.493,7.739,1.249,0.049,19.151,7.293,41.627,19.588,10.753,8.17,15.404,9.738,-93.001,9.893,-37.375
2.280044799999814,7.094,10.726,-65.746,5.617,209.967,-81.589,-62.815,0.347,25.123,3.734,7.222,12.949,14.167,3.168,-67.502,1.584,1.76,-3.025,14.008,4.212,39.024,14.445,5.107,5.088,14.364,5.63,-89.322,8.346,-44.51
2.280109299999822,-5.72,0.981,-76.951,-9.246,194.9,-91.241,-70.437,12.642,6.142,-11.127,-6.617,1.666,3.906,2.14,-70.508,-9.689,-2.34,-6.096,5.798,-8.087,32.325,2.648,-8.219,-6.7,10.251,-2.572,-95.381,-1.908,-52.15
2.2950722999999016,-3.665,0.468,-75.85,-16.921,197.779,-83.978,-87.785,16.728,17.407,-4.456,-7.123,1.152,4.927,2.138,-70.438,-12.753,-5.924,-10.188,3.23,-12.69,33.83,2.645,-4.624,-7.205,14.339,-1.545,-99.896,-1.906,-50.049
2.2951288999997814,1.974,8.664,-64.503,-2.047,205.266,-76.721,-76.939,3.391,23.025,-1.378,-0.968,3.712,5.947,1.111,-70.367,-8.642,-0.795,-7.617,9.887,-7.554,36.357,9.302,1.528,0.999,22.522,3.579,-92.624,6.805,-42.314
2.30905679999978,-4.176,6.094,-67.512,2.053,200.962,-89.965,-71.739,5.437,4.046,-12.135,-8.652,-0.902,-1.744,-5.038,-70.809,-10.682,-5.405,-9.658,8.34,-7.034,37.346,5.195,-4.621,-3.101,18.401,-0.523,-91.506,4.749,-45.346
2.3091150999998717,2.488,6.088,-50.539,7.174,205.884,-94.485,-71.667,18.239,6.092,-8.024,-8.131,2.685,1.844,-5.545,-66.128,-9.135,-10.011,-12.21,7.307,-6.003,44.481,2.628,-1.03,-6.171,17.87,-2.571,-90.39,7.818,-33.517
2.324012699999912,16.83,21.451,-17.701,31.246,218.998,-79.534,-60.325,21.807,22.992,6.841,7.246,12.416,10.039,0.608,-62.476,0.608,0.246,-3.489,15.497,-1.898,47.51,11.847,9.217,2.544,28.099,5.628,-78.005,24.204,-0.696
2.325703699999849,7.592,21.43,-3.851,33.264,216.218,-76.893,-65.9,19.224,21.432,6.834,5.702,9.33,5.93,1.12,-68.561,-1.441,2.295,-3.485,11.383,-5.482,41.827,10.81,2.035,1.517,23.972,4.598,-79.976,24.692,8.526
2.3391326999999364,-2.662,9.625,-12.044,20.935,212.415,-83.988,-76.592,19.204,14.75,-1.37,-4.037,3.173,4.388,-2.467,-72.591,-6.563,-6.929,-15.777,3.687,-7.526,42.298,2.09,-7.701,-8.731,10.116,-3.091,-95.777,13.396,-3.265
2.3391977999999654,7.075,19.862,12.559,34.234,221.937,-79.806,-60.634,22.771,13.711,-0.856,2.114,9.317,7.457,1.634,-66.37,0.103,-3.336,-11.15,11.368,-1.371,49.428,7.724,-2.057,-5.136,12.155,2.547,-95.169,19.531,15.693
2.354151599999568,8.092,29.576,40.724,38.811,225.301,-78.189,-52.889,21.724,10.111,3.756,7.748,13.919,3.863,3.681,-62.206,3.177,1.278,-2.43,12.893,-0.857,51.94,13.351,1.018,-0.008,15.729,8.692,-88.414,29.245,40.268
2.3542137999997976,-4.211,16.226,39.146,21.866,220.977,-85.283,-69.23,11.456,10.101,1.19,3.129,8.782,2.323,-1.958,-66.754,-2.974,-3.846,-11.649,2.634,-4.955,49.326,3.092,-7.692,-10.254,7.004,-0.026,-94.473,21.531,33.056
2.3701780999999755,-4.207,12.624,42.181,25.43,217.682,-86.735,-78.895,12.981,13.165,-2.909,1.589,8.261,5.907,-2.468,-71.81,-0.921,-2.818,-16.248,6.218,-5.462,45.691,-0.498,-9.221,-14.342,3.411,-5.149,-97.965,16.387,28.924
2.37024109999993,0.92,19.783,57.508,33.601,213.366,-85.624,-76.767,23.215,10.078,-1.37,0.563,10.301,4.364,-0.416,-73.276,0.616,-1.278,-10.084,9.798,-8.531,44.108,7.188,-3.576,-3.569,0.333,1.004,-93.256,23.543,34.018
2.3841850999997405,-3.691,16.177,52.327,21.785,211.104,-89.124,-67.981,10.384,5.457,-3.93,-5.585,3.119,-1.788,-5.539,-73.202,-8.606,-6.4,-16.222,1.079,-13.645,44.064,4.107,-5.11,1.045,-11.45,4.589,-94.7,27.617,16.566
2.386063099999774,-3.688,20.772,43.053,22.275,214.479,-88.523,-58.691,-1.922,6.476,-7.512,-6.092,-1.495,-3.323,-6.046,-74.154,-10.646,-3.32,-18.767,2.615,-12.095,45.557,-1.021,-7.666,-3.054,-4.266,2.535,-97.167,29.639,6.303
2.3991871999996874,8.099,38.17,58.379,43.258,222.973,-79.725,-63.243,15.498,12.617,2.742,3.648,6.703,2.828,1.645,-71.006,-1.927,2.831,-7.478,10.809,-7.984,50.122,7.69,-1.511,-0.49,26.476,6.631,-91.947,40.88,39.085
2.4142181999995955,16.8,48.378,78.301,58.071,233.509,-74.01,-61.131,27.778,16.703,9.399,9.28,12.332,6.411,2.155,-61.713,1.662,2.316,-4.909,11.823,-3.878,56.22,16.391,4.638,9.244,41.307,16.871,-80.584,59.795,65.685
2.414281299999857,18.833,53.452,77.198,58.013,237.886,-78.034,-44.676,16.48,12.588,-0.857,8.758,10.783,-1.28,-0.921,-56.528,1.66,1.802,-10.027,15.397,-0.288,62.823,18.936,7.195,18.969,32.556,24.539,-67.696,74.592,44.615
2.414321399999608,21.375,52.374,66.362,49.246,236.624,-83.592,-55.389,10.316,6.94,-4.442,11.311,11.284,-4.865,1.13,-58.009,5.244,0.775,-11.042,18.455,-1.312,66.347,22.503,9.75,22.024,29.962,26.563,-60.968,69.906,34.324
2.429182999999739,22.891,41.051,63.735,42.537,236.387,-81.971,-85.56,12.867,6.933,2.735,14.886,12.81,2.824,-0.409,-55.389,7.288,-3.324,-13.592,16.388,-1.823,66.28,24.018,7.178,16.367,33.006,25.512,-61.419,50.369,63.492
2.4441296999998485,21.843,37.936,60.597,47.617,237.175,-76.766,-79.839,15.415,10.0,5.806,15.895,14.846,4.871,0.617,-50.723,10.355,1.29,-12.042,20.47,2.79,65.702,22.969,2.048,14.813,23.752,24.974,-62.895,45.708,61.891
2.4442002999999204,21.309,40.972,42.093,43.471,237.45,-77.714,-52.607,11.814,12.039,6.825,16.392,17.905,3.841,7.276,-52.209,13.931,6.924,-5.882,21.474,1.762,62.562,19.872,0.509,13.774,11.945,19.826,-66.93,51.297,29.554
2.4592446999999993,15.14,28.636,25.145,23.448,233.114,-83.272,-52.554,0.019,14.076,7.33,13.814,17.375,8.961,8.806,-59.842,8.794,4.356,-9.462,11.719,-7.461,54.303,9.606,-5.639,1.977,6.81,10.073,-74.036,37.414,16.204
2.4593097999995734,3.342,14.263,22.558,18.301,224.172,-84.213,-72.994,-1.006,20.722,6.298,9.702,16.846,12.538,7.772,-64.905,4.174,3.327,-14.576,7.609,-11.04,47.588,1.912,-15.367,-6.734,0.655,2.378,-77.548,18.421,27.459
2.474294099999952,-5.371,5.539,11.265,14.697,212.677,-88.227,-80.606,2.069,16.603,0.657,4.057,12.73,6.378,5.715,-69.963,-2.49,-0.263,-17.123,4.015,-13.078,42.418,-1.676,-17.401,-7.752,-7.542,-5.309,-80.544,13.792,4.378
2.4743586999998115,-13.05,-7.786,-8.214,-10.421,195.046,-104.02,-73.865,-12.79,-3.394,-17.787,-11.829,-4.701,-4.9,-5.049,-78.09,-20.418,-9.996,-28.376,-6.748,-24.848,31.105,-12.945,-21.482,-18.503,-13.682,-12.988,-87.124,6.093,-17.656
2.489632399999664,-15.598,-7.779,-6.156,-15.534,186.654,-108.527,-73.279,-16.875,-2.878,-24.429,-18.477,-12.381,-8.481,-8.63,-78.524,-28.082,-11.011,-33.983,-7.766,-30.971,27.487,-17.03,-25.047,-24.12,-13.669,-10.926,-83.963,-0.06,-3.294
2.4896926999999778,-5.337,9.135,5.633,9.585,203.886,-92.537,-74.743,0.048,20.691,-4.425,-3.09,0.439,-1.3,-0.425,-68.712,-13.71,-6.902,-28.314,-0.586,-21.206,38.731,-4.718,-17.337,-10.776,-4.434,-0.157,-71.071,11.723,5.419
2.5042446999996173,0.816,11.175,2.553,13.674,215.465,-85.785,-63.91,-2.002,19.646,0.19,4.086,3.513,0.238,-0.936,-66.594,-10.11,-5.358,-28.798,-3.146,-15.549,42.79,-3.176,-15.271,-6.154,-2.892,1.38,-68.951,18.883,-2.784
2.504306599999836,-6.357,-0.107,-2.572,0.852,199.368,-94.92,-52.063,-5.586,1.183,-16.716,-9.751,-5.2,-9.496,-2.472,-72.163,-17.784,-3.303,-32.868,-6.729,-22.706,33.014,-12.395,-23.965,-15.882,-13.135,-4.769,-76.566,8.106,-5.342
2.519549199999801,-13.01,-4.717,-4.107,0.339,188.41,-100.461,-51.498,6.715,-0.355,-17.724,-16.913,-4.683,-11.023,3.165,-73.627,-17.254,-6.374,-33.859,-8.772,-29.343,27.345,-12.382,-28.039,-18.94,-19.27,-7.325,-82.637,-1.636,-11.997
2.5196138999999675,-16.071,-7.786,-11.275,-5.809,191.808,-102.41,-61.693,-4.05,-0.867,-15.657,-13.31,-3.653,-6.914,0.088,-74.066,-16.725,-13.027,-40.998,-12.349,-29.314,26.806,-14.419,-31.597,-22.507,-20.788,-10.904,-90.752,-6.245,-21.719
2.5342867999997907,-17.08,-8.291,-13.313,-11.951,191.616,-100.77,-71.877,-17.878,-5.989,-22.301,-13.809,-2.625,-7.419,-2.473,-73.992,-15.171,-6.354,-39.42,-7.726,-23.137,25.754,-16.966,-35.152,-27.608,-23.841,-14.48,-90.661,-5.727,-18.111
2.53434309999966,-7.329,1.964,-4.078,-0.156,195.523,-95.034,-67.707,-3.516,-0.86,-17.156,-10.209,6.087,-2.801,7.263,-67.77,-3.885,5.947,-24.523,3.04,-15.429,28.802,-8.24,-26.92,-20.408,-20.743,-6.78,-78.275,1.964,-11.945
2.5493561999996928,-3.735,5.035,-3.049,3.431,199.938,-95.451,-63.541,-4.537,-0.347,-16.627,-5.076,7.105,1.3,8.793,-66.166,-3.369,6.454,-25.011,3.037,-16.439,28.261,-5.158,-24.844,-18.338,-20.21,0.399,-79.734,4.523,-12.446
2.549417999999605,-11.928,-2.142,-12.268,-6.307,194.615,-97.918,-75.773,-19.902,-4.957,-24.294,-7.12,0.438,-1.775,2.124,-71.735,-8.489,1.837,-32.671,-1.065,-19.496,23.11,-11.301,-31.479,-24.467,-23.776,-5.749,-101.171,-0.092,-11.921
2.5644320999999763,-4.744,3.496,-9.694,1.384,200.568,-91.16,-73.135,-8.611,1.195,-16.073,-5.064,6.073,2.838,6.22,-67.052,0.229,3.884,-27.515,2.523,-12.816,29.234,-4.629,-24.787,-17.271,-16.068,-3.182,-110.803,5.031,-7.298
2.564495199999783,12.679,18.349,6.197,19.314,219.323,-81.847,-50.008,5.23,7.342,-4.786,5.188,15.289,10.007,8.263,-56.739,6.889,4.905,-27.488,7.643,-6.144,38.939,3.572,-12.979,-2.909,-0.682,11.166,-95.836,19.883,5.517
2.579457399999683,12.666,21.405,10.802,24.93,222.69,-75.105,-52.52,3.175,8.871,-2.732,7.744,13.224,7.948,-3.528,-55.658,2.271,-4.322,-40.268,5.586,-9.724,33.777,2.544,-11.429,-1.369,2.392,13.204,-83.957,24.474,17.294
2.579527199999575,3.944,13.699,-0.992,16.708,212.733,-77.079,-69.886,-1.438,6.813,-3.242,3.638,10.137,4.354,-11.209,-59.188,-1.83,-14.564,-48.424,-0.567,-16.374,26.571,1.005,-15.517,-5.466,-2.733,7.043,-90.533,16.765,8.568
2.5944816999999603,4.453,7.537,-6.626,4.396,206.885,-88.273,-66.23,-1.437,-2.927,-9.899,2.61,11.151,4.862,-4.538,-57.08,-2.34,-10.451,-49.401,-3.128,-16.358,27.057,-1.046,-18.575,-8.022,-5.292,6.523,-96.59,13.162,-2.711
2.594544599999608,5.985,9.066,-2.009,3.367,210.265,-87.672,-61.04,7.274,-2.924,-10.913,7.218,15.239,7.418,4.176,-57.023,4.322,2.368,-43.204,2.511,-11.73,26.517,-0.02,-15.482,-8.014,-1.188,6.005,-90.858,17.76,3.439
2.609798299999966,-0.681,8.545,-6.106,9.511,214.665,-80.925,-67.127,3.68,7.325,-3.73,7.21,17.785,9.972,6.733,-60.552,10.978,3.902,-34.451,6.607,-11.206,24.442,2.542,-10.344,-7.494,1.374,3.437,-94.866,12.106,2.411
2.6098583999996663,-11.951,-2.222,-17.37,2.329,207.278,-92.627,-63.986,-23.476,-1.904,-13.973,-4.58,9.058,1.253,4.165,-63.565,1.745,-3.274,-38.003,3.526,-16.318,18.269,-4.121,-13.92,-15.171,-1.188,1.897,-110.652,-1.226,-11.424
2.624437299999954,-15.525,-4.781,-16.328,-3.821,201.948,-102.78,-59.824,-23.965,-18.296,-28.816,-13.284,-0.685,-9.506,2.112,-69.649,-7.99,-1.222,-41.551,3.523,-19.376,9.542,-7.703,-18.004,-20.279,-1.187,-1.179,-109.517,2.362,-7.314
2.639448099999754,-9.362,3.933,-9.652,2.843,213.017,-93.968,-63.35,0.138,-13.667,-20.59,-7.636,1.877,-5.911,1.085,-72.141,-3.884,9.026,-32.288,5.056,-18.332,10.557,1.014,-14.912,-13.086,3.425,0.359,-97.112,11.069,4.477
2.641143800000009,-7.303,1.88,-13.741,5.914,216.902,-89.776,-67.897,-4.473,0.179,-11.86,-4.042,4.437,0.755,1.084,-66.434,-1.831,11.066,-29.694,3.002,-17.289,12.596,-0.524,-15.922,-16.147,-1.189,1.383,-95.478,1.836,-3.213
2.654550599999766,-13.444,-6.831,-16.288,5.396,209.0,-92.248,-68.342,-12.153,4.79,-16.459,-6.599,1.359,-0.27,4.156,-65.343,-4.39,6.444,-36.324,4.023,-18.296,5.923,-10.257,-20.517,-27.914,-8.873,-4.253,-96.92,-4.314,-10.894
2.6546142999995936,-16.504,-5.8,-11.149,7.952,207.767,-92.668,-53.929,2.204,-6.998,-22.078,-8.642,-0.692,-4.881,2.103,-75.011,-6.435,1.315,-41.411,-0.079,-22.889,1.306,-13.833,-23.058,-28.398,-7.839,-8.348,-99.384,0.814,-3.711
2.669662099999641,-13.414,-7.331,-12.675,3.846,207.559,-102.821,-42.604,-0.36,-24.41,-30.765,-12.732,-6.839,-12.56,-8.657,-79.035,-15.138,-7.396,-53.153,-14.424,-28.501,0.793,-17.918,-31.232,-30.931,-8.856,-9.876,-107.994,-5.335,-5.756
2.669735099999798,-9.814,-8.348,-16.248,0.256,207.864,-104.768,-58.443,-8.044,-13.627,-31.759,-13.744,-7.857,-12.036,-10.186,-71.783,-14.611,-11.487,-59.76,-16.459,-25.399,-0.233,-21.998,-35.299,-36.536,-12.433,-11.916,-107.886,-10.452,-11.386
2.6845611999997345,-10.829,-2.192,-11.109,6.403,216.365,-87.757,-68.119,-0.352,4.83,-17.383,-5.533,4.447,-2.802,-3.516,-68.638,-1.788,-6.865,-48.429,-3.122,-20.25,1.817,-13.267,-26.555,-26.765,-8.835,-6.781,-101.118,-2.245,-5.227
2.6846222999997735,-18.503,-7.313,-11.098,4.348,211.538,-89.718,-56.267,-9.061,-9.007,-17.365,-5.015,8.541,-1.775,-3.512,-71.131,-1.786,-5.321,-47.356,-3.119,-20.23,2.327,-8.131,-23.966,-21.103,-2.166,-1.651,-104.603,-7.366,-5.222
2.69958779999979,-25.657,-20.626,-20.821,-7.44,193.396,-108.071,-63.896,-22.884,-20.269,-32.717,-14.744,-2.226,-4.847,-7.095,-74.646,-8.957,-9.414,-57.555,-11.825,-21.747,-5.36,-16.832,-32.652,-30.816,-4.213,-8.309,-109.109,-20.678,-16.487
2.701278799999727,-31.779,-27.265,-30.021,-18.703,181.419,-108.988,-83.812,-22.861,-12.564,-35.246,-25.488,-10.933,-5.866,-8.112,-81.743,-13.559,-13.503,-56.985,-14.375,-28.385,-14.063,-26.549,-39.279,-38.47,-14.455,-18.035,-113.611,-25.781,-24.155
2.7146344999996472,-43.53,-36.46,-39.725,-31.492,170.479,-108.879,-75.531,-34.621,-22.798,-38.797,-35.196,-17.582,-15.594,-14.764,-92.42,-25.841,-18.1,-58.977,-19.484,-39.115,-19.172,-32.158,-42.826,-42.017,-21.101,-23.652,-124.768,-33.44,-28.23
2.7146966999998767,-42.462,-37.448,-39.686,-29.412,168.26,-114.918,-59.574,-39.197,-32.509,-46.443,-34.136,-22.688,-20.19,-17.823,-91.815,-27.352,-15.008,-63.017,-18.952,-34.465,-16.592,-29.564,-40.734,-40.439,-12.883,-20.554,-124.131,-32.382,-25.128
2.7296784000000116,-25.513,-17.943,-23.764,-8.377,184.998,-104.044,-62.076,-18.154,-15.058,-36.15,-21.295,-14.981,-8.899,-9.608,-79.94,-11.955,-5.26,-52.708,-9.711,-22.648,-8.891,-19.801,-32.496,-29.64,-1.599,-10.288,-111.712,-12.882,-12.807
2.729742299999998,-20.364,-8.191,-18.105,-2.734,190.448,-95.231,-69.186,-17.623,-10.432,-27.405,-16.663,-8.818,-10.939,-7.037,-75.25,-11.431,-4.742,-50.093,-12.263,-28.773,-7.345,-20.293,-32.976,-29.61,-4.671,-9.765,-109.038,-6.209,-9.72
2.745039899999938,-26.492,-12.793,-25.772,-14.002,182.061,-101.796,-76.802,-31.95,-20.668,-36.599,-21.257,-15.981,-20.15,-12.153,-79.785,-20.129,-12.422,-59.777,-19.935,-37.453,-10.411,-26.421,-39.091,-37.265,-10.814,-13.342,-108.417,-13.887,-13.809
2.745101199999681,-23.391,-8.17,-21.135,-8.352,186.489,-101.694,-73.139,-20.135,-17.573,-36.05,-18.674,-15.965,-12.445,-11.629,-78.168,-12.936,-10.873,-54.594,-12.231,-31.78,-3.741,-22.808,-33.929,-30.568,-5.168,-9.23,-99.087,-7.726,-7.135
2.7597467999999026,-14.659,-3.039,-10.868,3.951,188.352,-98.006,-51.549,-10.381,-15.506,-29.866,-13.532,-5.191,-5.772,-7.006,-70.918,-4.214,-3.689,-46.343,-5.046,-25.089,3.435,-12.539,-22.112,-19.266,4.571,-6.147,-91.816,1.504,1.581
2.7615923999996994,-10.546,-1.499,-8.808,5.484,183.553,-95.347,-41.251,-17.543,-13.442,-29.324,-9.42,0.962,-7.304,-4.438,-68.286,-3.185,-2.149,-46.809,-6.066,-22.502,6.506,-6.891,-17.991,-16.173,8.665,-4.091,-88.138,2.015,3.629
2.7747816999999486,-9.511,5.163,-6.237,8.553,190.029,-86.542,-51.456,-11.378,-0.621,-21.098,-5.825,-0.064,-3.198,-3.409,-68.73,-0.108,-2.659,-41.639,-1.449,-18.893,10.085,-5.86,-16.436,-12.571,14.804,3.597,-84.463,5.086,7.724
2.774847099999988,-15.136,1.059,-8.28,3.933,191.889,-89.529,-64.212,-10.342,-3.694,-22.101,-11.454,-5.187,-3.707,-4.43,-70.198,-0.62,-2.144,-36.474,2.651,-18.874,9.051,-8.415,-13.858,-8.46,21.449,3.594,-87.965,5.081,4.642
2.789799099999982,-20.244,-8.163,-20.567,-6.829,182.987,-104.297,-72.857,-21.602,-20.084,-35.911,-19.127,-8.768,-11.388,-4.426,-74.738,-2.669,-0.605,-39.511,1.111,-22.442,8.529,-7.382,-12.307,-6.915,23.477,-2.045,-93.512,-0.047,-4.072
2.7898614999999154,-18.175,-6.618,-22.084,-1.699,184.341,-102.656,-65.612,-14.921,-19.552,-34.851,-17.059,-5.685,-10.352,-2.884,-77.225,1.944,0.42,-39.472,-0.939,-22.419,13.131,-4.301,-12.807,-7.42,24.99,0.518,-90.857,-0.559,-2.531
2.804730599999857,-19.181,-10.71,-16.939,0.352,184.157,-97.43,-47.103,-9.783,-14.409,-29.693,-17.042,-6.192,-10.854,-5.443,-76.636,-0.107,-6.24,-40.457,-1.963,-23.934,11.069,-10.957,-16.381,-13.048,24.965,0.006,-90.767,-5.682,-1.504
2.8197676999998293,-23.773,-18.896,-17.946,-12.456,174.751,-104.505,-49.105,-24.117,-16.444,-34.786,-22.148,-14.382,-16.478,-10.048,-76.559,-7.279,-11.357,-46.564,-3.498,-26.984,9.009,-17.606,-19.95,-18.158,20.33,-6.142,-99.897,-14.897,-9.699
2.8198233999996773,-24.261,-11.705,-13.83,-5.271,172.527,-100.814,-56.741,-21.019,-11.817,-30.141,-20.589,-12.831,-13.388,-7.989,-74.433,-5.222,-5.71,-44.469,-2.982,-26.444,14.123,-13.49,-15.832,-14.554,24.408,-3.574,-100.31,-10.272,-5.079
2.8215040000000045,-23.725,-7.083,-4.082,10.615,174.404,-89.443,-46.95,-5.629,-8.731,-21.401,-14.933,-5.134,-7.227,-2.858,-71.797,-2.143,-2.631,-39.813,-2.979,-26.93,13.084,-11.427,-8.644,-10.953,34.63,0.528,-92.525,1.009,8.759
2.8348487999996905,-26.263,-13.223,-8.689,0.871,173.205,-93.452,-42.805,-8.697,-10.771,-22.917,-13.893,-5.641,-4.658,-3.367,-72.75,-5.215,-8.263,-43.872,-6.562,-32.539,9.485,-18.076,-15.295,-12.991,29.984,-4.084,-97.043,-3.09,1.065
2.8498658999997133,-27.773,-13.21,-21.488,-9.888,173.032,-100.018,-50.447,-13.3,-7.174,-21.869,-14.904,-6.148,-4.141,-5.926,-74.214,-6.747,-11.841,-47.414,-13.728,-36.605,12.549,-24.205,-29.112,-19.638,18.171,-9.715,-102.581,-12.821,-14.817
2.8499254999996992,-26.209,-10.123,-18.905,0.88,170.81,-97.357,-52.445,-10.725,-7.167,-21.335,-16.426,-4.604,-6.186,-5.407,-77.214,-6.74,-14.903,-46.854,-17.3,-37.08,13.049,-26.23,-29.083,-20.643,18.665,-9.705,-95.819,-8.197,-6.606
2.865920599999754,-21.572,-9.088,-3.004,9.588,173.2,-96.747,-55.979,-15.325,-14.845,-25.925,-15.897,-6.649,-7.717,-4.89,-80.21,-7.246,-17.45,-45.783,-12.672,-35.506,14.573,-22.105,-18.296,-11.913,23.77,-5.597,-89.063,2.569,10.82
2.865987099999984,-13.866,-0.882,2.122,12.653,187.884,-94.601,-57.46,-12.236,-9.707,-20.776,-9.221,-2.032,-6.685,-4.372,-73.47,-0.578,-8.723,-37.028,-1.901,-26.762,27.366,-9.276,-10.08,-3.704,27.844,0.556,-84.363,7.69,10.296
2.879923399999825,-7.704,8.34,-1.979,19.3,197.43,-85.285,-47.669,-0.44,1.574,-12.046,-1.015,7.704,-6.166,-2.319,-65.2,12.23,-2.054,-28.794,5.785,-19.05,35.023,0.467,-4.435,-3.188,32.427,4.654,-76.594,11.268,5.675
2.87999069999978,-8.209,8.844,4.171,19.793,196.208,-81.613,-48.133,-6.075,-5.088,-15.107,-2.551,5.647,-7.184,-5.39,-65.647,14.779,-11.274,-34.401,5.267,-20.056,30.89,-2.607,-3.406,-4.21,30.858,5.162,-78.567,10.232,9.768
2.8949344999996356,-12.299,5.249,11.851,15.675,197.549,-89.216,-52.696,-15.803,-15.329,-21.752,-7.672,1.031,-9.226,-11.02,-67.118,9.641,-14.849,-36.928,2.701,-21.573,29.322,-5.678,-6.989,-3.693,26.729,5.669,-86.685,5.099,11.295
2.8949989999996433,-12.287,4.219,8.765,17.196,197.351,-91.689,-42.91,-7.59,-8.654,-19.681,-7.152,4.616,-10.242,-6.911,-66.026,10.656,-4.588,-27.669,2.186,-20.526,31.854,-4.136,-4.932,-3.177,29.263,4.639,-84.549,6.631,10.772
2.9099247999997715,-11.762,6.264,9.781,14.617,188.445,-89.548,-39.793,-8.095,-7.108,-20.174,-7.657,0.001,-12.793,-5.879,-71.084,7.572,-7.145,-32.765,-4.477,-29.727,28.236,-12.328,-10.051,-8.81,26.16,-1.514,-86.002,9.186,11.273
2.909999599999992,-17.898,2.672,16.432,8.967,182.108,-95.606,-49.999,-23.968,-20.421,-31.425,-16.871,-12.807,-19.952,-15.095,-79.209,-5.756,-22.507,-48.614,-15.231,-39.944,20.523,-25.124,-26.434,-22.633,11.789,-7.66,-98.723,0.98,9.725
2.92486689999987,-20.442,1.645,23.075,12.544,190.636,-99.609,-53.023,-17.797,-17.839,-33.442,-18.391,-11.257,-20.445,-10.469,-79.13,-5.75,-19.411,-42.93,-14.191,-34.781,19.478,-20.488,-26.408,-25.172,9.728,-4.066,-99.649,-1.583,14.838
2.924946899999668,-18.884,8.303,37.397,16.118,204.79,-94.898,-52.458,-2.922,-6.038,-22.138,-11.2,-3.049,-12.74,2.861,-74.953,6.551,-2.997,-30.591,-4.955,-28.598,22.02,-12.783,-14.598,-15.413,18.94,-0.988,-94.426,2.005,21.996
2.939837499999612,-26.038,3.172,48.63,7.393,201.511,-99.414,-54.454,-19.825,-18.84,-25.19,-16.824,-8.169,-16.313,-3.289,-80.001,0.397,-7.093,-40.294,-8.536,-36.254,15.338,-23.016,-19.707,-20.521,15.847,-9.184,-103.041,-5.682,15.826
2.9398945999996613,-33.696,-8.102,50.118,1.237,189.526,-110.073,-53.888,-38.249,-33.678,-36.435,-27.566,-15.846,-25.006,-13.532,-89.655,-10.874,-16.307,-51.525,-16.725,-41.853,8.663,-29.653,-27.884,-29.722,12.245,-15.323,-106.524,-12.336,17.86
2.954885199999808,-28.027,-1.434,71.073,11.482,196.509,-105.352,-56.395,-22.329,-20.836,-28.714,-21.903,-12.756,-18.321,-6.859,-88.54,-2.154,-3.483,-45.326,-11.073,-34.639,16.851,-19.377,-20.172,-17.397,24.529,-8.135,-96.172,-0.541,42.945
2.9549474999998893,-24.925,6.252,99.179,22.229,208.096,-97.562,-56.851,-7.962,-10.057,-18.44,-14.709,-7.108,-12.155,-1.216,-82.304,5.02,5.742,-41.182,-3.889,-28.969,21.445,-14.235,-14.004,-11.231,31.164,-1.979,-93.002,4.071,54.173
2.9698953999995865,-31.56,-1.951,93.956,15.035,197.641,-101.051,-46.036,-21.274,-21.318,-24.056,-20.329,-7.101,-16.754,-5.314,-83.246,-1.645,-6.559,-42.165,-9.008,-34.576,15.276,-16.782,-18.088,-21.466,25.498,-4.026,-96.495,-4.643,38.237
2.969965599999796,-33.066,-7.585,77.981,4.774,186.685,-99.925,-35.231,-30.986,-27.957,-27.619,-22.358,-10.68,-17.249,-4.796,-85.212,-6.254,-13.213,-39.049,-14.122,-40.689,14.236,-18.815,-22.681,-17.859,24.96,-5.047,-94.349,-4.126,29.489
2.985236399999849,-30.471,-6.553,75.854,7.33,192.134,-96.239,-37.245,-22.246,-17.682,-20.931,-18.237,-13.743,-16.207,-3.766,-84.615,-7.784,-5.515,-42.084,-16.67,-40.648,16.271,-24.431,-24.707,-13.23,26.984,-7.604,-92.718,1.001,29.46
2.9852983999999196,-34.539,-10.132,65.019,7.835,191.942,-102.803,-42.844,-16.076,-9.468,-18.861,-23.342,-15.266,-19.265,-8.886,-86.579,-12.387,-0.386,-49.727,-21.264,-42.657,9.082,-30.554,-25.707,-28.074,21.322,-16.305,-95.699,-0.536,21.234
2.9998954999996386,-38.603,-12.684,45.999,-3.443,182.528,-109.36,-38.702,-21.183,-16.118,-26.527,-29.467,-19.349,-17.709,-12.975,-89.567,-18.523,-4.997,-50.702,-21.755,-47.737,3.95,-29.499,-27.731,-35.218,17.202,-19.875,-98.677,1.001,11.991
2.99995379999973,-37.027,-14.72,34.682,-8.051,181.834,-109.251,-34.053,-27.822,-24.812,-32.648,-26.876,-22.404,-18.716,-11.425,-88.965,-20.041,-13.701,-50.139,-16.098,-43.591,9.582,-23.834,-27.703,-25.449,19.234,-14.22,-99.603,8.172,8.393
3.0150495999996565,-32.892,-14.705,24.401,-2.407,186.262,-108.117,-40.166,-27.794,-21.201,-27.492,-23.263,-16.234,-20.234,-4.242,-86.827,-11.312,-14.2,-43.941,-9.422,-35.35,18.794,-13.564,-18.454,-20.3,23.313,-8.57,-96.43,16.361,6.847
3.0299636999998256,-28.761,-7.518,18.229,-0.355,184.539,-106.472,-40.126,-27.254,-17.593,-24.391,-23.239,-11.607,-14.578,-1.164,-84.178,-5.153,-10.599,-32.114,-4.802,-33.778,21.849,-7.403,-15.362,-20.792,25.851,-8.562,-95.821,23.517,8.377
3.030027099999643,-28.219,-5.462,18.211,-0.867,178.719,-106.878,-31.377,-30.813,-22.186,-30.514,-24.753,-16.718,-13.539,-5.773,-82.557,-11.295,-15.712,-33.106,-5.821,-32.72,19.265,-16.105,-24.568,-22.309,23.776,-10.09,-102.385,22.981,7.344
3.0449618999996346,-26.654,-8.53,8.971,1.695,180.59,-106.259,-38.005,-28.733,-19.09,-27.922,-25.753,-17.214,-17.624,-6.792,-82.475,-9.747,-14.159,-36.659,-7.865,-27.564,18.221,-21.724,-26.592,-27.409,21.703,-10.592,-103.307,22.446,2.726
3.0450199999995675,-20.992,-2.374,-0.259,5.279,188.606,-98.98,-46.164,-19.483,-7.8,-17.135,-20.604,-10.537,-12.483,-3.711,-79.831,2.558,-2.874,-29.963,-3.246,-24.975,24.863,-10.944,-18.881,-25.333,26.292,-10.582,-97.056,30.62,3.748
3.0599961999996594,-15.848,4.801,3.839,6.811,190.979,-94.783,-36.897,-14.852,-7.28,-15.581,-16.997,-11.038,-11.446,-6.782,-78.726,-1.031,-4.408,-30.445,0.343,-25.975,30.474,-1.199,-18.35,-18.647,32.926,-9.546,-93.885,37.762,5.794
3.0600571999998465,-13.271,3.771,4.348,8.854,190.276,-95.713,-36.86,-11.251,-8.81,-15.566,-18.517,-12.564,-12.972,-9.849,-78.647,-7.177,-10.551,-35.025,-1.194,-25.436,31.468,-0.173,-18.844,-18.116,35.967,-5.951,-90.205,36.7,4.763
3.074994599999627,-14.795,1.718,-6.415,10.894,193.159,-93.568,-41.946,-9.191,-3.166,-9.915,-15.937,-10.502,-6.299,-5.228,-78.569,1.027,-5.93,-29.355,-1.193,-24.386,31.949,-0.173,-17.801,-18.098,35.419,-2.359,-87.041,33.077,-0.365
3.0768648999996913,-19.903,-2.382,-15.118,9.858,188.868,-95.523,-28.072,-19.94,-9.31,-16.565,-16.434,-11.517,-6.805,-3.686,-81.564,0.001,-8.486,-31.887,-4.265,-24.874,26.794,-5.808,-24.443,-20.129,28.723,-4.918,-93.614,26.384,-13.172
3.090101499999946,-19.883,-5.453,-18.689,5.238,186.63,-100.038,-25.482,-27.093,-17.498,-20.647,-20.516,-12.53,-11.921,-6.756,-83.532,-8.196,-12.576,-39.54,-10.409,-29.46,21.132,-12.463,-30.054,-28.819,21.01,-10.036,-96.595,19.185,-19.819
3.090165999999954,-13.203,-0.837,-21.232,4.72,193.615,-92.766,-34.678,-15.795,-4.16,-5.769,-12.298,-6.882,-2.687,-3.675,-80.374,-1.015,-3.342,-33.865,-10.911,-31.992,21.623,-11.938,-28.999,-31.351,20.989,-12.587,-89.838,19.166,-15.188
3.1041302999997242,-12.165,0.188,-27.358,6.252,191.885,-90.624,-25.934,-11.68,0.454,-4.227,-9.212,-4.313,-3.709,-0.598,-80.294,1.547,-0.777,-31.269,-10.388,-29.399,18.527,-10.389,-31.532,-29.783,20.456,-13.087,-89.748,19.659,-22.858
3.1041950999997425,-16.764,-5.447,-33.991,4.197,187.082,-102.829,-24.371,-18.841,-15.94,-18.055,-21.498,-10.969,-14.976,-4.696,-82.775,-7.164,-6.924,-36.361,-12.426,-30.394,13.386,-11.403,-32.525,-33.339,16.849,-12.562,-96.831,18.102,-33.593
3.1194182999997793,-16.747,-4.417,-32.42,0.607,195.604,-101.189,-38.692,-19.847,-13.875,-14.45,-20.964,-13.52,-9.326,-7.765,-81.668,-5.107,-7.429,-34.276,-9.852,-30.876,15.934,-6.269,-26.344,-31.257,19.394,-8.963,-93.66,21.158,-25.363
3.119476599999871,-15.193,-2.876,-29.826,1.118,196.433,-93.403,-25.845,-23.926,-8.225,-11.875,-15.308,-15.043,-9.829,-8.782,-80.049,-4.078,-13.057,-38.852,-11.892,-29.308,10.795,-5.75,-28.88,-29.689,22.448,-10.491,-89.468,22.162,-23.288
3.1340558999995665,-15.178,-2.873,-32.87,5.216,185.478,-101.507,-10.45,-33.123,-25.123,-26.207,-24.514,-21.688,-26.725,-14.408,-83.043,-11.758,-20.729,-48.547,-18.028,-32.865,1.05,-12.917,-35.511,-37.856,14.229,-17.14,-91.94,19.066,-31.462
3.135724399999617,-9.015,1.228,-32.325,10.846,194.002,-101.405,-24.784,-25.405,-22.024,-19.521,-20.391,-16.031,-20.551,-14.394,-81.935,-5.086,-13.535,-38.252,-10.837,-29.758,5.66,-7.781,-29.84,-34.744,11.653,-12.0,-85.7,24.682,-23.746
3.1491180999996686,-2.859,4.301,-30.243,10.835,207.128,-87.984,-31.42,-13.085,2.588,-2.083,-5.002,-2.182,-3.112,-6.183,-75.706,7.214,-7.887,-24.894,-3.142,-18.457,8.728,5.547,-20.076,-20.877,24.449,0.307,-74.856,34.391,-15.525
3.149185299999772,-6.954,3.784,-34.824,5.189,197.187,-89.433,-25.753,-9.998,1.049,-7.204,-8.071,-2.693,-7.207,-2.59,-73.068,6.695,-11.465,-31.529,-6.725,-17.927,1.547,6.054,-18.007,-15.733,31.085,-0.718,-76.83,34.869,-23.194
3.1642073999996683,-5.923,5.318,-33.764,10.307,193.404,-91.393,-30.85,-3.328,-1.514,-4.635,-9.087,-3.202,-6.688,-0.026,-70.434,11.299,-4.793,-33.035,-1.083,-20.983,4.619,8.609,-16.964,-11.107,29.517,-3.791,-77.266,35.859,-18.56
3.179140099999586,-2.331,2.751,-32.706,14.907,201.407,-81.055,-22.622,-5.886,12.32,9.202,-1.393,4.998,4.077,6.122,-64.216,17.947,3.408,-20.706,6.603,-15.839,-1.021,13.211,-14.386,-8.022,31.536,1.336,-71.041,39.921,-13.418
3.179200199999741,-17.697,-10.572,-52.653,-4.576,184.3,-88.659,-14.403,-25.86,1.037,-6.177,-13.687,-4.741,-4.636,0.48,-70.812,4.097,-8.378,-25.809,-7.748,-22.483,-27.147,-2.683,-18.982,-22.871,23.82,-6.35,-83.265,25.025,-34.41
3.1792444999996405,-33.561,-22.344,-73.605,-24.039,161.574,-106.501,-34.881,-31.47,-15.358,-22.564,-30.068,-19.081,-16.414,-10.791,-86.622,-11.276,-24.251,-41.152,-20.036,-36.293,-41.977,-18.05,-28.697,-35.143,8.427,-22.225,-102.65,5.532,-49.744
3.1941987999998673,-28.917,-23.347,-68.921,-17.867,169.097,-102.296,-38.944,-23.753,-6.633,-10.759,-26.451,-12.402,-10.25,-10.268,-84.999,-8.191,-21.153,-39.062,-16.43,-33.182,-42.96,-8.298,-28.156,-26.399,12.005,-18.617,-97.424,9.625,-43.035
3.195909899999606,-25.302,-21.274,-60.655,-12.726,177.637,-96.046,-17.901,-30.902,-5.09,-7.162,-22.839,-10.34,-7.678,-7.696,-79.278,-7.158,-13.447,-36.461,-18.975,-31.1,-54.7,-4.191,-23.517,-21.762,17.628,-10.401,-85.031,15.763,-41.967
3.2092178999996577,-32.449,-23.302,-66.742,-19.373,166.701,-104.147,-21.981,-34.97,-11.745,-16.889,-27.939,-20.576,-13.818,-11.275,-88.421,-15.348,-19.582,-48.208,-24.591,-39.266,-65.404,-15.97,-28.617,-29.424,8.901,-17.051,-89.045,6.526,-48.585
3.2243294999998398,-32.416,-23.279,-66.163,-15.255,162.948,-104.555,-36.304,-20.59,-6.61,-14.822,-27.399,-19.531,-13.805,-11.264,-90.381,-17.382,-25.197,-51.746,-22.005,-37.177,-68.924,-16.466,-30.637,-27.858,11.966,-18.571,-91.005,8.056,-44.438
3.2243906999997307,-26.236,-14.546,-53.801,-6.531,172.007,-95.741,-26.534,-19.545,-11.726,-13.271,-24.81,-14.9,-11.742,-10.74,-79.533,-13.266,-19.537,-42.472,-19.934,-29.456,-76.028,-8.253,-23.947,-18.096,24.25,-9.331,-84.766,24.954,-31.074
3.2397609999998167,-19.55,-5.823,-45.038,-3.451,177.47,-91.547,-20.872,-28.234,-16.838,-13.257,-21.199,-13.349,-12.242,-8.168,-75.355,-6.08,-13.37,-38.844,-15.303,-29.426,-78.001,-5.171,-18.8,-10.906,24.738,-5.735,-79.046,32.101,-15.161
3.2398279999997612,-9.797,-0.181,-41.919,4.75,183.953,-87.357,-29.048,-18.985,0.598,-1.973,-10.419,-2.064,-8.644,-3.036,-73.742,5.709,-7.209,-35.219,-6.066,-24.274,-74.337,1.494,-14.682,-4.747,25.225,-3.168,-70.258,33.094,-10.023
3.254237799999828,-4.664,4.43,-39.828,10.893,191.453,-84.708,-26.457,-7.695,6.745,1.615,-2.212,6.135,-3.512,-4.058,-67.009,13.388,-3.103,-22.888,-5.548,-16.565,-78.361,8.153,-10.057,0.893,28.786,2.983,-59.941,38.184,-16.16
3.254294299999856,-5.684,4.937,-42.862,8.32,190.75,-84.623,-18.746,-10.249,-5.557,-2.485,-2.722,3.055,-3.509,-7.64,-65.405,12.35,-9.248,-20.304,-7.592,-18.597,-84.43,6.608,-12.608,-2.694,21.073,1.443,-58.857,37.633,-18.194
3.2700394999997116,-5.678,-0.191,-48.455,8.824,185.436,-77.366,-21.289,-8.702,2.133,6.226,-2.207,5.613,-1.456,-4.046,-64.315,11.313,-14.874,-27.968,-3.486,-21.14,-89.981,3.015,-16.182,-11.401,14.904,-4.194,-62.896,32.985,-18.175
3.2701405999996496,-8.234,-5.313,-53.017,4.717,182.177,-73.703,-27.415,-6.131,15.963,10.831,0.357,10.218,3.669,0.569,-61.176,13.351,-9.736,-22.305,-2.97,-16.508,-100.137,1.475,-17.19,-17.025,12.84,-5.214,-64.883,29.366,-24.817
3.284377399999812,-14.886,-11.456,-57.063,-11.169,174.31,-83.875,-22.777,-16.371,2.115,-1.988,-6.816,4.573,-1.97,-0.969,-65.214,11.8,-8.701,-11.524,-7.065,-18.029,-109.771,-1.6,-23.833,-21.619,4.118,-7.77,-67.892,21.14,-28.379
3.2993673999999373,-19.994,-18.617,-59.055,-17.306,164.402,-93.525,-15.07,-25.577,-18.38,-10.183,-18.592,-4.654,-13.751,-6.091,-73.858,2.055,-16.377,-22.271,-11.157,-28.257,-116.834,-7.746,-32.006,-25.695,-1.522,-14.423,-71.922,14.971,-29.375
3.299428899999839,-22.535,-18.086,-57.971,-10.628,166.286,-92.407,-24.789,-27.088,-13.238,-6.074,-17.037,-7.21,-13.225,-10.696,-76.858,-5.632,-16.873,-36.593,-15.244,-30.79,-125.938,-12.862,-33.511,-26.694,-4.082,-18.507,-73.9,15.468,-34.981
3.299470299999939,-18.927,-13.457,-58.938,-4.982,175.342,-83.605,-36.547,-23.475,1.632,0.592,-8.31,-5.154,-3.991,-6.074,-71.658,-1.016,-11.733,-30.409,-14.204,-25.124,-128.374,-10.8,-28.355,-24.106,-7.151,-15.414,-67.678,15.965,-37.507
3.314390799999728,-13.272,-17.03,-60.928,-3.441,173.629,-81.473,-31.387,-16.279,-1.444,1.104,-10.351,-4.124,-3.474,-1.97,-66.463,2.572,-13.771,-30.378,-10.604,-24.074,-126.196,-6.178,-24.228,-22.033,-3.046,-10.788,-59.413,14.412,-36.957
3.3293291999998473,-20.431,-23.16,-61.892,-8.048,161.673,-92.662,-34.43,-19.849,-13.737,-8.631,-18.538,-7.706,-11.155,-10.677,-70.495,-4.091,-20.929,-41.619,-14.179,-27.124,-132.73,-8.733,-26.253,-22.011,-1.506,-13.339,-63.452,8.762,-41.531
3.331050899999809,-27.583,-21.088,-60.805,-13.675,157.925,-96.668,-43.105,-35.198,-12.187,-10.159,-18.519,-10.26,-13.194,-16.814,-75.548,-3.575,-21.933,-34.405,-13.14,-25.56,-139.257,-7.7,-23.153,-19.427,-3.554,-15.887,-70.561,2.093,-42.002
3.3310993000000053,-14.236,-12.87,-52.035,-8.026,170.575,-84.276,-30.254,-32.601,0.633,4.195,-8.767,-3.078,-8.57,-10.65,-67.787,10.261,-13.202,-23.612,-1.344,-17.338,-131.946,5.115,-5.711,-7.112,10.795,-4.601,-60.245,11.313,-32.739
3.344441299999744,0.635,-4.66,-42.762,1.203,183.724,-78.044,-21.514,-13.613,7.805,11.363,2.513,6.659,-2.413,-5.516,-57.986,18.96,-4.992,-28.712,4.292,-12.709,-123.105,14.844,3.004,5.702,25.128,8.212,-43.79,28.208,-22.972
3.344503099999656,-0.902,-1.069,-42.719,5.813,185.59,-82.064,-30.202,-11.038,5.748,8.278,4.559,7.677,-1.899,-5.51,-59.977,17.404,-5.499,-29.707,-0.835,-15.258,-123.494,12.268,-4.171,4.672,20.493,6.667,-42.722,28.18,-18.851
3.3605265999999574,-5.512,-3.63,-43.701,9.393,180.793,-79.933,-25.561,-23.323,0.619,7.245,-2.105,3.059,-5.995,-6.017,-64.016,13.288,-7.03,-26.604,-5.957,-17.805,-130.543,4.058,-9.29,-3.529,15.861,-1.025,-49.852,22.004,-19.344
3.3605946999996377,-7.556,-7.725,-42.12,3.236,178.563,-80.878,-23.999,-27.398,-1.943,2.115,-6.201,-0.53,-8.038,-8.573,-63.952,8.152,-4.462,-34.774,-9.537,-19.324,-140.658,-1.581,-12.867,-8.649,13.796,-3.073,-53.388,21.469,-22.398
3.3744353999995838,-13.696,-9.766,-48.738,-8.038,172.749,-89.506,-45.491,-25.321,-3.478,-6.596,-10.806,-4.116,-10.08,-9.076,-66.449,4.046,-8.044,-37.813,-12.089,-23.403,-148.202,-6.702,-23.1,-12.226,3.024,-8.705,-57.433,16.325,-28.011
3.3894980000000032,-17.268,-14.367,-59.96,-8.542,159.769,-90.441,-51.081,-28.37,-9.11,-8.127,-17.455,-9.747,-14.168,-9.067,-68.432,-1.594,-13.671,-30.091,-15.151,-27.99,-152.153,-13.356,-28.2,-17.85,-4.664,-16.381,-59.937,9.648,-35.668
3.3912201999996796,-15.714,-17.427,-59.9,-6.997,151.924,-87.789,-40.784,-31.415,-7.564,-6.582,-16.925,-10.25,-14.154,-8.546,-69.388,-5.178,-10.583,-26.987,-16.161,-27.45,-153.537,-14.367,-28.172,-22.955,-5.171,-16.877,-57.316,8.102,-37.169
3.404555299999629,-14.162,-12.798,-53.692,-9.039,156.383,-89.238,-46.891,-28.822,2.69,-4.526,-11.785,-5.629,-10.041,-5.464,-71.368,-0.05,-6.474,-26.96,-11.534,-23.324,-150.822,-6.668,-28.144,-19.346,-5.166,-13.786,-54.184,6.557,-30.984
3.40462239999988,-13.635,-11.249,-53.639,-8.005,158.276,-87.1,-49.918,-26.744,1.662,0.09,-12.798,-4.086,-12.593,-6.995,-70.272,5.585,-10.054,-28.47,-7.936,-20.227,-149.134,-2.563,-22.993,-11.642,-3.624,-11.723,-55.155,5.013,-30.953
3.4195851999998013,-17.208,-20.459,-56.659,-12.096,150.946,-88.549,-36.036,-31.328,-10.122,-3.497,-16.884,-9.717,-18.728,-15.697,-70.202,-0.568,-12.605,-32.54,-12.539,-22.768,-151.547,-7.171,-20.408,-13.167,-2.084,-12.736,-58.174,3.471,-37.583
3.4196483999999145,-19.24,-22.488,-51.991,-17.719,146.184,-94.096,-30.877,-31.297,-12.162,-9.641,-16.355,-12.782,-20.758,-18.755,-71.668,-4.666,-9.519,-27.384,-13.039,-22.233,-149.346,-6.139,-25.511,-12.642,-2.594,-12.211,-54.529,0.394,-33.446
3.4345830999995997,-9.487,-7.608,-35.033,-2.844,156.796,-84.268,-32.895,-16.409,-2.416,0.615,-8.654,-2.523,-14.078,-10.54,-63.4,7.122,-1.825,-16.086,-2.267,-12.989,-141.0,6.674,-17.801,0.691,4.069,-1.44,-43.204,11.665,-17.019
3.4346473999999034,0.769,5.207,-17.068,13.552,174.058,-70.864,-30.301,-2.048,10.907,15.984,3.138,13.874,-2.793,-0.283,-52.578,22.996,7.911,-11.459,6.444,-7.853,-134.711,17.426,-3.438,8.375,14.311,7.783,-37.525,28.559,-4.194
3.4495344999995723,-4.867,0.591,-12.952,8.416,175.421,-80.015,-28.733,-11.779,8.847,6.746,0.573,11.811,-3.815,0.742,-58.673,21.436,8.415,-16.571,2.852,-15.018,-138.163,9.724,-10.607,-2.392,7.124,-1.447,-45.172,22.895,-5.215
3.4514077999997426,-18.182,-11.193,-10.377,-0.814,163.462,-99.402,-26.143,-30.211,-9.093,-14.778,-16.846,-6.644,-17.131,-6.943,-71.422,5.533,-1.327,-29.362,-10.471,-26.786,-148.783,-7.192,-26.991,-14.173,-13.375,-12.204,-56.398,8.528,-11.87
3.464656599999671,-21.75,-11.181,7.564,2.261,161.762,-98.278,-26.117,-27.107,-10.621,-11.177,-18.878,-8.175,-17.626,-7.449,-72.375,0.405,-4.4,-34.456,-17.121,-28.296,-153.757,-8.721,-25.939,-15.183,-10.288,-11.679,-56.342,10.568,-4.686
3.4647220999995625,-18.142,-3.486,29.073,5.332,162.112,-84.348,-39.411,-13.759,2.198,3.179,-7.589,1.567,-8.899,-1.806,-67.18,5.527,-1.834,-24.175,-12.493,-24.169,-152.579,-3.077,-22.327,-16.192,9.19,-12.692,-51.162,12.607,15.299
3.479702599999655,-23.247,-8.093,31.093,-1.846,150.679,-84.776,-47.568,-18.356,-4.465,-3.484,-14.241,-7.656,-12.476,-6.415,-69.674,-3.7,-6.955,-25.176,-15.554,-29.78,-159.599,-11.271,-30.501,-20.787,1.496,-17.29,-59.82,2.348,15.796
3.479762899999969,-27.835,-13.72,30.55,-3.893,148.992,-95.962,-37.787,-24.998,-12.657,-9.628,-21.911,-14.82,-16.05,-12.556,-74.728,-11.893,-11.559,-35.397,-20.662,-35.386,-160.464,-13.821,-28.934,-17.18,-8.751,-12.15,-67.445,4.395,6.047
3.4950244999999995,-13.975,1.15,46.401,14.554,168.31,-89.206,-30.577,-9.604,2.213,3.189,-8.057,0.051,-6.812,-6.396,-68.505,3.488,-3.863,-24.603,-5.784,-23.567,-143.909,5.148,-8.925,-0.769,14.824,-1.379,-49.959,22.834,18.848
3.495098699999744,-4.739,12.42,54.039,26.835,175.827,-78.358,-35.157,-0.373,7.333,6.772,-1.389,4.662,-2.707,-2.803,-62.289,12.706,1.777,-14.844,4.98,-14.835,-137.618,14.364,-1.231,9.478,27.104,5.282,-37.102,33.057,33.686
3.5096480999995947,-16.517,-0.912,42.714,11.439,161.819,-85.964,-30.511,-11.643,-4.457,-1.944,-12.146,-7.126,-8.34,-5.874,-69.399,1.935,-0.274,-25.076,-6.295,-24.554,-147.726,2.567,-13.013,1.784,8.122,0.666,-48.848,24.315,22.894
3.511419599999954,-19.575,-6.547,34.475,3.743,157.046,-88.44,-18.698,-14.193,-1.379,1.644,-11.622,-2.508,-10.381,-3.819,-69.842,3.982,0.751,-22.489,-9.363,-28.115,-144.505,1.027,-14.025,-3.341,6.577,-6.507,-51.36,16.606,12.113
3.5247467999997752,-11.358,3.706,29.829,15.522,161.5,-74.519,-27.388,-4.445,8.869,8.815,-3.413,6.716,-9.346,-1.766,-57.477,13.712,2.799,-11.196,-0.644,-19.378,-136.163,9.735,-7.863,1.785,16.304,-2.914,-40.55,21.2,14.15
3.5248138999995717,-14.421,2.678,21.09,16.531,152.117,-76.494,-41.193,-4.441,1.688,2.146,-9.557,-3.537,-10.361,-7.4,-59.981,4.989,-1.302,-21.943,-8.841,-21.92,-142.687,3.066,-17.077,-2.315,6.554,-1.887,-44.608,21.179,10.037
3.5398065999997925,-21.579,-6.547,19.02,10.879,138.132,-90.25,-24.758,-9.559,-9.073,-7.078,-17.745,-12.755,-14.449,-12.003,-70.167,-5.774,-4.887,-33.704,-19.078,-29.07,-149.204,-8.208,-26.281,-12.046,0.399,-11.106,-50.199,10.399,4.904
3.5398715999999695,-15.409,-2.442,19.001,16.504,144.142,-85.036,-12.95,-5.451,-1.891,-4.509,-12.092,-5.569,-13.41,-9.43,-65.998,-0.645,-4.882,-26.498,-10.862,-24.431,-143.932,-2.052,-17.034,-5.374,10.133,-8.021,-44.001,9.364,4.899
3.554726699999719,0.488,11.905,15.908,26.733,161.416,-68.045,-28.306,4.8,14.505,11.889,4.827,6.731,-1.101,-4.297,-54.149,16.261,0.758,-18.787,0.42,-12.111,-132.005,15.368,-3.697,14.611,18.32,9.405,-34.223,26.261,7.456
3.554789299999811,10.733,21.627,16.404,36.953,170.989,-57.731,-22.643,10.431,18.076,24.173,18.142,17.996,8.634,-3.781,-44.361,32.127,4.856,-17.744,6.055,-3.389,-121.627,25.087,5.016,22.281,27.523,15.031,-24.968,36.993,14.621
3.569713899999897,3.038,15.458,8.703,30.768,166.719,-60.235,-1.103,3.761,8.324,16.464,13.001,14.904,0.941,-8.9,-45.341,27.996,-2.834,-21.824,3.487,-9.021,-127.141,16.865,0.401,7.914,30.057,5.794,-32.627,27.222,12.045
3.571411299999909,-10.797,2.635,-9.236,6.659,154.769,-66.835,-15.447,-1.879,4.73,8.251,1.717,1.569,-8.794,-11.965,-56.567,11.062,-11.54,-29.487,-6.25,-20.283,-140.334,2.503,-15.994,-6.438,16.707,-3.433,-51.038,11.826,-4.361
3.584773899999618,-10.787,1.095,-14.35,5.115,151.028,-65.743,-31.313,5.296,9.336,13.365,4.277,2.592,-3.662,-8.367,-60.096,14.637,-6.405,-21.773,-4.195,-16.164,-137.119,5.062,-12.391,2.277,12.592,-4.454,-47.913,8.228,-8.968
3.599804099999801,-10.776,-0.443,-13.311,17.918,152.414,-66.19,-18.986,3.753,5.74,10.79,4.272,10.274,-1.097,-5.285,-58.499,23.332,1.798,-5.87,2.982,-9.488,-130.322,13.767,2.99,12.521,22.313,0.673,-39.668,11.806,-3.323
3.599864699999671,-22.548,-12.738,-23.031,4.58,138.942,-81.493,-21.016,-16.23,-7.585,-2.54,-13.663,-1.007,-12.879,-5.792,-66.126,9.476,-0.765,-9.45,-4.706,-21.262,-140.95,4.531,-7.259,1.238,16.655,-2.913,-52.948,6.671,-11.517
3.615199699999721,-30.722,-17.848,-33.255,-9.257,123.434,-91.657,-34.828,-26.46,-13.725,-9.71,-22.871,-15.351,-21.063,-6.81,-68.109,-2.829,-5.888,-18.15,-11.874,-28.925,-147.469,-6.232,-21.596,-7.985,2.294,-12.132,-60.068,-1.533,-20.727
3.615263199999845,-33.766,-17.318,-40.906,-5.661,123.31,-87.98,-32.231,-22.848,-14.224,-15.848,-20.798,-17.385,-20.53,-9.365,-65.991,-2.314,-9.468,-19.156,-13.399,-27.359,-143.223,-8.275,-17.989,-6.952,2.804,-13.144,-58.471,-3.068,-20.194
3.6298493999997845,-39.88,-24.473,-52.648,-13.34,116.527,-91.99,-33.736,-30.509,-23.431,-24.029,-30.512,-25.564,-24.608,-16.528,-75.147,-13.582,-16.119,-31.432,-27.218,-37.578,-151.277,-16.463,-25.143,-13.093,4.85,-16.205,-70.708,-4.09,-25.297
3.6299096999996436,-37.278,-21.374,-52.083,-15.376,109.751,-98.558,-42.924,-35.602,-26.994,-22.468,-37.141,-34.248,-31.755,-21.635,-78.146,-24.327,-22.25,-40.11,-35.9,-45.225,-157.274,-21.57,-31.778,-11.543,4.846,-19.775,-73.198,-1.012,-24.247
3.644902000000002,-26.995,-3.935,-39.223,2.57,125.522,-91.287,-38.782,-23.271,-15.696,-17.835,-25.321,-28.578,-30.187,-21.613,-72.944,-18.667,-21.716,-30.336,-28.179,-36.471,-142.259,-10.278,-19.963,4.35,14.062,-11.046,-60.83,9.748,-10.39
3.6449665000000095,-25.943,0.168,-40.209,6.153,136.668,-84.024,-29.01,-18.637,-12.094,-15.768,-20.172,-21.377,-23.497,-20.567,-75.945,-13.013,-16.571,-22.621,-22.515,-31.824,-129.309,-5.144,-17.894,3.833,16.61,-5.4,-60.257,10.763,-12.429
3.659925099999782,-24.893,-4.443,-47.341,0.0,132.945,-81.378,-21.808,-22.204,-12.595,-6.531,-16.566,-12.134,-15.276,-12.349,-69.209,-4.291,-8.357,-17.476,-12.247,-27.181,-119.959,-3.602,-18.388,-1.806,12.495,-7.956,-58.66,4.092,-22.151
3.6599906999999803,-14.621,-0.34,-44.732,7.684,144.595,-71.563,-20.762,-13.473,0.738,8.333,2.918,8.37,-2.453,-2.091,-52.234,20.304,1.385,-4.65,6.209,-11.785,-100.883,11.771,-1.976,8.954,15.556,-0.263,-44.769,4.6,-20.079
3.6748905999997987,-15.631,-3.926,-52.884,2.553,152.135,-70.467,-37.135,-11.923,1.762,8.324,8.038,16.559,3.697,-3.626,-53.719,31.042,2.408,-4.133,6.202,-8.187,-91.049,16.37,0.075,6.896,12.467,2.811,-49.847,-3.601,-31.842
3.674948499999573,-26.887,-17.754,-70.762,-13.331,136.101,-85.253,-48.369,-24.718,-14.634,-1.418,-7.851,8.857,-1.43,-6.696,-63.399,20.765,-1.693,-9.252,-2.513,-15.351,-91.982,5.082,-11.708,-4.381,4.257,-4.364,-63.117,-16.918,-48.717
3.689936999999645,-21.737,-13.638,-62.494,-4.608,135.453,-88.242,-34.488,-20.595,-8.471,0.121,-2.208,13.972,-0.916,3.045,-56.163,28.941,3.944,-0.534,3.125,-9.7,-77.545,11.737,-2.987,7.406,11.425,0.763,-53.32,-7.167,-32.786
3.689997499999663,-10.956,-1.329,-42.452,9.741,150.687,-76.883,-20.621,-9.816,3.32,6.268,10.09,20.105,2.159,7.14,-50.984,42.232,10.6,-0.533,6.196,-5.592,-62.099,21.459,4.701,15.596,18.074,8.447,-41.996,6.672,-17.384
3.7049902999997357,-15.044,-6.963,-44.971,4.096,144.388,-75.269,-20.088,-16.466,-12.565,-0.398,-1.704,4.716,-6.553,-3.113,-60.667,25.796,-0.681,-14.877,-2.52,-15.832,-64.598,6.069,-7.087,1.235,9.347,0.242,-47.589,-0.507,-28.125
3.705056099999638,-18.615,-10.542,-51.074,3.067,133.485,-79.292,-18.531,-14.401,-18.7,-6.545,-8.362,-10.146,-15.255,-16.43,-65.217,8.352,-17.074,-22.035,-11.739,-25.55,-66.07,-4.183,-11.691,0.209,9.849,-3.345,-52.665,-1.018,-27.073
3.720004699999663,-13.473,0.227,-41.289,13.823,142.573,-77.676,-16.463,-4.652,-3.824,-1.928,-0.669,-10.136,-13.703,-26.66,-59.516,9.368,-22.692,-29.185,-17.363,-28.599,-58.32,0.944,-12.191,7.894,17.524,0.245,-52.612,9.229,-15.262
3.720147300000008,-13.46,3.3,-40.223,14.834,149.091,-77.598,-26.693,-10.283,-2.284,-2.438,-6.304,-11.15,-16.251,-30.219,-60.994,1.674,-24.207,-39.914,-22.981,-35.23,-58.261,-7.766,-21.401,-1.848,8.285,-6.415,-55.633,7.17,-20.883
3.7359025999999176,-19.594,-3.875,-47.867,7.646,138.183,-79.058,-44.085,-11.81,-7.917,-7.047,-14.494,-15.237,-22.383,-28.652,-69.13,-8.061,-29.306,-41.411,-30.13,-40.83,-63.326,-18.517,-28.552,-11.068,-4.531,-12.044,-60.189,-0.521,-28.034
3.7359942999996747,-22.136,-7.458,-48.332,5.077,130.873,-78.979,-45.065,-5.138,-5.859,-3.966,-10.894,-14.71,-18.262,-29.648,-71.11,-3.442,-31.838,-41.37,-32.661,-38.228,-60.701,-13.888,-29.548,-9.007,-2.477,-11.52,-65.251,-1.546,-25.444
3.7500398999995923,-21.089,-9.5,-48.796,5.584,135.353,-79.412,-25.04,-17.428,-8.927,-1.4,-8.833,-11.621,-13.633,-26.545,-68.477,-0.878,-28.22,-38.255,-24.432,-31.53,-50.907,-5.165,-23.883,-4.388,4.185,-10.996,-66.211,-1.032,-25.931
3.750102699999843,-22.093,-11.027,-54.895,1.993,133.68,-78.308,-15.794,-26.632,-6.869,-2.936,-8.312,-7.511,-13.107,-16.272,-68.921,-1.901,-16.921,-25.921,-13.137,-27.4,-47.27,0.988,-12.076,1.252,5.206,-7.911,-61.534,-3.08,-28.979
3.7650634999999966,-30.268,-13.065,-59.963,-8.768,122.276,-78.23,-28.586,-18.409,0.31,-1.908,-8.304,-6.479,-11.557,-12.157,-70.389,2.199,-9.219,-22.821,-13.123,-27.885,-52.346,2.524,-12.576,1.763,4.688,-5.342,-65.058,-11.274,-36.635
3.7800947999999153,-37.41,-21.249,-66.563,-19.005,116.006,-86.348,-33.168,-24.026,-7.375,-6.517,-17.005,-12.108,-14.107,-15.219,-70.831,-2.414,-11.772,-30.996,-16.696,-30.931,-51.269,-2.601,-18.711,-1.312,6.221,-9.947,-74.215,-20.484,-42.746
3.7801555999999437,-37.885,-25.839,-71.619,-18.986,113.328,-95.483,-26.475,-37.322,-15.565,-17.781,-26.722,-17.731,-21.265,-16.228,-72.809,-10.608,-13.809,-26.866,-18.729,-34.998,-48.144,-4.648,-16.131,0.738,9.801,-16.085,-78.239,-18.414,-38.605
3.7941343999996207,-41.433,-22.227,-66.425,-13.844,106.555,-96.925,-32.596,-31.649,-13.5,-22.887,-32.33,-22.837,-24.317,-18.261,-77.347,-12.647,-12.258,-23.253,-25.37,-39.061,-56.292,-11.303,-23.799,-3.361,6.717,-20.68,-86.358,-15.322,-36.005
3.7941986999999244,-47.539,-21.692,-57.649,-11.781,104.399,-94.266,-35.637,-30.593,-17.585,-23.888,-35.884,-29.986,-27.367,-22.341,-80.344,-18.27,-16.857,-31.939,-34.054,-43.633,-64.945,-28.711,-40.682,-16.678,-4.561,-26.807,-94.981,-19.405,-34.944
3.8090823999996246,-40.832,-20.646,-52.468,-8.695,108.393,-91.098,-24.331,-38.759,-23.715,-25.914,-32.775,-32.005,-32.463,-24.881,-77.189,-20.813,-20.426,-36.006,-34.02,-45.126,-60.27,-32.268,-41.153,-20.759,-10.704,-27.805,-88.226,-16.824,-23.126
3.809150899999622,-24.397,-9.867,-49.854,-1.514,116.482,-85.884,-27.893,-25.4,-20.617,-20.252,-20.959,-23.264,-27.307,-26.905,-68.915,-7.472,-14.77,-37.506,-25.277,-34.323,-49.963,-16.867,-31.891,-15.616,-10.693,-18.043,-75.842,-8.61,-16.443
3.8240819999996347,-11.565,3.976,-46.731,8.221,133.784,-77.601,-42.209,-7.956,-13.424,-6.4,-6.081,-8.384,-14.472,-24.829,-60.649,5.343,-10.145,-42.08,-15.005,-21.481,-36.081,0.056,-22.637,-7.915,-7.096,-4.193,-68.594,-0.917,-17.451
3.825775999999678,-4.381,11.656,-37.975,19.484,151.581,-67.278,-30.384,-5.387,-0.603,8.976,9.295,4.945,-5.236,-17.632,-55.466,14.047,-7.573,-34.865,-6.793,-17.361,-22.212,11.839,-9.295,8.999,6.231,7.595,-58.279,12.404,-9.749
3.839189599999827,-6.426,7.546,-35.375,22.538,156.04,-64.649,-9.349,0.254,8.619,15.114,12.359,10.063,0.917,-11.979,-56.947,22.23,0.631,-25.097,-4.225,-15.807,-24.239,12.852,-4.162,20.773,20.057,11.173,-54.122,16.49,-8.202
3.8392549000000145,-20.764,-5.781,-51.734,7.146,155.372,-80.466,-11.389,0.254,0.926,3.316,-1.486,6.466,2.453,-8.381,-66.112,18.621,4.217,-30.195,-9.344,-17.328,-34.974,3.106,-8.769,14.092,16.451,2.453,-68.413,1.104,-24.076
3.854272999999921,-33.551,-17.046,-65.514,-8.23,154.704,-97.291,-20.087,-20.751,-9.834,-11.544,-11.73,2.362,-0.623,-5.811,-71.681,10.406,0.627,-31.189,-14.97,-27.557,-37.5,-3.045,-14.908,2.807,5.164,-9.333,-85.763,-6.582,-33.785
3.8543359999998756,-31.98,-17.029,-64.424,-8.222,147.377,-92.583,-19.554,-30.464,-9.312,-8.459,-7.62,2.872,0.402,-6.317,-68.536,14.494,2.163,-23.473,-15.98,-29.066,-36.95,-8.165,-25.139,-5.393,-3.039,-13.422,-83.628,0.597,-32.727
3.87027259999968,-28.362,-14.451,-64.872,-8.726,143.643,-84.806,-21.584,-19.163,-5.204,-1.278,-5.051,1.844,2.963,-8.36,-65.905,13.455,4.21,-24.474,-15.964,-23.402,-39.987,-14.305,-33.311,-11.535,-7.646,-15.458,-74.323,3.67,-30.645
3.8703396999999313,-24.748,-12.899,-66.344,-9.742,111.737,-77.037,-21.05,-15.558,0.437,0.26,-6.07,-2.769,-2.163,-8.352,-55.593,1.658,-2.454,-29.573,-18.509,-23.89,-34.824,-16.34,-34.814,-13.06,-10.712,-19.541,-55.805,4.691,-24.979
3.8842116999999234,8.065,-6.227,-61.154,0.002,79.35,-44.172,-10.783,-9.395,16.318,21.265,10.329,-1.229,-0.112,-11.929,-22.75,-5.516,-13.723,-34.666,-16.954,-3.887,-3.026,-16.836,-40.415,-17.146,-17.362,-21.058,-22.962,12.371,-22.392
3.885911799999576,40.844,-2.122,-61.606,2.563,46.995,-11.34,-8.211,8.546,42.429,54.031,43.107,9.018,15.258,-22.676,10.06,-11.146,-26.004,-43.853,-4.129,28.905,29.764,-17.331,-44.473,-29.424,-29.64,-23.086,9.849,12.871,-29.03
3.899214199999733,73.591,-5.706,-66.155,-6.149,14.673,21.459,-12.813,11.611,62.367,78.056,67.142,19.256,23.439,-30.85,42.838,-14.721,-35.2,-49.445,14.83,61.664,62.522,-9.629,-37.769,-32.468,-34.221,-24.6,42.627,6.198,-36.173
3.8992817999996987,76.079,-2.114,-65.064,-6.655,14.658,13.753,-7.677,6.988,64.354,81.564,74.76,28.97,25.465,-28.258,42.795,-2.41,-27.992,-43.248,30.185,72.361,71.681,5.75,-23.898,-18.091,-23.428,-16.891,31.313,11.315,-36.649
3.9142752999996446,82.663,7.11,-66.024,-2.55,47.431,7.591,-6.645,14.154,65.314,87.117,81.345,40.212,36.71,-20.545,36.605,14.498,-15.669,-36.544,40.401,82.022,84.93,21.625,-9.018,-4.241,-11.109,-4.579,24.622,25.649,-31.49
3.9143388999996205,89.24,5.053,-72.618,-9.207,15.108,25.515,-17.397,13.115,69.859,93.178,87.411,46.319,42.309,-19.5,54.499,19.607,-16.166,-34.459,48.557,91.674,96.628,29.801,-2.861,-1.163,-10.074,0.549,47.651,29.209,-29.921
3.92925809999997,79.417,0.95,-74.082,-12.784,26.364,10.632,-18.916,2.343,61.593,85.4,81.176,44.224,34.582,-16.919,45.223,24.198,-15.125,-27.764,51.583,89.533,91.92,30.283,-4.395,0.888,-8.014,0.548,25.574,29.18,-30.404
3.9442317999996703,74.215,10.17,-64.786,-3.037,59.125,-20.629,-15.824,3.366,52.822,75.069,73.923,43.667,31.986,-8.705,17.513,32.883,-0.765,-13.392,52.556,81.247,86.705,35.888,3.806,8.059,4.801,4.134,-6.727,41.446,-18.59
3.944286699999793,72.604,13.234,-58.061,2.089,91.854,-37.515,-25.029,6.436,53.281,66.284,66.676,38.501,26.831,-8.184,5.2,28.239,1.285,-8.255,49.429,70.407,79.959,34.316,8.413,8.051,8.383,5.667,-16.454,42.942,-12.424
3.959354699999949,49.989,-3.685,-67.225,-9.697,109.18,-64.629,-33.201,-4.329,39.396,48.287,45.093,18.482,8.873,-19.447,-20.421,6.694,-13.573,-23.104,32.474,49.844,56.825,12.252,-7.477,-4.252,-2.896,-6.122,-48.713,20.869,-31.367
3.9594225999999253,31.496,-10.854,-74.33,-15.322,141.859,-92.742,-27.533,-13.546,23.475,35.431,31.215,6.681,2.204,-24.55,-48.577,-3.559,-16.121,-34.864,18.097,36.474,46.01,1.994,-16.178,-10.908,-3.406,-14.825,-80.94,13.676,-41.582
3.9744071999998596,43.76,7.6,-59.399,3.136,174.505,-97.26,-15.21,-5.335,35.747,46.667,43.992,22.555,18.084,-15.816,-45.455,10.789,-4.322,-26.12,24.226,40.536,57.747,14.287,-4.379,-1.676,8.893,-4.052,-77.272,31.081,-24.634
3.9744885000000068,47.303,15.789,-43.458,16.453,207.118,-103.823,-4.948,7.478,50.568,57.891,52.657,34.828,26.263,-8.628,-52.069,20.0,-0.219,-17.897,24.202,36.91,55.127,11.711,-5.399,-1.162,5.298,-0.461,-87.441,36.685,-16.925
3.989719899999727,23.177,-1.645,-50.587,5.166,239.698,-126.26,-1.87,7.982,45.906,48.611,38.26,20.961,17.527,-11.181,-84.292,4.611,-5.342,-28.125,3.173,13.307,32.531,-12.891,-27.936,-21.653,-15.2,-19.416,-119.629,21.279,-30.228
3.989781099999618,8.297,-12.914,-62.831,-2.524,272.246,-145.089,-3.405,2.339,38.688,38.829,26.439,8.645,12.899,-15.781,-103.164,-8.714,-9.948,-39.368,-7.589,-1.051,21.227,-26.711,-44.301,-35.463,-28.505,-30.155,-143.588,7.938,-37.37
4.00435219999963,6.752,-11.364,-63.281,2.602,303.737,-160.826,-4.938,0.8,30.965,35.716,22.314,12.222,13.398,-13.716,-106.647,-5.631,-9.425,-35.23,-0.921,-0.538,21.206,-22.073,-40.671,-31.33,-26.427,-25.002,-156.764,3.832,-37.845
4.004417299999659,-2.989,-12.89,-61.168,-2.012,336.221,-176.034,-16.204,-1.25,25.299,28.508,18.193,12.21,9.799,-7.554,-120.885,-1.015,-1.731,-24.949,1.129,-3.611,18.111,-13.342,-26.798,-23.101,-16.154,-20.366,-178.637,5.877,-38.319
4.019447499999842,-10.671,-10.315,-61.62,-7.645,368.673,-188.154,-28.483,-7.397,26.81,19.258,15.101,10.661,7.227,-7.034,-130.498,4.109,5.443,-19.288,-0.409,-7.194,17.068,-7.181,-18.062,-11.295,-2.818,-14.711,-189.217,12.019,-32.133
4.0195145999996384,-9.123,-3.133,-58.484,-2.514,400.579,-206.921,-21.795,-14.049,21.148,10.53,10.987,13.212,5.683,-6.003,-136.002,12.814,5.95,-15.683,3.178,-4.625,18.588,-4.1,-14.458,4.085,11.529,-8.036,-198.761,19.691,-21.855
4.034425299999839,-9.114,-1.08,-46.643,-0.975,432.966,-222.083,-6.404,-12.498,12.418,3.859,7.902,15.76,5.165,5.274,-147.137,19.974,15.165,-5.421,8.81,-4.108,21.643,2.052,-4.197,15.352,26.887,-1.88,-211.883,34.016,-9.538
4.034497599999668,-4.494,7.63,-35.325,0.563,465.321,-224.935,-4.348,0.834,20.09,9.491,13.53,22.404,10.795,17.052,-153.138,30.2,33.593,5.343,17.51,-3.592,29.306,15.882,7.59,25.583,38.131,10.417,-212.695,53.45,5.329
4.0494432999998935,0.121,17.356,-45.536,2.612,497.644,-235.981,-5.368,5.444,24.168,14.604,16.078,26.48,12.322,13.961,-156.571,37.855,35.609,0.727,19.03,-5.125,30.302,21.502,8.095,27.094,28.359,17.067,-221.192,59.032,3.274
4.049503399999594,-10.637,6.58,-65.983,-6.613,529.934,-256.749,0.272,-10.955,11.849,2.807,4.279,14.671,2.063,4.725,-169.222,27.058,19.179,-12.082,7.74,-18.44,19.513,10.722,-2.672,11.698,5.277,7.316,-247.611,45.653,-15.684
